 I_abs(s)[cm^-1]/c[mg/ml]
       0.00000          0.142526E-01
      0.500000E-02      0.141724E-01
      0.100000E-01      0.139354E-01
      0.150000E-01      0.135522E-01
      0.200000E-01      0.130396E-01
      0.250000E-01      0.124193E-01
      0.300000E-01      0.117157E-01
      0.350000E-01      0.109548E-01
      0.400000E-01      0.101618E-01
      0.450000E-01      0.935982E-02
      0.500000E-01      0.856869E-02
      0.550000E-01      0.780415E-02
      0.600000E-01      0.707759E-02
      0.650000E-01      0.639620E-02
      0.700000E-01      0.576349E-02
      0.750000E-01      0.518004E-02
      0.800000E-01      0.464436E-02
      0.850000E-01      0.415376E-02
      0.900000E-01      0.370508E-02
      0.950000E-01      0.329526E-02
      0.100000          0.292167E-02
      0.105000          0.258229E-02
      0.110000          0.227562E-02
      0.115000          0.200052E-02
      0.120000          0.175601E-02
      0.125000          0.154103E-02
      0.130000          0.135422E-02
      0.135000          0.119383E-02
      0.140000          0.105771E-02
      0.145000          0.943367E-03
      0.150000          0.848039E-03
      0.155000          0.768896E-03
      0.160000          0.703177E-03
      0.165000          0.648331E-03
      0.170000          0.602116E-03
      0.175000          0.562658E-03
      0.180000          0.528462E-03
      0.185000          0.498385E-03
      0.190000          0.471587E-03
      0.195000          0.447464E-03
      0.200000          0.425589E-03
      0.205000          0.405652E-03
      0.210000          0.387422E-03
      0.215000          0.370712E-03
      0.220000          0.355365E-03
      0.225000          0.341247E-03
      0.230000          0.328238E-03
      0.235000          0.316235E-03
      0.240000          0.305147E-03
      0.245000          0.294891E-03
      0.250000          0.285391E-03
      0.255000          0.276576E-03
      0.260000          0.268378E-03
      0.265000          0.260738E-03
      0.270000          0.253604E-03
      0.275000          0.246938E-03
      0.280000          0.240721E-03
      0.285000          0.234947E-03
      0.290000          0.229625E-03
      0.295000          0.224770E-03
      0.300000          0.220394E-03
      0.305000          0.216493E-03
      0.310000          0.213043E-03
      0.315000          0.209985E-03
      0.320000          0.207231E-03
      0.325000          0.204664E-03
      0.330000          0.202146E-03
      0.335000          0.199532E-03
      0.340000          0.196684E-03
      0.345000          0.193486E-03
      0.350000          0.189857E-03
      0.355000          0.185756E-03
      0.360000          0.181186E-03
      0.365000          0.176191E-03
      0.370000          0.170846E-03
      0.375000          0.165251E-03
      0.380000          0.159513E-03
      0.385000          0.153737E-03
      0.390000          0.148016E-03
      0.395000          0.142424E-03
      0.400000          0.137014E-03
      0.405000          0.131815E-03
      0.410000          0.126842E-03
      0.415000          0.122095E-03
      0.420000          0.117571E-03
      0.425000          0.113263E-03
      0.430000          0.109173E-03
      0.435000          0.105306E-03
      0.440000          0.101676E-03
      0.445000          0.983027E-04
      0.450000          0.952088E-04
      0.455000          0.924164E-04
      0.460000          0.899437E-04
      0.465000          0.878024E-04
      0.470000          0.859959E-04
      0.475000          0.845188E-04
      0.480000          0.833571E-04
      0.485000          0.824906E-04
      0.490000          0.818937E-04
      0.495000          0.815382E-04
      0.500000          0.813943E-04
