 I_abs(s)[cm^-1]/c[mg/ml]
       0.00000          0.147915E-01
      0.500000E-02      0.147141E-01
      0.100000E-01      0.144843E-01
      0.150000E-01      0.141089E-01
      0.200000E-01      0.135989E-01
      0.250000E-01      0.129692E-01
      0.300000E-01      0.122374E-01
      0.350000E-01      0.114237E-01
      0.400000E-01      0.105494E-01
      0.450000E-01      0.963642E-02
      0.500000E-01      0.870636E-02
      0.550000E-01      0.777962E-02
      0.600000E-01      0.687478E-02
      0.650000E-01      0.600811E-02
      0.700000E-01      0.519310E-02
      0.750000E-01      0.444029E-02
      0.800000E-01      0.375717E-02
      0.850000E-01      0.314828E-02
      0.900000E-01      0.261536E-02
      0.950000E-01      0.215769E-02
      0.100000          0.177246E-02
      0.105000          0.145511E-02
      0.110000          0.119982E-02
      0.115000          0.999911E-03
      0.120000          0.848178E-03
      0.125000          0.737289E-03
      0.130000          0.660044E-03
      0.135000          0.609612E-03
      0.140000          0.579709E-03
      0.145000          0.564717E-03
      0.150000          0.559757E-03
      0.155000          0.560722E-03
      0.160000          0.564272E-03
      0.165000          0.567804E-03
      0.170000          0.569399E-03
      0.175000          0.567760E-03
      0.180000          0.562134E-03
      0.185000          0.552229E-03
      0.190000          0.538133E-03
      0.195000          0.520229E-03
      0.200000          0.499117E-03
      0.205000          0.475537E-03
      0.210000          0.450299E-03
      0.215000          0.424229E-03
      0.220000          0.398108E-03
      0.225000          0.372644E-03
      0.230000          0.348431E-03
      0.235000          0.325939E-03
      0.240000          0.305502E-03
      0.245000          0.287321E-03
      0.250000          0.271471E-03
      0.255000          0.257920E-03
      0.260000          0.246545E-03
      0.265000          0.237156E-03
      0.270000          0.229519E-03
      0.275000          0.223374E-03
      0.280000          0.218456E-03
      0.285000          0.214511E-03
      0.290000          0.211304E-03
      0.295000          0.208629E-03
      0.300000          0.206312E-03
      0.305000          0.204213E-03
      0.310000          0.202220E-03
      0.315000          0.200252E-03
      0.320000          0.198246E-03
      0.325000          0.196161E-03
      0.330000          0.193967E-03
      0.335000          0.191644E-03
      0.340000          0.189175E-03
      0.345000          0.186550E-03
      0.350000          0.183760E-03
      0.355000          0.180796E-03
      0.360000          0.177654E-03
      0.365000          0.174331E-03
      0.370000          0.170828E-03
      0.375000          0.167152E-03
      0.380000          0.163313E-03
      0.385000          0.159332E-03
      0.390000          0.155235E-03
      0.395000          0.151054E-03
      0.400000          0.146829E-03
      0.405000          0.142604E-03
      0.410000          0.138428E-03
      0.415000          0.134349E-03
      0.420000          0.130418E-03
      0.425000          0.126679E-03
      0.430000          0.123172E-03
      0.435000          0.119930E-03
      0.440000          0.116975E-03
      0.445000          0.114319E-03
      0.450000          0.111965E-03
      0.455000          0.109902E-03
      0.460000          0.108110E-03
      0.465000          0.106562E-03
      0.470000          0.105223E-03
      0.475000          0.104054E-03
      0.480000          0.103014E-03
      0.485000          0.102064E-03
      0.490000          0.101167E-03
      0.495000          0.100293E-03
      0.500000          0.994156E-04
