 I_abs(s)[cm^-1]/c[mg/ml]
       0.00000          0.144654E-01
      0.500000E-02      0.144160E-01
      0.100000E-01      0.142688E-01
      0.150000E-01      0.140267E-01
      0.200000E-01      0.136943E-01
      0.250000E-01      0.132780E-01
      0.300000E-01      0.127857E-01
      0.350000E-01      0.122263E-01
      0.400000E-01      0.116101E-01
      0.450000E-01      0.109477E-01
      0.500000E-01      0.102504E-01
      0.550000E-01      0.952954E-02
      0.600000E-01      0.879614E-02
      0.650000E-01      0.806093E-02
      0.700000E-01      0.733391E-02
      0.750000E-01      0.662419E-02
      0.800000E-01      0.593982E-02
      0.850000E-01      0.528770E-02
      0.900000E-01      0.467343E-02
      0.950000E-01      0.410137E-02
      0.100000          0.357457E-02
      0.105000          0.309486E-02
      0.110000          0.266295E-02
      0.115000          0.227846E-02
      0.120000          0.194014E-02
      0.125000          0.164597E-02
      0.130000          0.139328E-02
      0.135000          0.117898E-02
      0.140000          0.999628E-03
      0.145000          0.851617E-03
      0.150000          0.731278E-03
      0.155000          0.634990E-03
      0.160000          0.559269E-03
      0.165000          0.500841E-03
      0.170000          0.456687E-03
      0.175000          0.424084E-03
      0.180000          0.400619E-03
      0.185000          0.384190E-03
      0.190000          0.373007E-03
      0.195000          0.365566E-03
      0.200000          0.360633E-03
      0.205000          0.357215E-03
      0.210000          0.354531E-03
      0.215000          0.351985E-03
      0.220000          0.349135E-03
      0.225000          0.345670E-03
      0.230000          0.341385E-03
      0.235000          0.336164E-03
      0.240000          0.329959E-03
      0.245000          0.322778E-03
      0.250000          0.314672E-03
      0.255000          0.305727E-03
      0.260000          0.296054E-03
      0.265000          0.285780E-03
      0.270000          0.275048E-03
      0.275000          0.264006E-03
      0.280000          0.252802E-03
      0.285000          0.241582E-03
      0.290000          0.230484E-03
      0.295000          0.219636E-03
      0.300000          0.209150E-03
      0.305000          0.199120E-03
      0.310000          0.189623E-03
      0.315000          0.180716E-03
      0.320000          0.172436E-03
      0.325000          0.164801E-03
      0.330000          0.157812E-03
      0.335000          0.151458E-03
      0.340000          0.145713E-03
      0.345000          0.140545E-03
      0.350000          0.135916E-03
      0.355000          0.131787E-03
      0.360000          0.128116E-03
      0.365000          0.124868E-03
      0.370000          0.122009E-03
      0.375000          0.119513E-03
      0.380000          0.117356E-03
      0.385000          0.115521E-03
      0.390000          0.113995E-03
      0.395000          0.112766E-03
      0.400000          0.111825E-03
      0.405000          0.111161E-03
      0.410000          0.110762E-03
      0.415000          0.110611E-03
      0.420000          0.110686E-03
      0.425000          0.110962E-03
      0.430000          0.111407E-03
      0.435000          0.111984E-03
      0.440000          0.112652E-03
      0.445000          0.113366E-03
      0.450000          0.114080E-03
      0.455000          0.114749E-03
      0.460000          0.115328E-03
      0.465000          0.115776E-03
      0.470000          0.116057E-03
      0.475000          0.116141E-03
      0.480000          0.116005E-03
      0.485000          0.115636E-03
      0.490000          0.115025E-03
      0.495000          0.114174E-03
      0.500000          0.113091E-03
