 I_abs(s)[cm^-1]/c[mg/ml]
       0.00000          0.144417E-01
      0.500000E-02      0.143855E-01
      0.100000E-01      0.142184E-01
      0.150000E-01      0.139442E-01
      0.200000E-01      0.135692E-01
      0.250000E-01      0.131020E-01
      0.300000E-01      0.125530E-01
      0.350000E-01      0.119342E-01
      0.400000E-01      0.112588E-01
      0.450000E-01      0.105405E-01
      0.500000E-01      0.979338E-02
      0.550000E-01      0.903138E-02
      0.600000E-01      0.826773E-02
      0.650000E-01      0.751475E-02
      0.700000E-01      0.678347E-02
      0.750000E-01      0.608344E-02
      0.800000E-01      0.542251E-02
      0.850000E-01      0.480677E-02
      0.900000E-01      0.424051E-02
      0.950000E-01      0.372629E-02
      0.100000          0.326505E-02
      0.105000          0.285623E-02
      0.110000          0.249804E-02
      0.115000          0.218762E-02
      0.120000          0.192132E-02
      0.125000          0.169494E-02
      0.130000          0.150395E-02
      0.135000          0.134371E-02
      0.140000          0.120967E-02
      0.145000          0.109750E-02
      0.150000          0.100323E-02
      0.155000          0.923317E-03
      0.160000          0.854727E-03
      0.165000          0.794915E-03
      0.170000          0.741833E-03
      0.175000          0.693893E-03
      0.180000          0.649920E-03
      0.185000          0.609086E-03
      0.190000          0.570847E-03
      0.195000          0.534878E-03
      0.200000          0.501004E-03
      0.205000          0.469148E-03
      0.210000          0.439285E-03
      0.215000          0.411406E-03
      0.220000          0.385487E-03
      0.225000          0.361482E-03
      0.230000          0.339313E-03
      0.235000          0.318869E-03
      0.240000          0.300016E-03
      0.245000          0.282607E-03
      0.250000          0.266491E-03
      0.255000          0.251525E-03
      0.260000          0.237586E-03
      0.265000          0.224572E-03
      0.270000          0.212412E-03
      0.275000          0.201065E-03
      0.280000          0.190514E-03
      0.285000          0.180764E-03
      0.290000          0.171835E-03
      0.295000          0.163754E-03
      0.300000          0.156545E-03
      0.305000          0.150224E-03
      0.310000          0.144791E-03
      0.315000          0.140226E-03
      0.320000          0.136486E-03
      0.325000          0.133506E-03
      0.330000          0.131199E-03
      0.335000          0.129461E-03
      0.340000          0.128177E-03
      0.345000          0.127224E-03
      0.350000          0.126478E-03
      0.355000          0.125824E-03
      0.360000          0.125156E-03
      0.365000          0.124386E-03
      0.370000          0.123446E-03
      0.375000          0.122290E-03
      0.380000          0.120892E-03
      0.385000          0.119250E-03
      0.390000          0.117381E-03
      0.395000          0.115315E-03
      0.400000          0.113097E-03
      0.405000          0.110779E-03
      0.410000          0.108415E-03
      0.415000          0.106060E-03
      0.420000          0.103762E-03
      0.425000          0.101566E-03
      0.430000          0.995038E-04
      0.435000          0.975991E-04
      0.440000          0.958643E-04
      0.445000          0.943019E-04
      0.450000          0.929053E-04
      0.455000          0.916609E-04
      0.460000          0.905494E-04
      0.465000          0.895488E-04
      0.470000          0.886357E-04
      0.475000          0.877877E-04
      0.480000          0.869844E-04
      0.485000          0.862093E-04
      0.490000          0.854499E-04
      0.495000          0.846984E-04
      0.500000          0.839513E-04
