 I_abs(s)[cm^-1]/c[mg/ml]
       0.00000          0.146081E-01
      0.500000E-02      0.145458E-01
      0.100000E-01      0.143608E-01
      0.150000E-01      0.140581E-01
      0.200000E-01      0.136464E-01
      0.250000E-01      0.131367E-01
      0.300000E-01      0.125425E-01
      0.350000E-01      0.118792E-01
      0.400000E-01      0.111627E-01
      0.450000E-01      0.104096E-01
      0.500000E-01      0.963609E-02
      0.550000E-01      0.885737E-02
      0.600000E-01      0.808730E-02
      0.650000E-01      0.733801E-02
      0.700000E-01      0.661957E-02
      0.750000E-01      0.593991E-02
      0.800000E-01      0.530483E-02
      0.850000E-01      0.471807E-02
      0.900000E-01      0.418151E-02
      0.950000E-01      0.369538E-02
      0.100000          0.325862E-02
      0.105000          0.286908E-02
      0.110000          0.252388E-02
      0.115000          0.221968E-02
      0.120000          0.195285E-02
      0.125000          0.171973E-02
      0.130000          0.151673E-02
      0.135000          0.134044E-02
      0.140000          0.118772E-02
      0.145000          0.105567E-02
      0.150000          0.941706E-03
      0.155000          0.843505E-03
      0.160000          0.758997E-03
      0.165000          0.686343E-03
      0.170000          0.623915E-03
      0.175000          0.570274E-03
      0.180000          0.524154E-03
      0.185000          0.484449E-03
      0.190000          0.450206E-03
      0.195000          0.420610E-03
      0.200000          0.394974E-03
      0.205000          0.372729E-03
      0.210000          0.353406E-03
      0.215000          0.336620E-03
      0.220000          0.322054E-03
      0.225000          0.309437E-03
      0.230000          0.298533E-03
      0.235000          0.289121E-03
      0.240000          0.280989E-03
      0.245000          0.273926E-03
      0.250000          0.267719E-03
      0.255000          0.262157E-03
      0.260000          0.257035E-03
      0.265000          0.252158E-03
      0.270000          0.247355E-03
      0.275000          0.242477E-03
      0.280000          0.237412E-03
      0.285000          0.232079E-03
      0.290000          0.226437E-03
      0.295000          0.220474E-03
      0.300000          0.214213E-03
      0.305000          0.207695E-03
      0.310000          0.200981E-03
      0.315000          0.194140E-03
      0.320000          0.187244E-03
      0.325000          0.180362E-03
      0.330000          0.173559E-03
      0.335000          0.166892E-03
      0.340000          0.160408E-03
      0.345000          0.154149E-03
      0.350000          0.148147E-03
      0.355000          0.142433E-03
      0.360000          0.137034E-03
      0.365000          0.131974E-03
      0.370000          0.127275E-03
      0.375000          0.122958E-03
      0.380000          0.119039E-03
      0.385000          0.115528E-03
      0.390000          0.112429E-03
      0.395000          0.109733E-03
      0.400000          0.107423E-03
      0.405000          0.105471E-03
      0.410000          0.103835E-03
      0.415000          0.102468E-03
      0.420000          0.101312E-03
      0.425000          0.100309E-03
      0.430000          0.993987E-04
      0.435000          0.985267E-04
      0.440000          0.976450E-04
      0.445000          0.967167E-04
      0.450000          0.957171E-04
      0.455000          0.946358E-04
      0.460000          0.934759E-04
      0.465000          0.922533E-04
      0.470000          0.909948E-04
      0.475000          0.897351E-04
      0.480000          0.885137E-04
      0.485000          0.873717E-04
      0.490000          0.863483E-04
      0.495000          0.854776E-04
      0.500000          0.847869E-04
