 I_abs(s)[cm^-1]/c[mg/ml]
       0.00000          0.142369E-01
      0.500000E-02      0.141737E-01
      0.100000E-01      0.139856E-01
      0.150000E-01      0.136779E-01
      0.200000E-01      0.132587E-01
      0.250000E-01      0.127391E-01
      0.300000E-01      0.121326E-01
      0.350000E-01      0.114542E-01
      0.400000E-01      0.107203E-01
      0.450000E-01      0.994781E-02
      0.500000E-01      0.915337E-02
      0.550000E-01      0.835307E-02
      0.600000E-01      0.756178E-02
      0.650000E-01      0.679277E-02
      0.700000E-01      0.605736E-02
      0.750000E-01      0.536476E-02
      0.800000E-01      0.472194E-02
      0.850000E-01      0.413366E-02
      0.900000E-01      0.360259E-02
      0.950000E-01      0.312946E-02
      0.100000          0.271334E-02
      0.105000          0.235188E-02
      0.110000          0.204164E-02
      0.115000          0.177838E-02
      0.120000          0.155734E-02
      0.125000          0.137350E-02
      0.130000          0.122180E-02
      0.135000          0.109734E-02
      0.140000          0.995487E-03
      0.145000          0.912006E-03
      0.150000          0.843117E-03
      0.155000          0.785526E-03
      0.160000          0.736435E-03
      0.165000          0.693530E-03
      0.170000          0.654955E-03
      0.175000          0.619278E-03
      0.180000          0.585445E-03
      0.185000          0.552738E-03
      0.190000          0.520728E-03
      0.195000          0.489226E-03
      0.200000          0.458237E-03
      0.205000          0.427918E-03
      0.210000          0.398527E-03
      0.215000          0.370388E-03
      0.220000          0.343848E-03
      0.225000          0.319243E-03
      0.230000          0.296868E-03
      0.235000          0.276950E-03
      0.240000          0.259634E-03
      0.245000          0.244967E-03
      0.250000          0.232902E-03
      0.255000          0.223294E-03
      0.260000          0.215918E-03
      0.265000          0.210479E-03
      0.270000          0.206636E-03
      0.275000          0.204023E-03
      0.280000          0.202271E-03
      0.285000          0.201031E-03
      0.290000          0.199987E-03
      0.295000          0.198878E-03
      0.300000          0.197497E-03
      0.305000          0.195707E-03
      0.310000          0.193429E-03
      0.315000          0.190643E-03
      0.320000          0.187377E-03
      0.325000          0.183699E-03
      0.330000          0.179698E-03
      0.335000          0.175480E-03
      0.340000          0.171151E-03
      0.345000          0.166809E-03
      0.350000          0.162540E-03
      0.355000          0.158410E-03
      0.360000          0.154462E-03
      0.365000          0.150721E-03
      0.370000          0.147195E-03
      0.375000          0.143876E-03
      0.380000          0.140745E-03
      0.385000          0.137781E-03
      0.390000          0.134957E-03
      0.395000          0.132250E-03
      0.400000          0.129643E-03
      0.405000          0.127121E-03
      0.410000          0.124678E-03
      0.415000          0.122313E-03
      0.420000          0.120028E-03
      0.425000          0.117832E-03
      0.430000          0.115731E-03
      0.435000          0.113734E-03
      0.440000          0.111847E-03
      0.445000          0.110076E-03
      0.450000          0.108423E-03
      0.455000          0.106884E-03
      0.460000          0.105458E-03
      0.465000          0.104136E-03
      0.470000          0.102910E-03
      0.475000          0.101770E-03
      0.480000          0.100707E-03
      0.485000          0.997088E-04
      0.490000          0.987660E-04
      0.495000          0.978690E-04
      0.500000          0.970090E-04
