 I_abs(s)[cm^-1]/c[mg/ml]
       0.00000          0.141273E-01
      0.500000E-02      0.140684E-01
      0.100000E-01      0.138934E-01
      0.150000E-01      0.136070E-01
      0.200000E-01      0.132169E-01
      0.250000E-01      0.127332E-01
      0.300000E-01      0.121683E-01
      0.350000E-01      0.115364E-01
      0.400000E-01      0.108525E-01
      0.450000E-01      0.101320E-01
      0.500000E-01      0.939055E-02
      0.550000E-01      0.864284E-02
      0.600000E-01      0.790258E-02
      0.650000E-01      0.718192E-02
      0.700000E-01      0.649125E-02
      0.750000E-01      0.583892E-02
      0.800000E-01      0.523126E-02
      0.850000E-01      0.467251E-02
      0.900000E-01      0.416497E-02
      0.950000E-01      0.370918E-02
      0.100000          0.330412E-02
      0.105000          0.294752E-02
      0.110000          0.263612E-02
      0.115000          0.236594E-02
      0.120000          0.213262E-02
      0.125000          0.193157E-02
      0.130000          0.175829E-02
      0.135000          0.160844E-02
      0.140000          0.147806E-02
      0.145000          0.136360E-02
      0.150000          0.126199E-02
      0.155000          0.117066E-02
      0.160000          0.108753E-02
      0.165000          0.101100E-02
      0.170000          0.939842E-03
      0.175000          0.873212E-03
      0.180000          0.810544E-03
      0.185000          0.751505E-03
      0.190000          0.695928E-03
      0.195000          0.643760E-03
      0.200000          0.595016E-03
      0.205000          0.549731E-03
      0.210000          0.507939E-03
      0.215000          0.469640E-03
      0.220000          0.434793E-03
      0.225000          0.403302E-03
      0.230000          0.375016E-03
      0.235000          0.349737E-03
      0.240000          0.327220E-03
      0.245000          0.307194E-03
      0.250000          0.289364E-03
      0.255000          0.273435E-03
      0.260000          0.259115E-03
      0.265000          0.246135E-03
      0.270000          0.234255E-03
      0.275000          0.223269E-03
      0.280000          0.213013E-03
      0.285000          0.203366E-03
      0.290000          0.194243E-03
      0.295000          0.185600E-03
      0.300000          0.177420E-03
      0.305000          0.169710E-03
      0.310000          0.162494E-03
      0.315000          0.155803E-03
      0.320000          0.149667E-03
      0.325000          0.144111E-03
      0.330000          0.139151E-03
      0.335000          0.134786E-03
      0.340000          0.130999E-03
      0.345000          0.127757E-03
      0.350000          0.125013E-03
      0.355000          0.122702E-03
      0.360000          0.120754E-03
      0.365000          0.119089E-03
      0.370000          0.117625E-03
      0.375000          0.116282E-03
      0.380000          0.114987E-03
      0.385000          0.113671E-03
      0.390000          0.112282E-03
      0.395000          0.110777E-03
      0.400000          0.109131E-03
      0.405000          0.107332E-03
      0.410000          0.105384E-03
      0.415000          0.103305E-03
      0.420000          0.101124E-03
      0.425000          0.988826E-04
      0.430000          0.966265E-04
      0.435000          0.944075E-04
      0.440000          0.922779E-04
      0.445000          0.902881E-04
      0.450000          0.884832E-04
      0.455000          0.869008E-04
      0.460000          0.855682E-04
      0.465000          0.845015E-04
      0.470000          0.837039E-04
      0.475000          0.831653E-04
      0.480000          0.828634E-04
      0.485000          0.827637E-04
      0.490000          0.828220E-04
      0.495000          0.829862E-04
      0.500000          0.831986E-04
