 I_abs(s)[cm^-1]/c[mg/ml]
       0.00000          0.133413E-01
      0.500000E-02      0.132287E-01
      0.100000E-01      0.128977E-01
      0.150000E-01      0.123680E-01
      0.200000E-01      0.116703E-01
      0.250000E-01      0.108438E-01
      0.300000E-01      0.993247E-02
      0.350000E-01      0.898180E-02
      0.400000E-01      0.803472E-02
      0.450000E-01      0.712874E-02
      0.500000E-01      0.629348E-02
      0.550000E-01      0.554924E-02
      0.600000E-01      0.490661E-02
      0.650000E-01      0.436695E-02
      0.700000E-01      0.392385E-02
      0.750000E-01      0.356502E-02
      0.800000E-01      0.327457E-02
      0.850000E-01      0.303528E-02
      0.900000E-01      0.283063E-02
      0.950000E-01      0.264640E-02
      0.100000          0.247174E-02
      0.105000          0.229960E-02
      0.110000          0.212662E-02
      0.115000          0.195267E-02
      0.120000          0.177990E-02
      0.125000          0.161188E-02
      0.130000          0.145256E-02
      0.135000          0.130554E-02
      0.140000          0.117340E-02
      0.145000          0.105750E-02
      0.150000          0.957839E-03
      0.155000          0.873262E-03
      0.160000          0.801784E-03
      0.165000          0.740965E-03
      0.170000          0.688306E-03
      0.175000          0.641569E-03
      0.180000          0.598997E-03
      0.185000          0.559416E-03
      0.190000          0.522230E-03
      0.195000          0.487314E-03
      0.200000          0.454866E-03
      0.205000          0.425232E-03
      0.210000          0.398747E-03
      0.215000          0.375614E-03
      0.220000          0.355838E-03
      0.225000          0.339209E-03
      0.230000          0.325334E-03
      0.235000          0.313698E-03
      0.240000          0.303742E-03
      0.245000          0.294938E-03
      0.250000          0.286844E-03
      0.255000          0.279145E-03
      0.260000          0.271660E-03
      0.265000          0.264329E-03
      0.270000          0.257183E-03
      0.275000          0.250305E-03
      0.280000          0.243793E-03
      0.285000          0.237723E-03
      0.290000          0.232131E-03
      0.295000          0.227002E-03
      0.300000          0.222268E-03
      0.305000          0.217826E-03
      0.310000          0.213551E-03
      0.315000          0.209314E-03
      0.320000          0.205003E-03
      0.325000          0.200533E-03
      0.330000          0.195858E-03
      0.335000          0.190974E-03
      0.340000          0.185911E-03
      0.345000          0.180736E-03
      0.350000          0.175538E-03
      0.355000          0.170419E-03
      0.360000          0.165483E-03
      0.365000          0.160825E-03
      0.370000          0.156521E-03
      0.375000          0.152621E-03
      0.380000          0.149140E-03
      0.385000          0.146061E-03
      0.390000          0.143331E-03
      0.395000          0.140867E-03
      0.400000          0.138565E-03
      0.405000          0.136307E-03
      0.410000          0.133979E-03
      0.415000          0.131478E-03
      0.420000          0.128731E-03
      0.425000          0.125698E-03
      0.430000          0.122383E-03
      0.435000          0.118831E-03
      0.440000          0.115129E-03
      0.445000          0.111394E-03
      0.450000          0.107760E-03
      0.455000          0.104367E-03
      0.460000          0.101341E-03
      0.465000          0.987850E-04
      0.470000          0.967628E-04
      0.475000          0.952958E-04
      0.480000          0.943592E-04
      0.485000          0.938852E-04
      0.490000          0.937707E-04
      0.495000          0.938884E-04
      0.500000          0.940998E-04
