 I_abs(s)[cm^-1]/c[mg/ml]
       0.00000          0.142369E-01
      0.500000E-02      0.141584E-01
      0.100000E-01      0.139256E-01
      0.150000E-01      0.135472E-01
      0.200000E-01      0.130367E-01
      0.250000E-01      0.124124E-01
      0.300000E-01      0.116953E-01
      0.350000E-01      0.109089E-01
      0.400000E-01      0.100774E-01
      0.450000E-01      0.922457E-02
      0.500000E-01      0.837257E-02
      0.550000E-01      0.754117E-02
      0.600000E-01      0.674694E-02
      0.650000E-01      0.600279E-02
      0.700000E-01      0.531784E-02
      0.750000E-01      0.469750E-02
      0.800000E-01      0.414374E-02
      0.850000E-01      0.365560E-02
      0.900000E-01      0.322975E-02
      0.950000E-01      0.286117E-02
      0.100000          0.254373E-02
      0.105000          0.227085E-02
      0.110000          0.203595E-02
      0.115000          0.183287E-02
      0.120000          0.165614E-02
      0.125000          0.150112E-02
      0.130000          0.136403E-02
      0.135000          0.124197E-02
      0.140000          0.113275E-02
      0.145000          0.103478E-02
      0.150000          0.946903E-03
      0.155000          0.868264E-03
      0.160000          0.798166E-03
      0.165000          0.735975E-03
      0.170000          0.681057E-03
      0.175000          0.632738E-03
      0.180000          0.590300E-03
      0.185000          0.552993E-03
      0.190000          0.520057E-03
      0.195000          0.490756E-03
      0.200000          0.464406E-03
      0.205000          0.440397E-03
      0.210000          0.418216E-03
      0.215000          0.397452E-03
      0.220000          0.377796E-03
      0.225000          0.359037E-03
      0.230000          0.341050E-03
      0.235000          0.323783E-03
      0.240000          0.307240E-03
      0.245000          0.291467E-03
      0.250000          0.276536E-03
      0.255000          0.262534E-03
      0.260000          0.249550E-03
      0.265000          0.237665E-03
      0.270000          0.226943E-03
      0.275000          0.217427E-03
      0.280000          0.209133E-03
      0.285000          0.202044E-03
      0.290000          0.196116E-03
      0.295000          0.191272E-03
      0.300000          0.187412E-03
      0.305000          0.184413E-03
      0.310000          0.182139E-03
      0.315000          0.180449E-03
      0.320000          0.179202E-03
      0.325000          0.178264E-03
      0.330000          0.177518E-03
      0.335000          0.176860E-03
      0.340000          0.176210E-03
      0.345000          0.175505E-03
      0.350000          0.174699E-03
      0.355000          0.173762E-03
      0.360000          0.172673E-03
      0.365000          0.171417E-03
      0.370000          0.169984E-03
      0.375000          0.168362E-03
      0.380000          0.166540E-03
      0.385000          0.164506E-03
      0.390000          0.162247E-03
      0.395000          0.159756E-03
      0.400000          0.157028E-03
      0.405000          0.154067E-03
      0.410000          0.150886E-03
      0.415000          0.147510E-03
      0.420000          0.143974E-03
      0.425000          0.140322E-03
      0.430000          0.136607E-03
      0.435000          0.132882E-03
      0.440000          0.129204E-03
      0.445000          0.125624E-03
      0.450000          0.122188E-03
      0.455000          0.118930E-03
      0.460000          0.115875E-03
      0.465000          0.113035E-03
      0.470000          0.110409E-03
      0.475000          0.107989E-03
      0.480000          0.105759E-03
      0.485000          0.103698E-03
      0.490000          0.101782E-03
      0.495000          0.999901E-04
      0.500000          0.983038E-04
