 I_abs(s)[cm^-1]/c[mg/ml]
       0.00000          0.139171E-01
      0.500000E-02      0.138341E-01
      0.100000E-01      0.135888E-01
      0.150000E-01      0.131913E-01
      0.200000E-01      0.126576E-01
      0.250000E-01      0.120087E-01
      0.300000E-01      0.112687E-01
      0.350000E-01      0.104637E-01
      0.400000E-01      0.962002E-02
      0.450000E-01      0.876247E-02
      0.500000E-01      0.791355E-02
      0.550000E-01      0.709233E-02
      0.600000E-01      0.631402E-02
      0.650000E-01      0.558973E-02
      0.700000E-01      0.492664E-02
      0.750000E-01      0.432843E-02
      0.800000E-01      0.379576E-02
      0.850000E-01      0.332696E-02
      0.900000E-01      0.291865E-02
      0.950000E-01      0.256629E-02
      0.100000          0.226472E-02
      0.105000          0.200851E-02
      0.110000          0.179219E-02
      0.115000          0.161049E-02
      0.120000          0.145839E-02
      0.125000          0.133118E-02
      0.130000          0.122454E-02
      0.135000          0.113452E-02
      0.140000          0.105762E-02
      0.145000          0.990765E-03
      0.150000          0.931391E-03
      0.155000          0.877422E-03
      0.160000          0.827287E-03
      0.165000          0.779885E-03
      0.170000          0.734537E-03
      0.175000          0.690917E-03
      0.180000          0.648961E-03
      0.185000          0.608781E-03
      0.190000          0.570579E-03
      0.195000          0.534574E-03
      0.200000          0.500946E-03
      0.205000          0.469804E-03
      0.210000          0.441172E-03
      0.215000          0.414990E-03
      0.220000          0.391128E-03
      0.225000          0.369409E-03
      0.230000          0.349631E-03
      0.235000          0.331590E-03
      0.240000          0.315095E-03
      0.245000          0.299982E-03
      0.250000          0.286122E-03
      0.255000          0.273422E-03
      0.260000          0.261826E-03
      0.265000          0.251307E-03
      0.270000          0.241865E-03
      0.275000          0.233511E-03
      0.280000          0.226262E-03
      0.285000          0.220124E-03
      0.290000          0.215081E-03
      0.295000          0.211080E-03
      0.300000          0.208027E-03
      0.305000          0.205780E-03
      0.310000          0.204150E-03
      0.315000          0.202911E-03
      0.320000          0.201810E-03
      0.325000          0.200590E-03
      0.330000          0.199007E-03
      0.335000          0.196857E-03
      0.340000          0.193987E-03
      0.345000          0.190314E-03
      0.350000          0.185829E-03
      0.355000          0.180594E-03
      0.360000          0.174735E-03
      0.365000          0.168422E-03
      0.370000          0.161856E-03
      0.375000          0.155241E-03
      0.380000          0.148768E-03
      0.385000          0.142598E-03
      0.390000          0.136851E-03
      0.395000          0.131600E-03
      0.400000          0.126873E-03
      0.405000          0.122657E-03
      0.410000          0.118909E-03
      0.415000          0.115566E-03
      0.420000          0.112556E-03
      0.425000          0.109810E-03
      0.430000          0.107269E-03
      0.435000          0.104890E-03
      0.440000          0.102647E-03
      0.445000          0.100531E-03
      0.450000          0.985503E-04
      0.455000          0.967218E-04
      0.460000          0.950696E-04
      0.465000          0.936192E-04
      0.470000          0.923932E-04
      0.475000          0.914075E-04
      0.480000          0.906691E-04
      0.485000          0.901747E-04
      0.490000          0.899105E-04
      0.495000          0.898528E-04
      0.500000          0.899701E-04
