 I_abs(s)[cm^-1]/c[mg/ml]
       0.00000          0.147595E-01
      0.500000E-02      0.147107E-01
      0.100000E-01      0.145653E-01
      0.150000E-01      0.143264E-01
      0.200000E-01      0.139991E-01
      0.250000E-01      0.135900E-01
      0.300000E-01      0.131076E-01
      0.350000E-01      0.125613E-01
      0.400000E-01      0.119617E-01
      0.450000E-01      0.113196E-01
      0.500000E-01      0.106464E-01
      0.550000E-01      0.995326E-02
      0.600000E-01      0.925084E-02
      0.650000E-01      0.854922E-02
      0.700000E-01      0.785753E-02
      0.750000E-01      0.718384E-02
      0.800000E-01      0.653496E-02
      0.850000E-01      0.591647E-02
      0.900000E-01      0.533264E-02
      0.950000E-01      0.478649E-02
      0.100000          0.427987E-02
      0.105000          0.381356E-02
      0.110000          0.338742E-02
      0.115000          0.300051E-02
      0.120000          0.265129E-02
      0.125000          0.233775E-02
      0.130000          0.205756E-02
      0.135000          0.180819E-02
      0.140000          0.158706E-02
      0.145000          0.139157E-02
      0.150000          0.121926E-02
      0.155000          0.106778E-02
      0.160000          0.934956E-03
      0.165000          0.818826E-03
      0.170000          0.717603E-03
      0.175000          0.629692E-03
      0.180000          0.553665E-03
      0.185000          0.488245E-03
      0.190000          0.432283E-03
      0.195000          0.384740E-03
      0.200000          0.344665E-03
      0.205000          0.311184E-03
      0.210000          0.283486E-03
      0.215000          0.260817E-03
      0.220000          0.242474E-03
      0.225000          0.227807E-03
      0.230000          0.216215E-03
      0.235000          0.207151E-03
      0.240000          0.200120E-03
      0.245000          0.194687E-03
      0.250000          0.190470E-03
      0.255000          0.187147E-03
      0.260000          0.184450E-03
      0.265000          0.182162E-03
      0.270000          0.180117E-03
      0.275000          0.178189E-03
      0.280000          0.176290E-03
      0.285000          0.174363E-03
      0.290000          0.172376E-03
      0.295000          0.170317E-03
      0.300000          0.168183E-03
      0.305000          0.165986E-03
      0.310000          0.163737E-03
      0.315000          0.161453E-03
      0.320000          0.159150E-03
      0.325000          0.156841E-03
      0.330000          0.154537E-03
      0.335000          0.152248E-03
      0.340000          0.149979E-03
      0.345000          0.147736E-03
      0.350000          0.145520E-03
      0.355000          0.143332E-03
      0.360000          0.141175E-03
      0.365000          0.139046E-03
      0.370000          0.136944E-03
      0.375000          0.134870E-03
      0.380000          0.132820E-03
      0.385000          0.130791E-03
      0.390000          0.128780E-03
      0.395000          0.126782E-03
      0.400000          0.124789E-03
      0.405000          0.122794E-03
      0.410000          0.120790E-03
      0.415000          0.118768E-03
      0.420000          0.116717E-03
      0.425000          0.114629E-03
      0.430000          0.112496E-03
      0.435000          0.110312E-03
      0.440000          0.108072E-03
      0.445000          0.105773E-03
      0.450000          0.103417E-03
      0.455000          0.101007E-03
      0.460000          0.985490E-04
      0.465000          0.960544E-04
      0.470000          0.935359E-04
      0.475000          0.910089E-04
      0.480000          0.884915E-04
      0.485000          0.860030E-04
      0.490000          0.835640E-04
      0.495000          0.811951E-04
      0.500000          0.789169E-04
