 I_abs(s)[cm^-1]/c[mg/ml]
       0.00000          0.147595E-01
      0.500000E-02      0.147028E-01
      0.100000E-01      0.145340E-01
      0.150000E-01      0.142571E-01
      0.200000E-01      0.138784E-01
      0.250000E-01      0.134067E-01
      0.300000E-01      0.128525E-01
      0.350000E-01      0.122278E-01
      0.400000E-01      0.115460E-01
      0.450000E-01      0.108208E-01
      0.500000E-01      0.100663E-01
      0.550000E-01      0.929627E-02
      0.600000E-01      0.852396E-02
      0.650000E-01      0.776149E-02
      0.700000E-01      0.701969E-02
      0.750000E-01      0.630788E-02
      0.800000E-01      0.563366E-02
      0.850000E-01      0.500289E-02
      0.900000E-01      0.441970E-02
      0.950000E-01      0.388650E-02
      0.100000          0.340417E-02
      0.105000          0.297220E-02
      0.110000          0.258894E-02
      0.115000          0.225178E-02
      0.120000          0.195745E-02
      0.125000          0.170220E-02
      0.130000          0.148205E-02
      0.135000          0.129298E-02
      0.140000          0.113108E-02
      0.145000          0.992693E-03
      0.150000          0.874495E-03
      0.155000          0.773550E-03
      0.160000          0.687337E-03
      0.165000          0.613742E-03
      0.170000          0.551031E-03
      0.175000          0.497803E-03
      0.180000          0.452931E-03
      0.185000          0.415509E-03
      0.190000          0.384786E-03
      0.195000          0.360110E-03
      0.200000          0.340890E-03
      0.205000          0.326551E-03
      0.210000          0.316514E-03
      0.215000          0.310181E-03
      0.220000          0.306936E-03
      0.225000          0.306143E-03
      0.230000          0.307168E-03
      0.235000          0.309388E-03
      0.240000          0.312212E-03
      0.245000          0.315102E-03
      0.250000          0.317585E-03
      0.255000          0.319267E-03
      0.260000          0.319841E-03
      0.265000          0.319094E-03
      0.270000          0.316900E-03
      0.275000          0.313218E-03
      0.280000          0.308084E-03
      0.285000          0.301594E-03
      0.290000          0.293896E-03
      0.295000          0.285174E-03
      0.300000          0.275630E-03
      0.305000          0.265478E-03
      0.310000          0.254928E-03
      0.315000          0.244177E-03
      0.320000          0.233405E-03
      0.325000          0.222768E-03
      0.330000          0.212394E-03
      0.335000          0.202386E-03
      0.340000          0.192821E-03
      0.345000          0.183752E-03
      0.350000          0.175211E-03
      0.355000          0.167209E-03
      0.360000          0.159747E-03
      0.365000          0.152811E-03
      0.370000          0.146380E-03
      0.375000          0.140425E-03
      0.380000          0.134916E-03
      0.385000          0.129820E-03
      0.390000          0.125103E-03
      0.395000          0.120732E-03
      0.400000          0.116677E-03
      0.405000          0.112911E-03
      0.410000          0.109408E-03
      0.415000          0.106148E-03
      0.420000          0.103115E-03
      0.425000          0.100295E-03
      0.430000          0.976794E-04
      0.435000          0.952637E-04
      0.440000          0.930452E-04
      0.445000          0.910237E-04
      0.450000          0.892004E-04
      0.455000          0.875768E-04
      0.460000          0.861534E-04
      0.465000          0.849291E-04
      0.470000          0.838999E-04
      0.475000          0.830583E-04
      0.480000          0.823927E-04
      0.485000          0.818876E-04
      0.490000          0.815229E-04
      0.495000          0.812752E-04
      0.500000          0.811180E-04
