 I_abs(s)[cm^-1]/c[mg/ml]
       0.00000          0.143234E-01
      0.500000E-02      0.142674E-01
      0.100000E-01      0.141008E-01
      0.150000E-01      0.138278E-01
      0.200000E-01      0.134549E-01
      0.250000E-01      0.129911E-01
      0.300000E-01      0.124474E-01
      0.350000E-01      0.118362E-01
      0.400000E-01      0.111709E-01
      0.450000E-01      0.104658E-01
      0.500000E-01      0.973507E-02
      0.550000E-01      0.899253E-02
      0.600000E-01      0.825127E-02
      0.650000E-01      0.752322E-02
      0.700000E-01      0.681881E-02
      0.750000E-01      0.614680E-02
      0.800000E-01      0.551413E-02
      0.850000E-01      0.492590E-02
      0.900000E-01      0.438533E-02
      0.950000E-01      0.389397E-02
      0.100000          0.345177E-02
      0.105000          0.305738E-02
      0.110000          0.270833E-02
      0.115000          0.240133E-02
      0.120000          0.213256E-02
      0.125000          0.189787E-02
      0.130000          0.169306E-02
      0.135000          0.151403E-02
      0.140000          0.135699E-02
      0.145000          0.121855E-02
      0.150000          0.109577E-02
      0.155000          0.986236E-03
      0.160000          0.888009E-03
      0.165000          0.799625E-03
      0.170000          0.720012E-03
      0.175000          0.648426E-03
      0.180000          0.584364E-03
      0.185000          0.527484E-03
      0.190000          0.477525E-03
      0.195000          0.434246E-03
      0.200000          0.397369E-03
      0.205000          0.366543E-03
      0.210000          0.341331E-03
      0.215000          0.321199E-03
      0.220000          0.305528E-03
      0.225000          0.293634E-03
      0.230000          0.284799E-03
      0.235000          0.278296E-03
      0.240000          0.273428E-03
      0.245000          0.269554E-03
      0.250000          0.266114E-03
      0.255000          0.262650E-03
      0.260000          0.258815E-03
      0.265000          0.254376E-03
      0.270000          0.249213E-03
      0.275000          0.243303E-03
      0.280000          0.236708E-03
      0.285000          0.229555E-03
      0.290000          0.222015E-03
      0.295000          0.214280E-03
      0.300000          0.206545E-03
      0.305000          0.198993E-03
      0.310000          0.191778E-03
      0.315000          0.185017E-03
      0.320000          0.178789E-03
      0.325000          0.173128E-03
      0.330000          0.168031E-03
      0.335000          0.163462E-03
      0.340000          0.159359E-03
      0.345000          0.155642E-03
      0.350000          0.152228E-03
      0.355000          0.149030E-03
      0.360000          0.145973E-03
      0.365000          0.142995E-03
      0.370000          0.140050E-03
      0.375000          0.137112E-03
      0.380000          0.134173E-03
      0.385000          0.131241E-03
      0.390000          0.128339E-03
      0.395000          0.125494E-03
      0.400000          0.122741E-03
      0.405000          0.120114E-03
      0.410000          0.117639E-03
      0.415000          0.115337E-03
      0.420000          0.113218E-03
      0.425000          0.111282E-03
      0.430000          0.109517E-03
      0.435000          0.107900E-03
      0.440000          0.106403E-03
      0.445000          0.104992E-03
      0.450000          0.103631E-03
      0.455000          0.102286E-03
      0.460000          0.100926E-03
      0.465000          0.995274E-04
      0.470000          0.980746E-04
      0.475000          0.965615E-04
      0.480000          0.949917E-04
      0.485000          0.933773E-04
      0.490000          0.917382E-04
      0.495000          0.900999E-04
      0.500000          0.884915E-04
