 I_abs(s)[cm^-1]/c[mg/ml]
       0.00000          0.143785E-01
      0.500000E-02      0.143176E-01
      0.100000E-01      0.141363E-01
      0.150000E-01      0.138391E-01
      0.200000E-01      0.134332E-01
      0.250000E-01      0.129285E-01
      0.300000E-01      0.123369E-01
      0.350000E-01      0.116722E-01
      0.400000E-01      0.109493E-01
      0.450000E-01      0.101839E-01
      0.500000E-01      0.939200E-02
      0.550000E-01      0.858910E-02
      0.600000E-01      0.779010E-02
      0.650000E-01      0.700863E-02
      0.700000E-01      0.625678E-02
      0.750000E-01      0.554478E-02
      0.800000E-01      0.488087E-02
      0.850000E-01      0.427114E-02
      0.900000E-01      0.371957E-02
      0.950000E-01      0.322805E-02
      0.100000          0.279660E-02
      0.105000          0.242353E-02
      0.110000          0.210570E-02
      0.115000          0.183882E-02
      0.120000          0.161777E-02
      0.125000          0.143688E-02
      0.130000          0.129025E-02
      0.135000          0.117200E-02
      0.140000          0.107649E-02
      0.145000          0.998571E-03
      0.150000          0.933658E-03
      0.155000          0.877867E-03
      0.160000          0.828057E-03
      0.165000          0.781829E-03
      0.170000          0.737502E-03
      0.175000          0.694040E-03
      0.180000          0.650969E-03
      0.185000          0.608271E-03
      0.190000          0.566271E-03
      0.195000          0.525523E-03
      0.200000          0.486705E-03
      0.205000          0.450517E-03
      0.210000          0.417605E-03
      0.215000          0.388495E-03
      0.220000          0.363548E-03
      0.225000          0.342933E-03
      0.230000          0.326622E-03
      0.235000          0.314395E-03
      0.240000          0.305865E-03
      0.245000          0.300503E-03
      0.250000          0.297682E-03
      0.255000          0.296716E-03
      0.260000          0.296899E-03
      0.265000          0.297547E-03
      0.270000          0.298031E-03
      0.275000          0.297807E-03
      0.280000          0.296434E-03
      0.285000          0.293588E-03
      0.290000          0.289070E-03
      0.295000          0.282801E-03
      0.300000          0.274813E-03
      0.305000          0.265239E-03
      0.310000          0.254294E-03
      0.315000          0.242253E-03
      0.320000          0.229432E-03
      0.325000          0.216170E-03
      0.330000          0.202801E-03
      0.335000          0.189646E-03
      0.340000          0.176992E-03
      0.345000          0.165083E-03
      0.350000          0.154112E-03
      0.355000          0.144216E-03
      0.360000          0.135477E-03
      0.365000          0.127921E-03
      0.370000          0.121525E-03
      0.375000          0.116224E-03
      0.380000          0.111917E-03
      0.385000          0.108477E-03
      0.390000          0.105761E-03
      0.395000          0.103618E-03
      0.400000          0.101897E-03
      0.405000          0.100456E-03
      0.410000          0.991686E-04
      0.415000          0.979251E-04
      0.420000          0.966402E-04
      0.425000          0.952524E-04
      0.430000          0.937250E-04
      0.435000          0.920451E-04
      0.440000          0.902217E-04
      0.445000          0.882824E-04
      0.450000          0.862700E-04
      0.455000          0.842384E-04
      0.460000          0.822481E-04
      0.465000          0.803620E-04
      0.470000          0.786414E-04
      0.475000          0.771422E-04
      0.480000          0.759117E-04
      0.485000          0.749864E-04
      0.490000          0.743896E-04
      0.495000          0.741314E-04
      0.500000          0.742075E-04
