 I_abs(s)[cm^-1]/c[mg/ml]
       0.00000          0.135778E-01
      0.500000E-02      0.135021E-01
      0.100000E-01      0.132780E-01
      0.150000E-01      0.129136E-01
      0.200000E-01      0.124221E-01
      0.250000E-01      0.118210E-01
      0.300000E-01      0.111310E-01
      0.350000E-01      0.103751E-01
      0.400000E-01      0.957708E-02
      0.450000E-01      0.876063E-02
      0.500000E-01      0.794805E-02
      0.550000E-01      0.715933E-02
      0.600000E-01      0.641136E-02
      0.650000E-01      0.571734E-02
      0.700000E-01      0.508657E-02
      0.750000E-01      0.452432E-02
      0.800000E-01      0.403213E-02
      0.850000E-01      0.360815E-02
      0.900000E-01      0.324775E-02
      0.950000E-01      0.294417E-02
      0.100000          0.268929E-02
      0.105000          0.247432E-02
      0.110000          0.229047E-02
      0.115000          0.212954E-02
      0.120000          0.198435E-02
      0.125000          0.184905E-02
      0.130000          0.171930E-02
      0.135000          0.159223E-02
      0.140000          0.146640E-02
      0.145000          0.134160E-02
      0.150000          0.121855E-02
      0.155000          0.109864E-02
      0.160000          0.983611E-03
      0.165000          0.875299E-03
      0.170000          0.775379E-03
      0.175000          0.685190E-03
      0.180000          0.605621E-03
      0.185000          0.537051E-03
      0.190000          0.479353E-03
      0.195000          0.431946E-03
      0.200000          0.393883E-03
      0.205000          0.363953E-03
      0.210000          0.340805E-03
      0.215000          0.323052E-03
      0.220000          0.309374E-03
      0.225000          0.298590E-03
      0.230000          0.289713E-03
      0.235000          0.281975E-03
      0.240000          0.274828E-03
      0.245000          0.267927E-03
      0.250000          0.261102E-03
      0.255000          0.254311E-03
      0.260000          0.247603E-03
      0.265000          0.241073E-03
      0.270000          0.234826E-03
      0.275000          0.228952E-03
      0.280000          0.223502E-03
      0.285000          0.218486E-03
      0.290000          0.213868E-03
      0.295000          0.209575E-03
      0.300000          0.205506E-03
      0.305000          0.201546E-03
      0.310000          0.197581E-03
      0.315000          0.193507E-03
      0.320000          0.189244E-03
      0.325000          0.184741E-03
      0.330000          0.179978E-03
      0.335000          0.174965E-03
      0.340000          0.169743E-03
      0.345000          0.164373E-03
      0.350000          0.158936E-03
      0.355000          0.153521E-03
      0.360000          0.148221E-03
      0.365000          0.143126E-03
      0.370000          0.138320E-03
      0.375000          0.133873E-03
      0.380000          0.129841E-03
      0.385000          0.126264E-03
      0.390000          0.123167E-03
      0.395000          0.120554E-03
      0.400000          0.118416E-03
      0.405000          0.116728E-03
      0.410000          0.115450E-03
      0.415000          0.114529E-03
      0.420000          0.113905E-03
      0.425000          0.113508E-03
      0.430000          0.113264E-03
      0.435000          0.113096E-03
      0.440000          0.112931E-03
      0.445000          0.112696E-03
      0.450000          0.112331E-03
      0.455000          0.111782E-03
      0.460000          0.111010E-03
      0.465000          0.109990E-03
      0.470000          0.108714E-03
      0.475000          0.107189E-03
      0.480000          0.105438E-03
      0.485000          0.103498E-03
      0.490000          0.101418E-03
      0.495000          0.992551E-04
      0.500000          0.970710E-04
