 I_abs(s)[cm^-1]/c[mg/ml]
       0.00000          0.143785E-01
      0.500000E-02      0.142942E-01
      0.100000E-01      0.140443E-01
      0.150000E-01      0.136382E-01
      0.200000E-01      0.130907E-01
      0.250000E-01      0.124214E-01
      0.300000E-01      0.116535E-01
      0.350000E-01      0.108125E-01
      0.400000E-01      0.992461E-02
      0.450000E-01      0.901576E-02
      0.500000E-01      0.811014E-02
      0.550000E-01      0.722920E-02
      0.600000E-01      0.639089E-02
      0.650000E-01      0.560918E-02
      0.700000E-01      0.489379E-02
      0.750000E-01      0.425035E-02
      0.800000E-01      0.368072E-02
      0.850000E-01      0.318348E-02
      0.900000E-01      0.275463E-02
      0.950000E-01      0.238829E-02
      0.100000          0.207747E-02
      0.105000          0.181469E-02
      0.110000          0.159258E-02
      0.115000          0.140431E-02
      0.120000          0.124390E-02
      0.125000          0.110638E-02
      0.130000          0.987782E-03
      0.135000          0.885116E-03
      0.140000          0.796188E-03
      0.145000          0.719421E-03
      0.150000          0.653655E-03
      0.155000          0.597961E-03
      0.160000          0.551490E-03
      0.165000          0.513364E-03
      0.170000          0.482624E-03
      0.175000          0.458215E-03
      0.180000          0.439008E-03
      0.185000          0.423856E-03
      0.190000          0.411653E-03
      0.195000          0.401395E-03
      0.200000          0.392234E-03
      0.205000          0.383511E-03
      0.210000          0.374765E-03
      0.215000          0.365732E-03
      0.220000          0.356312E-03
      0.225000          0.346536E-03
      0.230000          0.336523E-03
      0.235000          0.326429E-03
      0.240000          0.316416E-03
      0.245000          0.306621E-03
      0.250000          0.297136E-03
      0.255000          0.288006E-03
      0.260000          0.279228E-03
      0.265000          0.270769E-03
      0.270000          0.262576E-03
      0.275000          0.254594E-03
      0.280000          0.246780E-03
      0.285000          0.239111E-03
      0.290000          0.231590E-03
      0.295000          0.224243E-03
      0.300000          0.217113E-03
      0.305000          0.210256E-03
      0.310000          0.203726E-03
      0.315000          0.197568E-03
      0.320000          0.191816E-03
      0.325000          0.186485E-03
      0.330000          0.181573E-03
      0.335000          0.177065E-03
      0.340000          0.172935E-03
      0.345000          0.169158E-03
      0.350000          0.165711E-03
      0.355000          0.162575E-03
      0.360000          0.159744E-03
      0.365000          0.157215E-03
      0.370000          0.154991E-03
      0.375000          0.153074E-03
      0.380000          0.151453E-03
      0.385000          0.150109E-03
      0.390000          0.149001E-03
      0.395000          0.148067E-03
      0.400000          0.147228E-03
      0.405000          0.146389E-03
      0.410000          0.145447E-03
      0.415000          0.144299E-03
      0.420000          0.142856E-03
      0.425000          0.141047E-03
      0.430000          0.138832E-03
      0.435000          0.136205E-03
      0.440000          0.133196E-03
      0.445000          0.129871E-03
      0.450000          0.126324E-03
      0.455000          0.122669E-03
      0.460000          0.119032E-03
      0.465000          0.115535E-03
      0.470000          0.112286E-03
      0.475000          0.109371E-03
      0.480000          0.106843E-03
      0.485000          0.104719E-03
      0.490000          0.102984E-03
      0.495000          0.101585E-03
      0.500000          0.100449E-03
