 I_abs(s)[cm^-1]/c[mg/ml]
       0.00000          0.147116E-01
      0.500000E-02      0.146552E-01
      0.100000E-01      0.144874E-01
      0.150000E-01      0.142121E-01
      0.200000E-01      0.138357E-01
      0.250000E-01      0.133670E-01
      0.300000E-01      0.128165E-01
      0.350000E-01      0.121964E-01
      0.400000E-01      0.115199E-01
      0.450000E-01      0.108008E-01
      0.500000E-01      0.100531E-01
      0.550000E-01      0.929072E-02
      0.600000E-01      0.852657E-02
      0.650000E-01      0.777274E-02
      0.700000E-01      0.703991E-02
      0.750000E-01      0.633723E-02
      0.800000E-01      0.567211E-02
      0.850000E-01      0.505023E-02
      0.900000E-01      0.447550E-02
      0.950000E-01      0.395015E-02
      0.100000          0.347488E-02
      0.105000          0.304904E-02
      0.110000          0.267083E-02
      0.115000          0.233758E-02
      0.120000          0.204592E-02
      0.125000          0.179211E-02
      0.130000          0.157216E-02
      0.135000          0.138208E-02
      0.140000          0.121802E-02
      0.145000          0.107641E-02
      0.150000          0.953994E-03
      0.155000          0.847949E-03
      0.160000          0.755850E-03
      0.165000          0.675680E-03
      0.170000          0.605797E-03
      0.175000          0.544886E-03
      0.180000          0.491899E-03
      0.185000          0.446000E-03
      0.190000          0.406503E-03
      0.195000          0.372820E-03
      0.200000          0.344418E-03
      0.205000          0.320784E-03
      0.210000          0.301405E-03
      0.215000          0.285756E-03
      0.220000          0.273299E-03
      0.225000          0.263486E-03
      0.230000          0.255777E-03
      0.235000          0.249651E-03
      0.240000          0.244626E-03
      0.245000          0.240268E-03
      0.250000          0.236214E-03
      0.255000          0.232170E-03
      0.260000          0.227926E-03
      0.265000          0.223346E-03
      0.270000          0.218373E-03
      0.275000          0.213011E-03
      0.280000          0.207322E-03
      0.285000          0.201405E-03
      0.290000          0.195387E-03
      0.295000          0.189405E-03
      0.300000          0.183594E-03
      0.305000          0.178078E-03
      0.310000          0.172957E-03
      0.315000          0.168303E-03
      0.320000          0.164157E-03
      0.325000          0.160527E-03
      0.330000          0.157393E-03
      0.335000          0.154706E-03
      0.340000          0.152400E-03
      0.345000          0.150391E-03
      0.350000          0.148590E-03
      0.355000          0.146907E-03
      0.360000          0.145256E-03
      0.365000          0.143564E-03
      0.370000          0.141770E-03
      0.375000          0.139832E-03
      0.380000          0.137725E-03
      0.385000          0.135445E-03
      0.390000          0.133002E-03
      0.395000          0.130423E-03
      0.400000          0.127746E-03
      0.405000          0.125018E-03
      0.410000          0.122290E-03
      0.415000          0.119613E-03
      0.420000          0.117036E-03
      0.425000          0.114600E-03
      0.430000          0.112339E-03
      0.435000          0.110276E-03
      0.440000          0.108421E-03
      0.445000          0.106774E-03
      0.450000          0.105322E-03
      0.455000          0.104043E-03
      0.460000          0.102904E-03
      0.465000          0.101868E-03
      0.470000          0.100894E-03
      0.475000          0.999396E-04
      0.480000          0.989635E-04
      0.485000          0.979290E-04
      0.490000          0.968054E-04
      0.495000          0.955699E-04
      0.500000          0.942087E-04
