 I_abs(s)[cm^-1]/c[mg/ml]
       0.00000          0.149198E-01
      0.500000E-02      0.148318E-01
      0.100000E-01      0.145709E-01
      0.150000E-01      0.141465E-01
      0.200000E-01      0.135733E-01
      0.250000E-01      0.128710E-01
      0.300000E-01      0.120629E-01
      0.350000E-01      0.111750E-01
      0.400000E-01      0.102343E-01
      0.450000E-01      0.926768E-02
      0.500000E-01      0.830081E-02
      0.550000E-01      0.735687E-02
      0.600000E-01      0.645575E-02
      0.650000E-01      0.561351E-02
      0.700000E-01      0.484197E-02
      0.750000E-01      0.414872E-02
      0.800000E-01      0.353727E-02
      0.850000E-01      0.300745E-02
      0.900000E-01      0.255599E-02
      0.950000E-01      0.217719E-02
      0.100000          0.186362E-02
      0.105000          0.160682E-02
      0.110000          0.139798E-02
      0.115000          0.122850E-02
      0.120000          0.109041E-02
      0.125000          0.976710E-03
      0.130000          0.881537E-03
      0.135000          0.800249E-03
      0.140000          0.729374E-03
      0.145000          0.666499E-03
      0.150000          0.610092E-03
      0.155000          0.559309E-03
      0.160000          0.513783E-03
      0.165000          0.473433E-03
      0.170000          0.438301E-03
      0.175000          0.408422E-03
      0.180000          0.383734E-03
      0.185000          0.364034E-03
      0.190000          0.348954E-03
      0.195000          0.337983E-03
      0.200000          0.330492E-03
      0.205000          0.325778E-03
      0.210000          0.323116E-03
      0.215000          0.321798E-03
      0.220000          0.321179E-03
      0.225000          0.320698E-03
      0.230000          0.319906E-03
      0.235000          0.318468E-03
      0.240000          0.316166E-03
      0.245000          0.312892E-03
      0.250000          0.308632E-03
      0.255000          0.303455E-03
      0.260000          0.297487E-03
      0.265000          0.290899E-03
      0.270000          0.283887E-03
      0.275000          0.276657E-03
      0.280000          0.269408E-03
      0.285000          0.262322E-03
      0.290000          0.255556E-03
      0.295000          0.249232E-03
      0.300000          0.243434E-03
      0.305000          0.238204E-03
      0.310000          0.233547E-03
      0.315000          0.229425E-03
      0.320000          0.225772E-03
      0.325000          0.222491E-03
      0.330000          0.219468E-03
      0.335000          0.216578E-03
      0.340000          0.213693E-03
      0.345000          0.210694E-03
      0.350000          0.207479E-03
      0.355000          0.203964E-03
      0.360000          0.200094E-03
      0.365000          0.195844E-03
      0.370000          0.191217E-03
      0.375000          0.186245E-03
      0.380000          0.180985E-03
      0.385000          0.175512E-03
      0.390000          0.169916E-03
      0.395000          0.164290E-03
      0.400000          0.158728E-03
      0.405000          0.153318E-03
      0.410000          0.148133E-03
      0.415000          0.143232E-03
      0.420000          0.138653E-03
      0.425000          0.134415E-03
      0.430000          0.130520E-03
      0.435000          0.126951E-03
      0.440000          0.123679E-03
      0.445000          0.120667E-03
      0.450000          0.117873E-03
      0.455000          0.115253E-03
      0.460000          0.112769E-03
      0.465000          0.110390E-03
      0.470000          0.108094E-03
      0.475000          0.105866E-03
      0.480000          0.103706E-03
      0.485000          0.101620E-03
      0.490000          0.996219E-04
      0.495000          0.977298E-04
      0.500000          0.959640E-04
