 I_abs(s)[cm^-1]/c[mg/ml]
       0.00000          0.135625E-01
      0.500000E-02      0.134753E-01
      0.100000E-01      0.132178E-01
      0.150000E-01      0.128022E-01
      0.200000E-01      0.122478E-01
      0.250000E-01      0.115793E-01
      0.300000E-01      0.108257E-01
      0.350000E-01      0.100172E-01
      0.400000E-01      0.918419E-02
      0.450000E-01      0.835471E-02
      0.500000E-01      0.755309E-02
      0.550000E-01      0.679877E-02
      0.600000E-01      0.610563E-02
      0.650000E-01      0.548188E-02
      0.700000E-01      0.493036E-02
      0.750000E-01      0.444932E-02
      0.800000E-01      0.403338E-02
      0.850000E-01      0.367472E-02
      0.900000E-01      0.336428E-02
      0.950000E-01      0.309279E-02
      0.100000          0.285173E-02
      0.105000          0.263389E-02
      0.110000          0.243377E-02
      0.115000          0.224766E-02
      0.120000          0.207344E-02
      0.125000          0.191034E-02
      0.130000          0.175845E-02
      0.135000          0.161832E-02
      0.140000          0.149054E-02
      0.145000          0.137543E-02
      0.150000          0.127284E-02
      0.155000          0.118208E-02
      0.160000          0.110194E-02
      0.165000          0.103083E-02
      0.170000          0.966983E-03
      0.175000          0.908643E-03
      0.180000          0.854244E-03
      0.185000          0.802566E-03
      0.190000          0.752807E-03
      0.195000          0.704606E-03
      0.200000          0.657988E-03
      0.205000          0.613276E-03
      0.210000          0.570968E-03
      0.215000          0.531605E-03
      0.220000          0.495652E-03
      0.225000          0.463417E-03
      0.230000          0.434990E-03
      0.235000          0.410234E-03
      0.240000          0.388812E-03
      0.245000          0.370234E-03
      0.250000          0.353929E-03
      0.255000          0.339317E-03
      0.260000          0.325874E-03
      0.265000          0.313180E-03
      0.270000          0.300947E-03
      0.275000          0.289022E-03
      0.280000          0.277376E-03
      0.285000          0.266070E-03
      0.290000          0.255215E-03
      0.295000          0.244935E-03
      0.300000          0.235333E-03
      0.305000          0.226461E-03
      0.310000          0.218314E-03
      0.315000          0.210829E-03
      0.320000          0.203892E-03
      0.325000          0.197365E-03
      0.330000          0.191106E-03
      0.335000          0.184987E-03
      0.340000          0.178919E-03
      0.345000          0.172860E-03
      0.350000          0.166816E-03
      0.355000          0.160839E-03
      0.360000          0.155014E-03
      0.365000          0.149443E-03
      0.370000          0.144227E-03
      0.375000          0.139449E-03
      0.380000          0.135164E-03
      0.385000          0.131384E-03
      0.390000          0.128082E-03
      0.395000          0.125192E-03
      0.400000          0.122616E-03
      0.405000          0.120242E-03
      0.410000          0.117949E-03
      0.415000          0.115628E-03
      0.420000          0.113189E-03
      0.425000          0.110571E-03
      0.430000          0.107749E-03
      0.435000          0.104732E-03
      0.440000          0.101558E-03
      0.445000          0.982909E-04
      0.450000          0.950092E-04
      0.455000          0.917956E-04
      0.460000          0.887272E-04
      0.465000          0.858677E-04
      0.470000          0.832603E-04
      0.475000          0.809252E-04
      0.480000          0.788595E-04
      0.485000          0.770395E-04
      0.490000          0.754269E-04
      0.495000          0.739750E-04
      0.500000          0.726363E-04
