 I_abs(s)[cm^-1]/c[mg/ml]
       0.00000          0.147196E-01
      0.500000E-02      0.146668E-01
      0.100000E-01      0.145096E-01
      0.150000E-01      0.142513E-01
      0.200000E-01      0.138975E-01
      0.250000E-01      0.134558E-01
      0.300000E-01      0.129353E-01
      0.350000E-01      0.123466E-01
      0.400000E-01      0.117014E-01
      0.450000E-01      0.110117E-01
      0.500000E-01      0.102902E-01
      0.550000E-01      0.954921E-02
      0.600000E-01      0.880063E-02
      0.650000E-01      0.805564E-02
      0.700000E-01      0.732442E-02
      0.750000E-01      0.661591E-02
      0.800000E-01      0.593769E-02
      0.850000E-01      0.529592E-02
      0.900000E-01      0.469532E-02
      0.950000E-01      0.413916E-02
      0.100000          0.362939E-02
      0.105000          0.316671E-02
      0.110000          0.275079E-02
      0.115000          0.238033E-02
      0.120000          0.205333E-02
      0.125000          0.176721E-02
      0.130000          0.151899E-02
      0.135000          0.130545E-02
      0.140000          0.112324E-02
      0.145000          0.969017E-03
      0.150000          0.839545E-03
      0.155000          0.731733E-03
      0.160000          0.642705E-03
      0.165000          0.569825E-03
      0.170000          0.510713E-03
      0.175000          0.463243E-03
      0.180000          0.425538E-03
      0.185000          0.395957E-03
      0.190000          0.373071E-03
      0.195000          0.355645E-03
      0.200000          0.342619E-03
      0.205000          0.333083E-03
      0.210000          0.326262E-03
      0.215000          0.321497E-03
      0.220000          0.318233E-03
      0.225000          0.316002E-03
      0.230000          0.314417E-03
      0.235000          0.313158E-03
      0.240000          0.311967E-03
      0.245000          0.310636E-03
      0.250000          0.309007E-03
      0.255000          0.306957E-03
      0.260000          0.304402E-03
      0.265000          0.301283E-03
      0.270000          0.297568E-03
      0.275000          0.293244E-03
      0.280000          0.288317E-03
      0.285000          0.282808E-03
      0.290000          0.276749E-03
      0.295000          0.270185E-03
      0.300000          0.263167E-03
      0.305000          0.255758E-03
      0.310000          0.248025E-03
      0.315000          0.240039E-03
      0.320000          0.231878E-03
      0.325000          0.223618E-03
      0.330000          0.215337E-03
      0.335000          0.207110E-03
      0.340000          0.199008E-03
      0.345000          0.191098E-03
      0.350000          0.183437E-03
      0.355000          0.176075E-03
      0.360000          0.169052E-03
      0.365000          0.162399E-03
      0.370000          0.156136E-03
      0.375000          0.150273E-03
      0.380000          0.144815E-03
      0.385000          0.139756E-03
      0.390000          0.135086E-03
      0.395000          0.130792E-03
      0.400000          0.126857E-03
      0.405000          0.123262E-03
      0.410000          0.119990E-03
      0.415000          0.117024E-03
      0.420000          0.114349E-03
      0.425000          0.111949E-03
      0.430000          0.109814E-03
      0.435000          0.107931E-03
      0.440000          0.106292E-03
      0.445000          0.104885E-03
      0.450000          0.103701E-03
      0.455000          0.102726E-03
      0.460000          0.101948E-03
      0.465000          0.101350E-03
      0.470000          0.100913E-03
      0.475000          0.100616E-03
      0.480000          0.100436E-03
      0.485000          0.100347E-03
      0.490000          0.100321E-03
      0.495000          0.100331E-03
      0.500000          0.100348E-03
