 I_abs(s)[cm^-1]/c[mg/ml]
       0.00000          0.133717E-01
      0.500000E-02      0.132735E-01
      0.100000E-01      0.129847E-01
      0.150000E-01      0.125218E-01
      0.200000E-01      0.119109E-01
      0.250000E-01      0.111849E-01
      0.300000E-01      0.103808E-01
      0.350000E-01      0.953661E-02
      0.400000E-01      0.868817E-02
      0.450000E-01      0.786673E-02
      0.500000E-01      0.709695E-02
      0.550000E-01      0.639591E-02
      0.600000E-01      0.577282E-02
      0.650000E-01      0.522964E-02
      0.700000E-01      0.476228E-02
      0.750000E-01      0.436222E-02
      0.800000E-01      0.401833E-02
      0.850000E-01      0.371859E-02
      0.900000E-01      0.345158E-02
      0.950000E-01      0.320761E-02
      0.100000          0.297935E-02
      0.105000          0.276206E-02
      0.110000          0.255338E-02
      0.115000          0.235290E-02
      0.120000          0.216154E-02
      0.125000          0.198086E-02
      0.130000          0.181253E-02
      0.135000          0.165780E-02
      0.140000          0.151731E-02
      0.145000          0.139093E-02
      0.150000          0.127781E-02
      0.155000          0.117660E-02
      0.160000          0.108562E-02
      0.165000          0.100315E-02
      0.170000          0.927560E-03
      0.175000          0.857538E-03
      0.180000          0.792127E-03
      0.185000          0.730756E-03
      0.190000          0.673202E-03
      0.195000          0.619510E-03
      0.200000          0.569898E-03
      0.205000          0.524650E-03
      0.210000          0.484031E-03
      0.215000          0.448204E-03
      0.220000          0.417181E-03
      0.225000          0.390797E-03
      0.230000          0.368698E-03
      0.235000          0.350366E-03
      0.240000          0.335146E-03
      0.245000          0.322302E-03
      0.250000          0.311072E-03
      0.255000          0.300734E-03
      0.260000          0.290664E-03
      0.265000          0.280390E-03
      0.270000          0.269624E-03
      0.275000          0.258281E-03
      0.280000          0.246468E-03
      0.285000          0.234453E-03
      0.290000          0.222621E-03
      0.295000          0.211403E-03
      0.300000          0.201219E-03
      0.305000          0.192409E-03
      0.310000          0.185192E-03
      0.315000          0.179634E-03
      0.320000          0.175641E-03
      0.325000          0.172980E-03
      0.330000          0.171312E-03
      0.335000          0.170239E-03
      0.340000          0.169356E-03
      0.345000          0.168300E-03
      0.350000          0.166788E-03
      0.355000          0.164642E-03
      0.360000          0.161795E-03
      0.365000          0.158284E-03
      0.370000          0.154233E-03
      0.375000          0.149817E-03
      0.380000          0.145241E-03
      0.385000          0.140702E-03
      0.390000          0.136371E-03
      0.395000          0.132374E-03
      0.400000          0.128785E-03
      0.405000          0.125627E-03
      0.410000          0.122875E-03
      0.415000          0.120465E-03
      0.420000          0.118311E-03
      0.425000          0.116311E-03
      0.430000          0.114360E-03
      0.435000          0.112361E-03
      0.440000          0.110232E-03
      0.445000          0.107911E-03
      0.450000          0.105362E-03
      0.455000          0.102577E-03
      0.460000          0.995724E-04
      0.465000          0.963941E-04
      0.470000          0.931072E-04
      0.475000          0.897912E-04
      0.480000          0.865320E-04
      0.485000          0.834122E-04
      0.490000          0.805019E-04
      0.495000          0.778515E-04
      0.500000          0.754864E-04
