 I_abs(s)[cm^-1]/c[mg/ml]
       0.00000          0.141508E-01
      0.500000E-02      0.140736E-01
      0.100000E-01      0.138448E-01
      0.150000E-01      0.134727E-01
      0.200000E-01      0.129706E-01
      0.250000E-01      0.123557E-01
      0.300000E-01      0.116485E-01
      0.350000E-01      0.108716E-01
      0.400000E-01      0.100482E-01
      0.450000E-01      0.920101E-02
      0.500000E-01      0.835136E-02
      0.550000E-01      0.751819E-02
      0.600000E-01      0.671747E-02
      0.650000E-01      0.596179E-02
      0.700000E-01      0.526025E-02
      0.750000E-01      0.461858E-02
      0.800000E-01      0.403945E-02
      0.850000E-01      0.352288E-02
      0.900000E-01      0.306683E-02
      0.950000E-01      0.266771E-02
      0.100000          0.232097E-02
      0.105000          0.202153E-02
      0.110000          0.176419E-02
      0.115000          0.154396E-02
      0.120000          0.135616E-02
      0.125000          0.119660E-02
      0.130000          0.106154E-02
      0.135000          0.947696E-03
      0.140000          0.852166E-03
      0.145000          0.772350E-03
      0.150000          0.705896E-03
      0.155000          0.650650E-03
      0.160000          0.604631E-03
      0.165000          0.566026E-03
      0.170000          0.533205E-03
      0.175000          0.504742E-03
      0.180000          0.479441E-03
      0.185000          0.456354E-03
      0.190000          0.434790E-03
      0.195000          0.414301E-03
      0.200000          0.394667E-03
      0.205000          0.375853E-03
      0.210000          0.357962E-03
      0.215000          0.341186E-03
      0.220000          0.325748E-03
      0.225000          0.311855E-03
      0.230000          0.299662E-03
      0.235000          0.289241E-03
      0.240000          0.280567E-03
      0.245000          0.273515E-03
      0.250000          0.267873E-03
      0.255000          0.263356E-03
      0.260000          0.259633E-03
      0.265000          0.256354E-03
      0.270000          0.253182E-03
      0.275000          0.249815E-03
      0.280000          0.246007E-03
      0.285000          0.241591E-03
      0.290000          0.236476E-03
      0.295000          0.230660E-03
      0.300000          0.224217E-03
      0.305000          0.217286E-03
      0.310000          0.210057E-03
      0.315000          0.202750E-03
      0.320000          0.195591E-03
      0.325000          0.188796E-03
      0.330000          0.182547E-03
      0.335000          0.176982E-03
      0.340000          0.172185E-03
      0.345000          0.168179E-03
      0.350000          0.164932E-03
      0.355000          0.162361E-03
      0.360000          0.160346E-03
      0.365000          0.158743E-03
      0.370000          0.157400E-03
      0.375000          0.156169E-03
      0.380000          0.154923E-03
      0.385000          0.153561E-03
      0.390000          0.152016E-03
      0.395000          0.150254E-03
      0.400000          0.148274E-03
      0.405000          0.146099E-03
      0.410000          0.143770E-03
      0.415000          0.141338E-03
      0.420000          0.138855E-03
      0.425000          0.136368E-03
      0.430000          0.133915E-03
      0.435000          0.131524E-03
      0.440000          0.129209E-03
      0.445000          0.126978E-03
      0.450000          0.124831E-03
      0.455000          0.122769E-03
      0.460000          0.120792E-03
      0.465000          0.118903E-03
      0.470000          0.117108E-03
      0.475000          0.115419E-03
      0.480000          0.113846E-03
      0.485000          0.112400E-03
      0.490000          0.111084E-03
      0.495000          0.109896E-03
      0.500000          0.108821E-03
