 I_abs(s)[cm^-1]/c[mg/ml]
       0.00000          0.146479E-01
      0.500000E-02      0.145847E-01
      0.100000E-01      0.143970E-01
      0.150000E-01      0.140898E-01
      0.200000E-01      0.136715E-01
      0.250000E-01      0.131533E-01
      0.300000E-01      0.125487E-01
      0.350000E-01      0.118731E-01
      0.400000E-01      0.111427E-01
      0.450000E-01      0.103746E-01
      0.500000E-01      0.958554E-02
      0.550000E-01      0.879144E-02
      0.600000E-01      0.800703E-02
      0.650000E-01      0.724527E-02
      0.700000E-01      0.651707E-02
      0.750000E-01      0.583110E-02
      0.800000E-01      0.519364E-02
      0.850000E-01      0.460872E-02
      0.900000E-01      0.407816E-02
      0.950000E-01      0.360187E-02
      0.100000          0.317812E-02
      0.105000          0.280385E-02
      0.110000          0.247511E-02
      0.115000          0.218733E-02
      0.120000          0.193569E-02
      0.125000          0.171544E-02
      0.130000          0.152209E-02
      0.135000          0.135159E-02
      0.140000          0.120049E-02
      0.145000          0.106595E-02
      0.150000          0.945771E-03
      0.155000          0.838299E-03
      0.160000          0.742389E-03
      0.165000          0.657274E-03
      0.170000          0.582451E-03
      0.175000          0.517569E-03
      0.180000          0.462316E-03
      0.185000          0.416340E-03
      0.190000          0.379177E-03
      0.195000          0.350220E-03
      0.200000          0.328700E-03
      0.205000          0.313702E-03
      0.210000          0.304194E-03
      0.215000          0.299067E-03
      0.220000          0.297196E-03
      0.225000          0.297484E-03
      0.230000          0.298924E-03
      0.235000          0.300634E-03
      0.240000          0.301895E-03
      0.245000          0.302170E-03
      0.250000          0.301106E-03
      0.255000          0.298532E-03
      0.260000          0.294434E-03
      0.265000          0.288935E-03
      0.270000          0.282253E-03
      0.275000          0.274673E-03
      0.280000          0.266503E-03
      0.285000          0.258048E-03
      0.290000          0.249582E-03
      0.295000          0.241325E-03
      0.300000          0.233434E-03
      0.305000          0.225997E-03
      0.310000          0.219035E-03
      0.315000          0.212515E-03
      0.320000          0.206355E-03
      0.325000          0.200449E-03
      0.330000          0.194678E-03
      0.335000          0.188926E-03
      0.340000          0.183094E-03
      0.345000          0.177115E-03
      0.350000          0.170953E-03
      0.355000          0.164611E-03
      0.360000          0.158130E-03
      0.365000          0.151578E-03
      0.370000          0.145052E-03
      0.375000          0.138659E-03
      0.380000          0.132516E-03
      0.385000          0.126730E-03
      0.390000          0.121398E-03
      0.395000          0.116595E-03
      0.400000          0.112370E-03
      0.405000          0.108745E-03
      0.410000          0.105713E-03
      0.415000          0.103240E-03
      0.420000          0.101273E-03
      0.425000          0.997403E-04
      0.430000          0.985588E-04
      0.435000          0.976425E-04
      0.440000          0.969071E-04
      0.445000          0.962751E-04
      0.450000          0.956807E-04
      0.455000          0.950723E-04
      0.460000          0.944139E-04
      0.465000          0.936857E-04
      0.470000          0.928824E-04
      0.475000          0.920114E-04
      0.480000          0.910899E-04
      0.485000          0.901415E-04
      0.490000          0.891930E-04
      0.495000          0.882712E-04
      0.500000          0.874001E-04
