 I_abs(s)[cm^-1]/c[mg/ml]
       0.00000          0.144496E-01
      0.500000E-02      0.143938E-01
      0.100000E-01      0.142274E-01
      0.150000E-01      0.139542E-01
      0.200000E-01      0.135798E-01
      0.250000E-01      0.131121E-01
      0.300000E-01      0.125607E-01
      0.350000E-01      0.119368E-01
      0.400000E-01      0.112527E-01
      0.450000E-01      0.105215E-01
      0.500000E-01      0.975661E-02
      0.550000E-01      0.897167E-02
      0.600000E-01      0.817986E-02
      0.650000E-01      0.739369E-02
      0.700000E-01      0.662471E-02
      0.750000E-01      0.588324E-02
      0.800000E-01      0.517816E-02
      0.850000E-01      0.451682E-02
      0.900000E-01      0.390489E-02
      0.950000E-01      0.334643E-02
      0.100000          0.284385E-02
      0.105000          0.239804E-02
      0.110000          0.200848E-02
      0.115000          0.167343E-02
      0.120000          0.139009E-02
      0.125000          0.115482E-02
      0.130000          0.963367E-03
      0.135000          0.811026E-03
      0.140000          0.692886E-03
      0.145000          0.603989E-03
      0.150000          0.539488E-03
      0.155000          0.494786E-03
      0.160000          0.465638E-03
      0.165000          0.448225E-03
      0.170000          0.439211E-03
      0.175000          0.435760E-03
      0.180000          0.435536E-03
      0.185000          0.436692E-03
      0.190000          0.437827E-03
      0.195000          0.437946E-03
      0.200000          0.436404E-03
      0.205000          0.432851E-03
      0.210000          0.427172E-03
      0.215000          0.419433E-03
      0.220000          0.409832E-03
      0.225000          0.398647E-03
      0.230000          0.386206E-03
      0.235000          0.372848E-03
      0.240000          0.358905E-03
      0.245000          0.344680E-03
      0.250000          0.330438E-03
      0.255000          0.316402E-03
      0.260000          0.302746E-03
      0.265000          0.289601E-03
      0.270000          0.277055E-03
      0.275000          0.265160E-03
      0.280000          0.253938E-03
      0.285000          0.243384E-03
      0.290000          0.233477E-03
      0.295000          0.224178E-03
      0.300000          0.215439E-03
      0.305000          0.207207E-03
      0.310000          0.199426E-03
      0.315000          0.192039E-03
      0.320000          0.184991E-03
      0.325000          0.178232E-03
      0.330000          0.171716E-03
      0.335000          0.165404E-03
      0.340000          0.159266E-03
      0.345000          0.153277E-03
      0.350000          0.147425E-03
      0.355000          0.141705E-03
      0.360000          0.136120E-03
      0.365000          0.130683E-03
      0.370000          0.125415E-03
      0.375000          0.120342E-03
      0.380000          0.115495E-03
      0.385000          0.110909E-03
      0.390000          0.106619E-03
      0.395000          0.102657E-03
      0.400000          0.990560E-04
      0.405000          0.958391E-04
      0.410000          0.930246E-04
      0.415000          0.906221E-04
      0.420000          0.886314E-04
      0.425000          0.870431E-04
      0.430000          0.858378E-04
      0.435000          0.849870E-04
      0.440000          0.844544E-04
      0.445000          0.841971E-04
      0.450000          0.841675E-04
      0.455000          0.843154E-04
      0.460000          0.845899E-04
      0.465000          0.849414E-04
      0.470000          0.853241E-04
      0.475000          0.856971E-04
      0.480000          0.860259E-04
      0.485000          0.862837E-04
      0.490000          0.864517E-04
      0.495000          0.865194E-04
      0.500000          0.864840E-04
