 I_abs(s)[cm^-1]/c[mg/ml]
       0.00000          0.147835E-01
      0.500000E-02      0.147214E-01
      0.100000E-01      0.145368E-01
      0.150000E-01      0.142341E-01
      0.200000E-01      0.138209E-01
      0.250000E-01      0.133071E-01
      0.300000E-01      0.127049E-01
      0.350000E-01      0.120283E-01
      0.400000E-01      0.112924E-01
      0.450000E-01      0.105130E-01
      0.500000E-01      0.970619E-02
      0.550000E-01      0.888752E-02
      0.600000E-01      0.807177E-02
      0.650000E-01      0.727244E-02
      0.700000E-01      0.650142E-02
      0.750000E-01      0.576877E-02
      0.800000E-01      0.508251E-02
      0.850000E-01      0.444862E-02
      0.900000E-01      0.387099E-02
      0.950000E-01      0.335158E-02
      0.100000          0.289056E-02
      0.105000          0.248654E-02
      0.110000          0.213684E-02
      0.115000          0.183772E-02
      0.120000          0.158475E-02
      0.125000          0.137300E-02
      0.130000          0.119733E-02
      0.135000          0.105264E-02
      0.140000          0.934003E-03
      0.145000          0.836857E-03
      0.150000          0.757085E-03
      0.155000          0.691088E-03
      0.160000          0.635812E-03
      0.165000          0.588744E-03
      0.170000          0.547886E-03
      0.175000          0.511703E-03
      0.180000          0.479064E-03
      0.185000          0.449178E-03
      0.190000          0.421522E-03
      0.195000          0.395778E-03
      0.200000          0.371774E-03
      0.205000          0.349431E-03
      0.210000          0.328725E-03
      0.215000          0.309653E-03
      0.220000          0.292215E-03
      0.225000          0.276393E-03
      0.230000          0.262150E-03
      0.235000          0.249424E-03
      0.240000          0.238130E-03
      0.245000          0.228167E-03
      0.250000          0.219419E-03
      0.255000          0.211764E-03
      0.260000          0.205077E-03
      0.265000          0.199237E-03
      0.270000          0.194127E-03
      0.275000          0.189638E-03
      0.280000          0.185674E-03
      0.285000          0.182147E-03
      0.290000          0.178981E-03
      0.295000          0.176112E-03
      0.300000          0.173483E-03
      0.305000          0.171048E-03
      0.310000          0.168771E-03
      0.315000          0.166619E-03
      0.320000          0.164567E-03
      0.325000          0.162592E-03
      0.330000          0.160678E-03
      0.335000          0.158805E-03
      0.340000          0.156959E-03
      0.345000          0.155123E-03
      0.350000          0.153281E-03
      0.355000          0.151415E-03
      0.360000          0.149507E-03
      0.365000          0.147541E-03
      0.370000          0.145498E-03
      0.375000          0.143365E-03
      0.380000          0.141130E-03
      0.385000          0.138786E-03
      0.390000          0.136331E-03
      0.395000          0.133771E-03
      0.400000          0.131117E-03
      0.405000          0.128387E-03
      0.410000          0.125607E-03
      0.415000          0.122806E-03
      0.420000          0.120019E-03
      0.425000          0.117282E-03
      0.430000          0.114631E-03
      0.435000          0.112103E-03
      0.440000          0.109729E-03
      0.445000          0.107536E-03
      0.450000          0.105546E-03
      0.455000          0.103770E-03
      0.460000          0.102216E-03
      0.465000          0.100881E-03
      0.470000          0.997564E-04
      0.475000          0.988287E-04
      0.480000          0.980782E-04
      0.485000          0.974826E-04
      0.490000          0.970178E-04
      0.495000          0.966596E-04
      0.500000          0.963847E-04
