 I_abs(s)[cm^-1]/c[mg/ml]
       0.00000          0.146240E-01
      0.500000E-02      0.145666E-01
      0.100000E-01      0.143958E-01
      0.150000E-01      0.141157E-01
      0.200000E-01      0.137333E-01
      0.250000E-01      0.132575E-01
      0.300000E-01      0.126995E-01
      0.350000E-01      0.120719E-01
      0.400000E-01      0.113885E-01
      0.450000E-01      0.106635E-01
      0.500000E-01      0.991128E-02
      0.550000E-01      0.914583E-02
      0.600000E-01      0.838032E-02
      0.650000E-01      0.762676E-02
      0.700000E-01      0.689571E-02
      0.750000E-01      0.619609E-02
      0.800000E-01      0.553507E-02
      0.850000E-01      0.491804E-02
      0.900000E-01      0.434863E-02
      0.950000E-01      0.382885E-02
      0.100000          0.335923E-02
      0.105000          0.293904E-02
      0.110000          0.256648E-02
      0.115000          0.223894E-02
      0.120000          0.195321E-02
      0.125000          0.170570E-02
      0.130000          0.149262E-02
      0.135000          0.131015E-02
      0.140000          0.115457E-02
      0.145000          0.102235E-02
      0.150000          0.910251E-03
      0.155000          0.815308E-03
      0.160000          0.734901E-03
      0.165000          0.666737E-03
      0.170000          0.608833E-03
      0.175000          0.559497E-03
      0.180000          0.517300E-03
      0.185000          0.481043E-03
      0.190000          0.449726E-03
      0.195000          0.422521E-03
      0.200000          0.398744E-03
      0.205000          0.377833E-03
      0.210000          0.359330E-03
      0.215000          0.342860E-03
      0.220000          0.328121E-03
      0.225000          0.314871E-03
      0.230000          0.302916E-03
      0.235000          0.292101E-03
      0.240000          0.282305E-03
      0.245000          0.273430E-03
      0.250000          0.265397E-03
      0.255000          0.258138E-03
      0.260000          0.251594E-03
      0.265000          0.245713E-03
      0.270000          0.240440E-03
      0.275000          0.235724E-03
      0.280000          0.231512E-03
      0.285000          0.227748E-03
      0.290000          0.224375E-03
      0.295000          0.221337E-03
      0.300000          0.218574E-03
      0.305000          0.216029E-03
      0.310000          0.213646E-03
      0.315000          0.211370E-03
      0.320000          0.209150E-03
      0.325000          0.206937E-03
      0.330000          0.204688E-03
      0.335000          0.202362E-03
      0.340000          0.199924E-03
      0.345000          0.197346E-03
      0.350000          0.194605E-03
      0.355000          0.191683E-03
      0.360000          0.188570E-03
      0.365000          0.185261E-03
      0.370000          0.181760E-03
      0.375000          0.178075E-03
      0.380000          0.174218E-03
      0.385000          0.170210E-03
      0.390000          0.166073E-03
      0.395000          0.161832E-03
      0.400000          0.157516E-03
      0.405000          0.153153E-03
      0.410000          0.148773E-03
      0.415000          0.144404E-03
      0.420000          0.140074E-03
      0.425000          0.135809E-03
      0.430000          0.131634E-03
      0.435000          0.127569E-03
      0.440000          0.123635E-03
      0.445000          0.119850E-03
      0.450000          0.116228E-03
      0.455000          0.112784E-03
      0.460000          0.109529E-03
      0.465000          0.106471E-03
      0.470000          0.103617E-03
      0.475000          0.100971E-03
      0.480000          0.985328E-04
      0.485000          0.963015E-04
      0.490000          0.942709E-04
      0.495000          0.924320E-04
      0.500000          0.907723E-04
