 I_abs(s)[cm^-1]/c[mg/ml]
       0.00000          0.133565E-01
      0.500000E-02      0.132359E-01
      0.100000E-01      0.128815E-01
      0.150000E-01      0.123147E-01
      0.200000E-01      0.115689E-01
      0.250000E-01      0.106866E-01
      0.300000E-01      0.971512E-02
      0.350000E-01      0.870296E-02
      0.400000E-01      0.769567E-02
      0.450000E-01      0.673258E-02
      0.500000E-01      0.584440E-02
      0.550000E-01      0.505190E-02
      0.600000E-01      0.436572E-02
      0.650000E-01      0.378717E-02
      0.700000E-01      0.330988E-02
      0.750000E-01      0.292192E-02
      0.800000E-01      0.260810E-02
      0.850000E-01      0.235226E-02
      0.900000E-01      0.213908E-02
      0.950000E-01      0.195551E-02
      0.100000          0.179150E-02
      0.105000          0.164028E-02
      0.110000          0.149810E-02
      0.115000          0.136363E-02
      0.120000          0.123727E-02
      0.125000          0.112028E-02
      0.130000          0.101416E-02
      0.135000          0.920073E-03
      0.140000          0.838532E-03
      0.145000          0.769308E-03
      0.150000          0.711462E-03
      0.155000          0.663529E-03
      0.160000          0.623742E-03
      0.165000          0.590272E-03
      0.170000          0.561430E-03
      0.175000          0.535811E-03
      0.180000          0.512369E-03
      0.185000          0.490433E-03
      0.190000          0.469669E-03
      0.195000          0.450017E-03
      0.200000          0.431597E-03
      0.205000          0.414632E-03
      0.210000          0.399361E-03
      0.215000          0.385973E-03
      0.220000          0.374562E-03
      0.225000          0.365088E-03
      0.230000          0.357367E-03
      0.235000          0.351072E-03
      0.240000          0.345757E-03
      0.245000          0.340891E-03
      0.250000          0.335912E-03
      0.255000          0.330279E-03
      0.260000          0.323536E-03
      0.265000          0.315363E-03
      0.270000          0.305616E-03
      0.275000          0.294347E-03
      0.280000          0.281803E-03
      0.285000          0.268396E-03
      0.290000          0.254658E-03
      0.295000          0.241178E-03
      0.300000          0.228538E-03
      0.305000          0.217240E-03
      0.310000          0.207660E-03
      0.315000          0.200005E-03
      0.320000          0.194303E-03
      0.325000          0.190411E-03
      0.330000          0.188040E-03
      0.335000          0.186800E-03
      0.340000          0.186249E-03
      0.345000          0.185947E-03
      0.350000          0.185501E-03
      0.355000          0.184604E-03
      0.360000          0.183054E-03
      0.365000          0.180766E-03
      0.370000          0.177762E-03
      0.375000          0.174154E-03
      0.380000          0.170119E-03
      0.385000          0.165864E-03
      0.390000          0.161597E-03
      0.395000          0.157500E-03
      0.400000          0.153706E-03
      0.405000          0.150286E-03
      0.410000          0.147247E-03
      0.415000          0.144537E-03
      0.420000          0.142059E-03
      0.425000          0.139693E-03
      0.430000          0.137311E-03
      0.435000          0.134805E-03
      0.440000          0.132101E-03
      0.445000          0.129170E-03
      0.450000          0.126031E-03
      0.455000          0.122747E-03
      0.460000          0.119416E-03
      0.465000          0.116150E-03
      0.470000          0.113064E-03
      0.475000          0.110251E-03
      0.480000          0.107776E-03
      0.485000          0.105664E-03
      0.490000          0.103902E-03
      0.495000          0.102444E-03
      0.500000          0.101222E-03
