 I_abs(s)[cm^-1]/c[mg/ml]
       0.00000          0.141117E-01
      0.500000E-02      0.140245E-01
      0.100000E-01      0.137662E-01
      0.150000E-01      0.133471E-01
      0.200000E-01      0.127832E-01
      0.250000E-01      0.120955E-01
      0.300000E-01      0.113091E-01
      0.350000E-01      0.104507E-01
      0.400000E-01      0.954825E-02
      0.450000E-01      0.862857E-02
      0.500000E-01      0.771648E-02
      0.550000E-01      0.683367E-02
      0.600000E-01      0.599789E-02
      0.650000E-01      0.522260E-02
      0.700000E-01      0.451685E-02
      0.750000E-01      0.388553E-02
      0.800000E-01      0.332981E-02
      0.850000E-01      0.284779E-02
      0.900000E-01      0.243521E-02
      0.950000E-01      0.208619E-02
      0.100000          0.179397E-02
      0.105000          0.155146E-02
      0.110000          0.135174E-02
      0.115000          0.118842E-02
      0.120000          0.105574E-02
      0.125000          0.948760E-03
      0.130000          0.863233E-03
      0.135000          0.795570E-03
      0.140000          0.742708E-03
      0.145000          0.701987E-03
      0.150000          0.671044E-03
      0.155000          0.647743E-03
      0.160000          0.630132E-03
      0.165000          0.616440E-03
      0.170000          0.605092E-03
      0.175000          0.594735E-03
      0.180000          0.584275E-03
      0.185000          0.572893E-03
      0.190000          0.560054E-03
      0.195000          0.545490E-03
      0.200000          0.529174E-03
      0.205000          0.511264E-03
      0.210000          0.492056E-03
      0.215000          0.471924E-03
      0.220000          0.451267E-03
      0.225000          0.430466E-03
      0.230000          0.409855E-03
      0.235000          0.389709E-03
      0.240000          0.370233E-03
      0.245000          0.351578E-03
      0.250000          0.333843E-03
      0.255000          0.317097E-03
      0.260000          0.301388E-03
      0.265000          0.286753E-03
      0.270000          0.273221E-03
      0.275000          0.260812E-03
      0.280000          0.249534E-03
      0.285000          0.239373E-03
      0.290000          0.230293E-03
      0.295000          0.222228E-03
      0.300000          0.215085E-03
      0.305000          0.208747E-03
      0.310000          0.203082E-03
      0.315000          0.197952E-03
      0.320000          0.193226E-03
      0.325000          0.188786E-03
      0.330000          0.184544E-03
      0.335000          0.180436E-03
      0.340000          0.176430E-03
      0.345000          0.172522E-03
      0.350000          0.168724E-03
      0.355000          0.165063E-03
      0.360000          0.161568E-03
      0.365000          0.158262E-03
      0.370000          0.155157E-03
      0.375000          0.152251E-03
      0.380000          0.149526E-03
      0.385000          0.146951E-03
      0.390000          0.144489E-03
      0.395000          0.142096E-03
      0.400000          0.139735E-03
      0.405000          0.137374E-03
      0.410000          0.134994E-03
      0.415000          0.132589E-03
      0.420000          0.130165E-03
      0.425000          0.127740E-03
      0.430000          0.125338E-03
      0.435000          0.122987E-03
      0.440000          0.120716E-03
      0.445000          0.118546E-03
      0.450000          0.116497E-03
      0.455000          0.114576E-03
      0.460000          0.112786E-03
      0.465000          0.111121E-03
      0.470000          0.109572E-03
      0.475000          0.108126E-03
      0.480000          0.106772E-03
      0.485000          0.105496E-03
      0.490000          0.104291E-03
      0.495000          0.103150E-03
      0.500000          0.102070E-03
