 I_abs(s)[cm^-1]/c[mg/ml]
       0.00000          0.146002E-01
      0.500000E-02      0.145396E-01
      0.100000E-01      0.143593E-01
      0.150000E-01      0.140643E-01
      0.200000E-01      0.136622E-01
      0.250000E-01      0.131636E-01
      0.300000E-01      0.125810E-01
      0.350000E-01      0.119286E-01
      0.400000E-01      0.112215E-01
      0.450000E-01      0.104756E-01
      0.500000E-01      0.970611E-02
      0.550000E-01      0.892791E-02
      0.600000E-01      0.815458E-02
      0.650000E-01      0.739816E-02
      0.700000E-01      0.666893E-02
      0.750000E-01      0.597521E-02
      0.800000E-01      0.532333E-02
      0.850000E-01      0.471772E-02
      0.900000E-01      0.416098E-02
      0.950000E-01      0.365414E-02
      0.100000          0.319686E-02
      0.105000          0.278771E-02
      0.110000          0.242443E-02
      0.115000          0.210419E-02
      0.120000          0.182378E-02
      0.125000          0.157984E-02
      0.130000          0.136898E-02
      0.135000          0.118791E-02
      0.140000          0.103348E-02
      0.145000          0.902748E-03
      0.150000          0.792991E-03
      0.155000          0.701686E-03
      0.160000          0.626510E-03
      0.165000          0.565319E-03
      0.170000          0.516131E-03
      0.175000          0.477113E-03
      0.180000          0.446574E-03
      0.185000          0.422961E-03
      0.190000          0.404865E-03
      0.195000          0.391019E-03
      0.200000          0.380314E-03
      0.205000          0.371794E-03
      0.210000          0.364664E-03
      0.215000          0.358281E-03
      0.220000          0.352151E-03
      0.225000          0.345911E-03
      0.230000          0.339320E-03
      0.235000          0.332229E-03
      0.240000          0.324573E-03
      0.245000          0.316339E-03
      0.250000          0.307558E-03
      0.255000          0.298283E-03
      0.260000          0.288580E-03
      0.265000          0.278521E-03
      0.270000          0.268177E-03
      0.275000          0.257616E-03
      0.280000          0.246907E-03
      0.285000          0.236122E-03
      0.290000          0.225333E-03
      0.295000          0.214623E-03
      0.300000          0.204080E-03
      0.305000          0.193799E-03
      0.310000          0.183882E-03
      0.315000          0.174435E-03
      0.320000          0.165561E-03
      0.325000          0.157359E-03
      0.330000          0.149915E-03
      0.335000          0.143300E-03
      0.340000          0.137567E-03
      0.345000          0.132743E-03
      0.350000          0.128834E-03
      0.355000          0.125819E-03
      0.360000          0.123653E-03
      0.365000          0.122270E-03
      0.370000          0.121586E-03
      0.375000          0.121503E-03
      0.380000          0.121913E-03
      0.385000          0.122702E-03
      0.390000          0.123756E-03
      0.395000          0.124965E-03
      0.400000          0.126228E-03
      0.405000          0.127453E-03
      0.410000          0.128561E-03
      0.415000          0.129489E-03
      0.420000          0.130190E-03
      0.425000          0.130631E-03
      0.430000          0.130795E-03
      0.435000          0.130678E-03
      0.440000          0.130289E-03
      0.445000          0.129646E-03
      0.450000          0.128774E-03
      0.455000          0.127700E-03
      0.460000          0.126456E-03
      0.465000          0.125072E-03
      0.470000          0.123574E-03
      0.475000          0.121984E-03
      0.480000          0.120320E-03
      0.485000          0.118594E-03
      0.490000          0.116812E-03
      0.495000          0.114975E-03
      0.500000          0.113082E-03
