 I_abs(s)[cm^-1]/c[mg/ml]
       0.00000          0.146957E-01
      0.500000E-02      0.146484E-01
      0.100000E-01      0.145072E-01
      0.150000E-01      0.142750E-01
      0.200000E-01      0.139560E-01
      0.250000E-01      0.135561E-01
      0.300000E-01      0.130826E-01
      0.350000E-01      0.125439E-01
      0.400000E-01      0.119493E-01
      0.450000E-01      0.113090E-01
      0.500000E-01      0.106332E-01
      0.550000E-01      0.993262E-02
      0.600000E-01      0.921753E-02
      0.650000E-01      0.849797E-02
      0.700000E-01      0.778333E-02
      0.750000E-01      0.708223E-02
      0.800000E-01      0.640232E-02
      0.850000E-01      0.575023E-02
      0.900000E-01      0.513143E-02
      0.950000E-01      0.455027E-02
      0.100000          0.400994E-02
      0.105000          0.351252E-02
      0.110000          0.305905E-02
      0.115000          0.264966E-02
      0.120000          0.228360E-02
      0.125000          0.195946E-02
      0.130000          0.167522E-02
      0.135000          0.142843E-02
      0.140000          0.121630E-02
      0.145000          0.103584E-02
      0.150000          0.883968E-03
      0.155000          0.757579E-03
      0.160000          0.653638E-03
      0.165000          0.569233E-03
      0.170000          0.501628E-03
      0.175000          0.448288E-03
      0.180000          0.406901E-03
      0.185000          0.375385E-03
      0.190000          0.351892E-03
      0.195000          0.334794E-03
      0.200000          0.322674E-03
      0.205000          0.314315E-03
      0.210000          0.308676E-03
      0.215000          0.304882E-03
      0.220000          0.302204E-03
      0.225000          0.300043E-03
      0.230000          0.297917E-03
      0.235000          0.295453E-03
      0.240000          0.292366E-03
      0.245000          0.288459E-03
      0.250000          0.283608E-03
      0.255000          0.277756E-03
      0.260000          0.270902E-03
      0.265000          0.263097E-03
      0.270000          0.254433E-03
      0.275000          0.245034E-03
      0.280000          0.235050E-03
      0.285000          0.224650E-03
      0.290000          0.214010E-03
      0.295000          0.203307E-03
      0.300000          0.192714E-03
      0.305000          0.182394E-03
      0.310000          0.172490E-03
      0.315000          0.163129E-03
      0.320000          0.154414E-03
      0.325000          0.146421E-03
      0.330000          0.139204E-03
      0.335000          0.132793E-03
      0.340000          0.127194E-03
      0.345000          0.122392E-03
      0.350000          0.118356E-03
      0.355000          0.115041E-03
      0.360000          0.112387E-03
      0.365000          0.110329E-03
      0.370000          0.108794E-03
      0.375000          0.107710E-03
      0.380000          0.107000E-03
      0.385000          0.106593E-03
      0.390000          0.106417E-03
      0.395000          0.106408E-03
      0.400000          0.106505E-03
      0.405000          0.106654E-03
      0.410000          0.106805E-03
      0.415000          0.106915E-03
      0.420000          0.106949E-03
      0.425000          0.106874E-03
      0.430000          0.106668E-03
      0.435000          0.106310E-03
      0.440000          0.105787E-03
      0.445000          0.105093E-03
      0.450000          0.104224E-03
      0.455000          0.103184E-03
      0.460000          0.101981E-03
      0.465000          0.100628E-03
      0.470000          0.991435E-04
      0.475000          0.975480E-04
      0.480000          0.958666E-04
      0.485000          0.941267E-04
      0.490000          0.923575E-04
      0.495000          0.905891E-04
      0.500000          0.888516E-04
