 I_abs(s)[cm^-1]/c[mg/ml]
       0.00000          0.146877E-01
      0.500000E-02      0.146237E-01
      0.100000E-01      0.144333E-01
      0.150000E-01      0.141220E-01
      0.200000E-01      0.136983E-01
      0.250000E-01      0.131739E-01
      0.300000E-01      0.125625E-01
      0.350000E-01      0.118800E-01
      0.400000E-01      0.111429E-01
      0.450000E-01      0.103686E-01
      0.500000E-01      0.957390E-02
      0.550000E-01      0.877485E-02
      0.600000E-01      0.798616E-02
      0.650000E-01      0.722069E-02
      0.700000E-01      0.648926E-02
      0.750000E-01      0.580039E-02
      0.800000E-01      0.516033E-02
      0.850000E-01      0.457306E-02
      0.900000E-01      0.404053E-02
      0.950000E-01      0.356280E-02
      0.100000          0.313842E-02
      0.105000          0.276468E-02
      0.110000          0.243797E-02
      0.115000          0.215405E-02
      0.120000          0.190841E-02
      0.125000          0.169642E-02
      0.130000          0.151360E-02
      0.135000          0.135573E-02
      0.140000          0.121899E-02
      0.145000          0.110000E-02
      0.150000          0.995842E-03
      0.155000          0.904067E-03
      0.160000          0.822673E-03
      0.165000          0.750055E-03
      0.170000          0.684958E-03
      0.175000          0.626424E-03
      0.180000          0.573734E-03
      0.185000          0.526357E-03
      0.190000          0.483902E-03
      0.195000          0.446072E-03
      0.200000          0.412633E-03
      0.205000          0.383375E-03
      0.210000          0.358090E-03
      0.215000          0.336552E-03
      0.220000          0.318507E-03
      0.225000          0.303657E-03
      0.230000          0.291669E-03
      0.235000          0.282171E-03
      0.240000          0.274764E-03
      0.245000          0.269034E-03
      0.250000          0.264565E-03
      0.255000          0.260959E-03
      0.260000          0.257850E-03
      0.265000          0.254917E-03
      0.270000          0.251896E-03
      0.275000          0.248589E-03
      0.280000          0.244866E-03
      0.285000          0.240661E-03
      0.290000          0.235969E-03
      0.295000          0.230831E-03
      0.300000          0.225327E-03
      0.305000          0.219558E-03
      0.310000          0.213635E-03
      0.315000          0.207663E-03
      0.320000          0.201736E-03
      0.325000          0.195923E-03
      0.330000          0.190269E-03
      0.335000          0.184796E-03
      0.340000          0.179500E-03
      0.345000          0.174362E-03
      0.350000          0.169351E-03
      0.355000          0.164433E-03
      0.360000          0.159577E-03
      0.365000          0.154759E-03
      0.370000          0.149972E-03
      0.375000          0.145220E-03
      0.380000          0.140525E-03
      0.385000          0.135921E-03
      0.390000          0.131450E-03
      0.395000          0.127162E-03
      0.400000          0.123103E-03
      0.405000          0.119319E-03
      0.410000          0.115842E-03
      0.415000          0.112697E-03
      0.420000          0.109890E-03
      0.425000          0.107417E-03
      0.430000          0.105257E-03
      0.435000          0.103380E-03
      0.440000          0.101745E-03
      0.445000          0.100307E-03
      0.450000          0.990167E-04
      0.455000          0.978272E-04
      0.460000          0.966951E-04
      0.465000          0.955827E-04
      0.470000          0.944600E-04
      0.475000          0.933054E-04
      0.480000          0.921060E-04
      0.485000          0.908570E-04
      0.490000          0.895614E-04
      0.495000          0.882285E-04
      0.500000          0.868728E-04
