 I_abs(s)[cm^-1]/c[mg/ml]
       0.00000          0.146002E-01
      0.500000E-02      0.145469E-01
      0.100000E-01      0.143881E-01
      0.150000E-01      0.141269E-01
      0.200000E-01      0.137684E-01
      0.250000E-01      0.133198E-01
      0.300000E-01      0.127895E-01
      0.350000E-01      0.121877E-01
      0.400000E-01      0.115255E-01
      0.450000E-01      0.108148E-01
      0.500000E-01      0.100680E-01
      0.550000E-01      0.929769E-02
      0.600000E-01      0.851629E-02
      0.650000E-01      0.773568E-02
      0.700000E-01      0.696703E-02
      0.750000E-01      0.622050E-02
      0.800000E-01      0.550507E-02
      0.850000E-01      0.482838E-02
      0.900000E-01      0.419661E-02
      0.950000E-01      0.361448E-02
      0.100000          0.308518E-02
      0.105000          0.261048E-02
      0.110000          0.219077E-02
      0.115000          0.182517E-02
      0.120000          0.151174E-02
      0.125000          0.124758E-02
      0.130000          0.102905E-02
      0.135000          0.851964E-03
      0.140000          0.711742E-03
      0.145000          0.603626E-03
      0.150000          0.522827E-03
      0.155000          0.464675E-03
      0.160000          0.424741E-03
      0.165000          0.398944E-03
      0.170000          0.383620E-03
      0.175000          0.375577E-03
      0.180000          0.372118E-03
      0.185000          0.371046E-03
      0.190000          0.370648E-03
      0.195000          0.369667E-03
      0.200000          0.367254E-03
      0.205000          0.362915E-03
      0.210000          0.356455E-03
      0.215000          0.347916E-03
      0.220000          0.337519E-03
      0.225000          0.325602E-03
      0.230000          0.312576E-03
      0.235000          0.298879E-03
      0.240000          0.284938E-03
      0.245000          0.271141E-03
      0.250000          0.257820E-03
      0.255000          0.245238E-03
      0.260000          0.233582E-03
      0.265000          0.222968E-03
      0.270000          0.213441E-03
      0.275000          0.204988E-03
      0.280000          0.197549E-03
      0.285000          0.191027E-03
      0.290000          0.185301E-03
      0.295000          0.180241E-03
      0.300000          0.175714E-03
      0.305000          0.171596E-03
      0.310000          0.167773E-03
      0.315000          0.164154E-03
      0.320000          0.160664E-03
      0.325000          0.157252E-03
      0.330000          0.153884E-03
      0.335000          0.150545E-03
      0.340000          0.147233E-03
      0.345000          0.143957E-03
      0.350000          0.140733E-03
      0.355000          0.137580E-03
      0.360000          0.134517E-03
      0.365000          0.131561E-03
      0.370000          0.128725E-03
      0.375000          0.126016E-03
      0.380000          0.123438E-03
      0.385000          0.120988E-03
      0.390000          0.118659E-03
      0.395000          0.116440E-03
      0.400000          0.114321E-03
      0.405000          0.112289E-03
      0.410000          0.110333E-03
      0.415000          0.108444E-03
      0.420000          0.106618E-03
      0.425000          0.104852E-03
      0.430000          0.103150E-03
      0.435000          0.101520E-03
      0.440000          0.999717E-04
      0.445000          0.985212E-04
      0.450000          0.971850E-04
      0.455000          0.959817E-04
      0.460000          0.949298E-04
      0.465000          0.940470E-04
      0.470000          0.933486E-04
      0.475000          0.928470E-04
      0.480000          0.925502E-04
      0.485000          0.924618E-04
      0.490000          0.925799E-04
      0.495000          0.928972E-04
      0.500000          0.934008E-04
