 I_abs(s)[cm^-1]/c[mg/ml]
       0.00000          0.144891E-01
      0.500000E-02      0.144214E-01
      0.100000E-01      0.142201E-01
      0.150000E-01      0.138918E-01
      0.200000E-01      0.134466E-01
      0.250000E-01      0.128980E-01
      0.300000E-01      0.122621E-01
      0.350000E-01      0.115567E-01
      0.400000E-01      0.108005E-01
      0.450000E-01      0.100123E-01
      0.500000E-01      0.921001E-02
      0.550000E-01      0.841023E-02
      0.600000E-01      0.762747E-02
      0.650000E-01      0.687391E-02
      0.700000E-01      0.615920E-02
      0.750000E-01      0.549040E-02
      0.800000E-01      0.487212E-02
      0.850000E-01      0.430674E-02
      0.900000E-01      0.379472E-02
      0.950000E-01      0.333499E-02
      0.100000          0.292528E-02
      0.105000          0.256251E-02
      0.110000          0.224310E-02
      0.115000          0.196323E-02
      0.120000          0.171904E-02
      0.125000          0.150680E-02
      0.130000          0.132297E-02
      0.135000          0.116429E-02
      0.140000          0.102776E-02
      0.145000          0.910656E-03
      0.150000          0.810521E-03
      0.155000          0.725123E-03
      0.160000          0.652458E-03
      0.165000          0.590729E-03
      0.170000          0.538339E-03
      0.175000          0.493889E-03
      0.180000          0.456168E-03
      0.185000          0.424148E-03
      0.190000          0.396971E-03
      0.195000          0.373937E-03
      0.200000          0.354475E-03
      0.205000          0.338128E-03
      0.210000          0.324517E-03
      0.215000          0.313323E-03
      0.220000          0.304255E-03
      0.225000          0.297040E-03
      0.230000          0.291405E-03
      0.235000          0.287069E-03
      0.240000          0.283749E-03
      0.245000          0.281159E-03
      0.250000          0.279021E-03
      0.255000          0.277073E-03
      0.260000          0.275082E-03
      0.265000          0.272847E-03
      0.270000          0.270213E-03
      0.275000          0.267065E-03
      0.280000          0.263333E-03
      0.285000          0.258990E-03
      0.290000          0.254039E-03
      0.295000          0.248517E-03
      0.300000          0.242477E-03
      0.305000          0.235992E-03
      0.310000          0.229139E-03
      0.315000          0.222003E-03
      0.320000          0.214665E-03
      0.325000          0.207208E-03
      0.330000          0.199709E-03
      0.335000          0.192243E-03
      0.340000          0.184879E-03
      0.345000          0.177680E-03
      0.350000          0.170706E-03
      0.355000          0.164009E-03
      0.360000          0.157634E-03
      0.365000          0.151620E-03
      0.370000          0.145995E-03
      0.375000          0.140781E-03
      0.380000          0.135988E-03
      0.385000          0.131618E-03
      0.390000          0.127666E-03
      0.395000          0.124116E-03
      0.400000          0.120946E-03
      0.405000          0.118130E-03
      0.410000          0.115635E-03
      0.415000          0.113426E-03
      0.420000          0.111469E-03
      0.425000          0.109726E-03
      0.430000          0.108163E-03
      0.435000          0.106748E-03
      0.440000          0.105453E-03
      0.445000          0.104254E-03
      0.450000          0.103132E-03
      0.455000          0.102074E-03
      0.460000          0.101072E-03
      0.465000          0.100125E-03
      0.470000          0.992340E-04
      0.475000          0.984059E-04
      0.480000          0.976494E-04
      0.485000          0.969744E-04
      0.490000          0.963912E-04
      0.495000          0.959083E-04
      0.500000          0.955316E-04
