 I_abs(s)[cm^-1]/c[mg/ml]
       0.00000          0.143077E-01
      0.500000E-02      0.142463E-01
      0.100000E-01      0.140639E-01
      0.150000E-01      0.137653E-01
      0.200000E-01      0.133587E-01
      0.250000E-01      0.128546E-01
      0.300000E-01      0.122661E-01
      0.350000E-01      0.116077E-01
      0.400000E-01      0.108955E-01
      0.450000E-01      0.101457E-01
      0.500000E-01      0.937462E-02
      0.550000E-01      0.859786E-02
      0.600000E-01      0.782989E-02
      0.650000E-01      0.708362E-02
      0.700000E-01      0.637001E-02
      0.750000E-01      0.569795E-02
      0.800000E-01      0.507407E-02
      0.850000E-01      0.450282E-02
      0.900000E-01      0.398653E-02
      0.950000E-01      0.352559E-02
      0.100000          0.311872E-02
      0.105000          0.276323E-02
      0.110000          0.245537E-02
      0.115000          0.219064E-02
      0.120000          0.196406E-02
      0.125000          0.177052E-02
      0.130000          0.160498E-02
      0.135000          0.146267E-02
      0.140000          0.133927E-02
      0.145000          0.123096E-02
      0.150000          0.113453E-02
      0.155000          0.104738E-02
      0.160000          0.967480E-03
      0.165000          0.893331E-03
      0.170000          0.823908E-03
      0.175000          0.758576E-03
      0.180000          0.697005E-03
      0.185000          0.639090E-03
      0.190000          0.584873E-03
      0.195000          0.534477E-03
      0.200000          0.488052E-03
      0.205000          0.445729E-03
      0.210000          0.407587E-03
      0.215000          0.373639E-03
      0.220000          0.343816E-03
      0.225000          0.317971E-03
      0.230000          0.295882E-03
      0.235000          0.277265E-03
      0.240000          0.261787E-03
      0.245000          0.249082E-03
      0.250000          0.238769E-03
      0.255000          0.230464E-03
      0.260000          0.223798E-03
      0.265000          0.218426E-03
      0.270000          0.214037E-03
      0.275000          0.210359E-03
      0.280000          0.207162E-03
      0.285000          0.204258E-03
      0.290000          0.201504E-03
      0.295000          0.198789E-03
      0.300000          0.196038E-03
      0.305000          0.193201E-03
      0.310000          0.190247E-03
      0.315000          0.187160E-03
      0.320000          0.183935E-03
      0.325000          0.180569E-03
      0.330000          0.177063E-03
      0.335000          0.173419E-03
      0.340000          0.169639E-03
      0.345000          0.165725E-03
      0.350000          0.161682E-03
      0.355000          0.157518E-03
      0.360000          0.153247E-03
      0.365000          0.148891E-03
      0.370000          0.144477E-03
      0.375000          0.140042E-03
      0.380000          0.135629E-03
      0.385000          0.131287E-03
      0.390000          0.127068E-03
      0.395000          0.123023E-03
      0.400000          0.119202E-03
      0.405000          0.115648E-03
      0.410000          0.112395E-03
      0.415000          0.109465E-03
      0.420000          0.106868E-03
      0.425000          0.104601E-03
      0.430000          0.102646E-03
      0.435000          0.100974E-03
      0.440000          0.995439E-04
      0.445000          0.983088E-04
      0.450000          0.972156E-04
      0.455000          0.962098E-04
      0.460000          0.952386E-04
      0.465000          0.942533E-04
      0.470000          0.932123E-04
      0.475000          0.920828E-04
      0.480000          0.908421E-04
      0.485000          0.894779E-04
      0.490000          0.879889E-04
      0.495000          0.863833E-04
      0.500000          0.846780E-04
