 I_abs(s)[cm^-1]/c[mg/ml]
       0.00000          0.144101E-01
      0.500000E-02      0.143408E-01
      0.100000E-01      0.141351E-01
      0.150000E-01      0.137998E-01
      0.200000E-01      0.133459E-01
      0.250000E-01      0.127879E-01
      0.300000E-01      0.121428E-01
      0.350000E-01      0.114297E-01
      0.400000E-01      0.106686E-01
      0.450000E-01      0.987924E-02
      0.500000E-01      0.908058E-02
      0.550000E-01      0.828982E-02
      0.600000E-01      0.752186E-02
      0.650000E-01      0.678890E-02
      0.700000E-01      0.610020E-02
      0.750000E-01      0.546208E-02
      0.800000E-01      0.487806E-02
      0.850000E-01      0.434918E-02
      0.900000E-01      0.387436E-02
      0.950000E-01      0.345090E-02
      0.100000          0.307496E-02
      0.105000          0.274199E-02
      0.110000          0.244718E-02
      0.115000          0.218583E-02
      0.120000          0.195353E-02
      0.125000          0.174642E-02
      0.130000          0.156121E-02
      0.135000          0.139524E-02
      0.140000          0.124640E-02
      0.145000          0.111307E-02
      0.150000          0.993996E-03
      0.155000          0.888167E-03
      0.160000          0.794734E-03
      0.165000          0.712903E-03
      0.170000          0.641875E-03
      0.175000          0.580806E-03
      0.180000          0.528792E-03
      0.185000          0.484872E-03
      0.190000          0.448052E-03
      0.195000          0.417327E-03
      0.200000          0.391721E-03
      0.205000          0.370311E-03
      0.210000          0.352257E-03
      0.215000          0.336820E-03
      0.220000          0.323372E-03
      0.225000          0.311401E-03
      0.230000          0.300505E-03
      0.235000          0.290391E-03
      0.240000          0.280857E-03
      0.245000          0.271781E-03
      0.250000          0.263108E-03
      0.255000          0.254836E-03
      0.260000          0.246998E-03
      0.265000          0.239656E-03
      0.270000          0.232879E-03
      0.275000          0.226741E-03
      0.280000          0.221301E-03
      0.285000          0.216601E-03
      0.290000          0.212653E-03
      0.295000          0.209437E-03
      0.300000          0.206894E-03
      0.305000          0.204930E-03
      0.310000          0.203417E-03
      0.315000          0.202203E-03
      0.320000          0.201113E-03
      0.325000          0.199970E-03
      0.330000          0.198598E-03
      0.335000          0.196841E-03
      0.340000          0.194568E-03
      0.345000          0.191686E-03
      0.350000          0.188142E-03
      0.355000          0.183928E-03
      0.360000          0.179081E-03
      0.365000          0.173676E-03
      0.370000          0.167818E-03
      0.375000          0.161637E-03
      0.380000          0.155276E-03
      0.385000          0.148880E-03
      0.390000          0.142583E-03
      0.395000          0.136508E-03
      0.400000          0.130750E-03
      0.405000          0.125382E-03
      0.410000          0.120445E-03
      0.415000          0.115957E-03
      0.420000          0.111906E-03
      0.425000          0.108266E-03
      0.430000          0.104994E-03
      0.435000          0.102040E-03
      0.440000          0.993501E-04
      0.445000          0.968768E-04
      0.450000          0.945788E-04
      0.455000          0.924259E-04
      0.460000          0.904005E-04
      0.465000          0.884976E-04
      0.470000          0.867231E-04
      0.475000          0.850919E-04
      0.480000          0.836238E-04
      0.485000          0.823404E-04
      0.490000          0.812602E-04
      0.495000          0.803957E-04
      0.500000          0.797495E-04
