 I_abs(s)[cm^-1]/c[mg/ml]
       0.00000          0.139792E-01
      0.500000E-02      0.138968E-01
      0.100000E-01      0.136533E-01
      0.150000E-01      0.132585E-01
      0.200000E-01      0.127288E-01
      0.250000E-01      0.120849E-01
      0.300000E-01      0.113513E-01
      0.350000E-01      0.105544E-01
      0.400000E-01      0.972084E-02
      0.450000E-01      0.887603E-02
      0.500000E-01      0.804297E-02
      0.550000E-01      0.724115E-02
      0.600000E-01      0.648589E-02
      0.650000E-01      0.578809E-02
      0.700000E-01      0.515428E-02
      0.750000E-01      0.458701E-02
      0.800000E-01      0.408544E-02
      0.850000E-01      0.364612E-02
      0.900000E-01      0.326374E-02
      0.950000E-01      0.293198E-02
      0.100000          0.264414E-02
      0.105000          0.239373E-02
      0.110000          0.217481E-02
      0.115000          0.198228E-02
      0.120000          0.181188E-02
      0.125000          0.166018E-02
      0.130000          0.152449E-02
      0.135000          0.140263E-02
      0.140000          0.129282E-02
      0.145000          0.119355E-02
      0.150000          0.110342E-02
      0.155000          0.102116E-02
      0.160000          0.945571E-03
      0.165000          0.875598E-03
      0.170000          0.810330E-03
      0.175000          0.749064E-03
      0.180000          0.691330E-03
      0.185000          0.636894E-03
      0.190000          0.585740E-03
      0.195000          0.538022E-03
      0.200000          0.493997E-03
      0.205000          0.453954E-03
      0.210000          0.418135E-03
      0.215000          0.386679E-03
      0.220000          0.359576E-03
      0.225000          0.336651E-03
      0.230000          0.317570E-03
      0.235000          0.301863E-03
      0.240000          0.288973E-03
      0.245000          0.278302E-03
      0.250000          0.269264E-03
      0.255000          0.261329E-03
      0.260000          0.254056E-03
      0.265000          0.247114E-03
      0.270000          0.240282E-03
      0.275000          0.233443E-03
      0.280000          0.226567E-03
      0.285000          0.219686E-03
      0.290000          0.212872E-03
      0.295000          0.206216E-03
      0.300000          0.199807E-03
      0.305000          0.193730E-03
      0.310000          0.188048E-03
      0.315000          0.182814E-03
      0.320000          0.178060E-03
      0.325000          0.173810E-03
      0.330000          0.170072E-03
      0.335000          0.166845E-03
      0.340000          0.164113E-03
      0.345000          0.161844E-03
      0.350000          0.159988E-03
      0.355000          0.158473E-03
      0.360000          0.157208E-03
      0.365000          0.156089E-03
      0.370000          0.155000E-03
      0.375000          0.153828E-03
      0.380000          0.152467E-03
      0.385000          0.150836E-03
      0.390000          0.148879E-03
      0.395000          0.146574E-03
      0.400000          0.143936E-03
      0.405000          0.141009E-03
      0.410000          0.137859E-03
      0.415000          0.134569E-03
      0.420000          0.131223E-03
      0.425000          0.127897E-03
      0.430000          0.124647E-03
      0.435000          0.121511E-03
      0.440000          0.118500E-03
      0.445000          0.115601E-03
      0.450000          0.112787E-03
      0.455000          0.110023E-03
      0.460000          0.107271E-03
      0.465000          0.104505E-03
      0.470000          0.101711E-03
      0.475000          0.988951E-04
      0.480000          0.960801E-04
      0.485000          0.933048E-04
      0.490000          0.906175E-04
      0.495000          0.880694E-04
      0.500000          0.857070E-04
