 I_abs(s)[cm^-1]/c[mg/ml]
       0.00000          0.150728E-01
      0.500000E-02      0.150139E-01
      0.100000E-01      0.148387E-01
      0.150000E-01      0.145509E-01
      0.200000E-01      0.141568E-01
      0.250000E-01      0.136648E-01
      0.300000E-01      0.130855E-01
      0.350000E-01      0.124308E-01
      0.400000E-01      0.117139E-01
      0.450000E-01      0.109489E-01
      0.500000E-01      0.101500E-01
      0.550000E-01      0.933171E-02
      0.600000E-01      0.850786E-02
      0.650000E-01      0.769151E-02
      0.700000E-01      0.689461E-02
      0.750000E-01      0.612769E-02
      0.800000E-01      0.539969E-02
      0.850000E-01      0.471782E-02
      0.900000E-01      0.408754E-02
      0.950000E-01      0.351248E-02
      0.100000          0.299462E-02
      0.105000          0.253430E-02
      0.110000          0.213049E-02
      0.115000          0.178092E-02
      0.120000          0.148233E-02
      0.125000          0.123072E-02
      0.130000          0.102157E-02
      0.135000          0.850059E-03
      0.140000          0.711294E-03
      0.145000          0.600481E-03
      0.150000          0.513075E-03
      0.155000          0.444904E-03
      0.160000          0.392247E-03
      0.165000          0.351890E-03
      0.170000          0.321133E-03
      0.175000          0.297792E-03
      0.180000          0.280156E-03
      0.185000          0.266938E-03
      0.190000          0.257214E-03
      0.195000          0.250351E-03
      0.200000          0.245932E-03
      0.205000          0.243693E-03
      0.210000          0.243455E-03
      0.215000          0.245075E-03
      0.220000          0.248407E-03
      0.225000          0.253264E-03
      0.230000          0.259413E-03
      0.235000          0.266559E-03
      0.240000          0.274358E-03
      0.245000          0.282420E-03
      0.250000          0.290333E-03
      0.255000          0.297684E-03
      0.260000          0.304074E-03
      0.265000          0.309147E-03
      0.270000          0.312602E-03
      0.275000          0.314210E-03
      0.280000          0.313826E-03
      0.285000          0.311385E-03
      0.290000          0.306911E-03
      0.295000          0.300505E-03
      0.300000          0.292337E-03
      0.305000          0.282634E-03
      0.310000          0.271666E-03
      0.315000          0.259728E-03
      0.320000          0.247127E-03
      0.325000          0.234165E-03
      0.330000          0.221130E-03
      0.335000          0.208280E-03
      0.340000          0.195840E-03
      0.345000          0.183996E-03
      0.350000          0.172889E-03
      0.355000          0.162622E-03
      0.360000          0.153255E-03
      0.365000          0.144817E-03
      0.370000          0.137303E-03
      0.375000          0.130687E-03
      0.380000          0.124923E-03
      0.385000          0.119953E-03
      0.390000          0.115712E-03
      0.395000          0.112134E-03
      0.400000          0.109151E-03
      0.405000          0.106698E-03
      0.410000          0.104717E-03
      0.415000          0.103151E-03
      0.420000          0.101949E-03
      0.425000          0.101065E-03
      0.430000          0.100454E-03
      0.435000          0.100071E-03
      0.440000          0.998766E-04
      0.445000          0.998268E-04
      0.450000          0.998799E-04
      0.455000          0.999936E-04
      0.460000          0.100126E-03
      0.465000          0.100238E-03
      0.470000          0.100290E-03
      0.475000          0.100250E-03
      0.480000          0.100088E-03
      0.485000          0.997825E-04
      0.490000          0.993189E-04
      0.495000          0.986902E-04
      0.500000          0.978981E-04
