 I_abs(s)[cm^-1]/c[mg/ml]
       0.00000          0.143707E-01
      0.500000E-02      0.143145E-01
      0.100000E-01      0.141474E-01
      0.150000E-01      0.138733E-01
      0.200000E-01      0.134985E-01
      0.250000E-01      0.130316E-01
      0.300000E-01      0.124832E-01
      0.350000E-01      0.118652E-01
      0.400000E-01      0.111908E-01
      0.450000E-01      0.104739E-01
      0.500000E-01      0.972840E-02
      0.550000E-01      0.896822E-02
      0.600000E-01      0.820651E-02
      0.650000E-01      0.745547E-02
      0.700000E-01      0.672601E-02
      0.750000E-01      0.602753E-02
      0.800000E-01      0.536773E-02
      0.850000E-01      0.475259E-02
      0.900000E-01      0.418629E-02
      0.950000E-01      0.367133E-02
      0.100000          0.320862E-02
      0.105000          0.279766E-02
      0.110000          0.243671E-02
      0.115000          0.212307E-02
      0.120000          0.185328E-02
      0.125000          0.162334E-02
      0.130000          0.142898E-02
      0.135000          0.126582E-02
      0.140000          0.112953E-02
      0.145000          0.101603E-02
      0.150000          0.921522E-03
      0.155000          0.842616E-03
      0.160000          0.776348E-03
      0.165000          0.720196E-03
      0.170000          0.672068E-03
      0.175000          0.630272E-03
      0.180000          0.593475E-03
      0.185000          0.560650E-03
      0.190000          0.531026E-03
      0.195000          0.504030E-03
      0.200000          0.479243E-03
      0.205000          0.456357E-03
      0.210000          0.435138E-03
      0.215000          0.415405E-03
      0.220000          0.397005E-03
      0.225000          0.379806E-03
      0.230000          0.363691E-03
      0.235000          0.348551E-03
      0.240000          0.334293E-03
      0.245000          0.320835E-03
      0.250000          0.308112E-03
      0.255000          0.296076E-03
      0.260000          0.284697E-03
      0.265000          0.273959E-03
      0.270000          0.263859E-03
      0.275000          0.254399E-03
      0.280000          0.245588E-03
      0.285000          0.237427E-03
      0.290000          0.229914E-03
      0.295000          0.223032E-03
      0.300000          0.216752E-03
      0.305000          0.211027E-03
      0.310000          0.205798E-03
      0.315000          0.200991E-03
      0.320000          0.196521E-03
      0.325000          0.192300E-03
      0.330000          0.188236E-03
      0.335000          0.184244E-03
      0.340000          0.180246E-03
      0.345000          0.176177E-03
      0.350000          0.171990E-03
      0.355000          0.167651E-03
      0.360000          0.163150E-03
      0.365000          0.158492E-03
      0.370000          0.153699E-03
      0.375000          0.148808E-03
      0.380000          0.143865E-03
      0.385000          0.138925E-03
      0.390000          0.134046E-03
      0.395000          0.129285E-03
      0.400000          0.124696E-03
      0.405000          0.120328E-03
      0.410000          0.116221E-03
      0.415000          0.112406E-03
      0.420000          0.108904E-03
      0.425000          0.105727E-03
      0.430000          0.102876E-03
      0.435000          0.100347E-03
      0.440000          0.981268E-04
      0.445000          0.961977E-04
      0.450000          0.945387E-04
      0.455000          0.931260E-04
      0.460000          0.919349E-04
      0.465000          0.909401E-04
      0.470000          0.901168E-04
      0.475000          0.894408E-04
      0.480000          0.888885E-04
      0.485000          0.884374E-04
      0.490000          0.880654E-04
      0.495000          0.877510E-04
      0.500000          0.874730E-04
