 I_abs(s)[cm^-1]/c[mg/ml]
       0.00000          0.148957E-01
      0.500000E-02      0.148345E-01
      0.100000E-01      0.146523E-01
      0.150000E-01      0.143535E-01
      0.200000E-01      0.139451E-01
      0.250000E-01      0.134367E-01
      0.300000E-01      0.128398E-01
      0.350000E-01      0.121679E-01
      0.400000E-01      0.114355E-01
      0.450000E-01      0.106578E-01
      0.500000E-01      0.985045E-02
      0.550000E-01      0.902874E-02
      0.600000E-01      0.820726E-02
      0.650000E-01      0.739950E-02
      0.700000E-01      0.661750E-02
      0.750000E-01      0.587159E-02
      0.800000E-01      0.517023E-02
      0.850000E-01      0.451988E-02
      0.900000E-01      0.392502E-02
      0.950000E-01      0.338820E-02
      0.100000          0.291019E-02
      0.105000          0.249013E-02
      0.110000          0.212581E-02
      0.115000          0.181391E-02
      0.120000          0.155026E-02
      0.125000          0.133010E-02
      0.130000          0.114838E-02
      0.135000          0.999959E-03
      0.140000          0.879827E-03
      0.145000          0.783249E-03
      0.150000          0.705906E-03
      0.155000          0.643975E-03
      0.160000          0.594170E-03
      0.165000          0.553761E-03
      0.170000          0.520545E-03
      0.175000          0.492811E-03
      0.180000          0.469276E-03
      0.185000          0.449017E-03
      0.190000          0.431394E-03
      0.195000          0.415976E-03
      0.200000          0.402478E-03
      0.205000          0.390696E-03
      0.210000          0.380466E-03
      0.215000          0.371625E-03
      0.220000          0.363988E-03
      0.225000          0.357343E-03
      0.230000          0.351440E-03
      0.235000          0.346008E-03
      0.240000          0.340761E-03
      0.245000          0.335417E-03
      0.250000          0.329710E-03
      0.255000          0.323413E-03
      0.260000          0.316346E-03
      0.265000          0.308387E-03
      0.270000          0.299477E-03
      0.275000          0.289626E-03
      0.280000          0.278902E-03
      0.285000          0.267431E-03
      0.290000          0.255385E-03
      0.295000          0.242969E-03
      0.300000          0.230408E-03
      0.305000          0.217937E-03
      0.310000          0.205785E-03
      0.315000          0.194163E-03
      0.320000          0.183258E-03
      0.325000          0.173223E-03
      0.330000          0.164172E-03
      0.335000          0.156178E-03
      0.340000          0.149273E-03
      0.345000          0.143452E-03
      0.350000          0.138671E-03
      0.355000          0.134857E-03
      0.360000          0.131911E-03
      0.365000          0.129718E-03
      0.370000          0.128148E-03
      0.375000          0.127067E-03
      0.380000          0.126344E-03
      0.385000          0.125851E-03
      0.390000          0.125471E-03
      0.395000          0.125105E-03
      0.400000          0.124666E-03
      0.405000          0.124089E-03
      0.410000          0.123329E-03
      0.415000          0.122357E-03
      0.420000          0.121165E-03
      0.425000          0.119760E-03
      0.430000          0.118164E-03
      0.435000          0.116408E-03
      0.440000          0.114532E-03
      0.445000          0.112584E-03
      0.450000          0.110609E-03
      0.455000          0.108655E-03
      0.460000          0.106763E-03
      0.465000          0.104972E-03
      0.470000          0.103309E-03
      0.475000          0.101797E-03
      0.480000          0.100446E-03
      0.485000          0.992595E-04
      0.490000          0.982322E-04
      0.495000          0.973511E-04
      0.500000          0.965976E-04
