 I_abs(s)[cm^-1]/c[mg/ml]
       0.00000          0.144338E-01
      0.500000E-02      0.143513E-01
      0.100000E-01      0.141073E-01
      0.150000E-01      0.137115E-01
      0.200000E-01      0.131794E-01
      0.250000E-01      0.125315E-01
      0.300000E-01      0.117914E-01
      0.350000E-01      0.109849E-01
      0.400000E-01      0.101379E-01
      0.450000E-01      0.927558E-02
      0.500000E-01      0.842055E-02
      0.550000E-01      0.759226E-02
      0.600000E-01      0.680619E-02
      0.650000E-01      0.607359E-02
      0.700000E-01      0.540151E-02
      0.750000E-01      0.479317E-02
      0.800000E-01      0.424848E-02
      0.850000E-01      0.376477E-02
      0.900000E-01      0.333759E-02
      0.950000E-01      0.296138E-02
      0.100000          0.263023E-02
      0.105000          0.233836E-02
      0.110000          0.208052E-02
      0.115000          0.185222E-02
      0.120000          0.164976E-02
      0.125000          0.147024E-02
      0.130000          0.131137E-02
      0.135000          0.117133E-02
      0.140000          0.104858E-02
      0.145000          0.941666E-03
      0.150000          0.849142E-03
      0.155000          0.769479E-03
      0.160000          0.701059E-03
      0.165000          0.642211E-03
      0.170000          0.591275E-03
      0.175000          0.546681E-03
      0.180000          0.507033E-03
      0.185000          0.471170E-03
      0.190000          0.438209E-03
      0.195000          0.407558E-03
      0.200000          0.378898E-03
      0.205000          0.352138E-03
      0.210000          0.327362E-03
      0.215000          0.304759E-03
      0.220000          0.284553E-03
      0.225000          0.266949E-03
      0.230000          0.252087E-03
      0.235000          0.240007E-03
      0.240000          0.230641E-03
      0.245000          0.223815E-03
      0.250000          0.219263E-03
      0.255000          0.216651E-03
      0.260000          0.215604E-03
      0.265000          0.215734E-03
      0.270000          0.216663E-03
      0.275000          0.218045E-03
      0.280000          0.219580E-03
      0.285000          0.221022E-03
      0.290000          0.222181E-03
      0.295000          0.222920E-03
      0.300000          0.223151E-03
      0.305000          0.222829E-03
      0.310000          0.221941E-03
      0.315000          0.220496E-03
      0.320000          0.218522E-03
      0.325000          0.216058E-03
      0.330000          0.213146E-03
      0.335000          0.209829E-03
      0.340000          0.206154E-03
      0.345000          0.202160E-03
      0.350000          0.197891E-03
      0.355000          0.193388E-03
      0.360000          0.188691E-03
      0.365000          0.183843E-03
      0.370000          0.178890E-03
      0.375000          0.173877E-03
      0.380000          0.168851E-03
      0.385000          0.163858E-03
      0.390000          0.158944E-03
      0.395000          0.154148E-03
      0.400000          0.149508E-03
      0.405000          0.145054E-03
      0.410000          0.140810E-03
      0.415000          0.136795E-03
      0.420000          0.133023E-03
      0.425000          0.129506E-03
      0.430000          0.126250E-03
      0.435000          0.123263E-03
      0.440000          0.120547E-03
      0.445000          0.118105E-03
      0.450000          0.115934E-03
      0.455000          0.114024E-03
      0.460000          0.112356E-03
      0.465000          0.110902E-03
      0.470000          0.109621E-03
      0.475000          0.108461E-03
      0.480000          0.107360E-03
      0.485000          0.106250E-03
      0.490000          0.105064E-03
      0.495000          0.103738E-03
      0.500000          0.102219E-03
