 I_abs(s)[cm^-1]/c[mg/ml]
       0.00000          0.143155E-01
      0.500000E-02      0.142619E-01
      0.100000E-01      0.141025E-01
      0.150000E-01      0.138409E-01
      0.200000E-01      0.134834E-01
      0.250000E-01      0.130381E-01
      0.300000E-01      0.125151E-01
      0.350000E-01      0.119259E-01
      0.400000E-01      0.112831E-01
      0.450000E-01      0.105998E-01
      0.500000E-01      0.988918E-02
      0.550000E-01      0.916426E-02
      0.600000E-01      0.843738E-02
      0.650000E-01      0.771986E-02
      0.700000E-01      0.702175E-02
      0.750000E-01      0.635161E-02
      0.800000E-01      0.571641E-02
      0.850000E-01      0.512144E-02
      0.900000E-01      0.457035E-02
      0.950000E-01      0.406524E-02
      0.100000          0.360675E-02
      0.105000          0.319432E-02
      0.110000          0.282629E-02
      0.115000          0.250022E-02
      0.120000          0.221305E-02
      0.125000          0.196135E-02
      0.130000          0.174151E-02
      0.135000          0.154989E-02
      0.140000          0.138301E-02
      0.145000          0.123759E-02
      0.150000          0.111069E-02
      0.155000          0.999708E-03
      0.160000          0.902395E-03
      0.165000          0.816865E-03
      0.170000          0.741552E-03
      0.175000          0.675167E-03
      0.180000          0.616654E-03
      0.185000          0.565137E-03
      0.190000          0.519872E-03
      0.195000          0.480207E-03
      0.200000          0.445549E-03
      0.205000          0.415337E-03
      0.210000          0.389028E-03
      0.215000          0.366093E-03
      0.220000          0.346016E-03
      0.225000          0.328302E-03
      0.230000          0.312484E-03
      0.235000          0.298139E-03
      0.240000          0.284894E-03
      0.245000          0.272438E-03
      0.250000          0.260527E-03
      0.255000          0.248985E-03
      0.260000          0.237706E-03
      0.265000          0.226644E-03
      0.270000          0.215807E-03
      0.275000          0.205248E-03
      0.280000          0.195048E-03
      0.285000          0.185309E-03
      0.290000          0.176138E-03
      0.295000          0.167637E-03
      0.300000          0.159894E-03
      0.305000          0.152978E-03
      0.310000          0.146928E-03
      0.315000          0.141761E-03
      0.320000          0.137463E-03
      0.325000          0.133995E-03
      0.330000          0.131295E-03
      0.335000          0.129285E-03
      0.340000          0.127870E-03
      0.345000          0.126949E-03
      0.350000          0.126417E-03
      0.355000          0.126169E-03
      0.360000          0.126103E-03
      0.365000          0.126125E-03
      0.370000          0.126150E-03
      0.375000          0.126102E-03
      0.380000          0.125918E-03
      0.385000          0.125545E-03
      0.390000          0.124942E-03
      0.395000          0.124081E-03
      0.400000          0.122943E-03
      0.405000          0.121521E-03
      0.410000          0.119818E-03
      0.415000          0.117847E-03
      0.420000          0.115630E-03
      0.425000          0.113197E-03
      0.430000          0.110585E-03
      0.435000          0.107840E-03
      0.440000          0.105009E-03
      0.445000          0.102145E-03
      0.450000          0.993022E-04
      0.455000          0.965338E-04
      0.460000          0.938909E-04
      0.465000          0.914202E-04
      0.470000          0.891620E-04
      0.475000          0.871484E-04
      0.480000          0.854022E-04
      0.485000          0.839356E-04
      0.490000          0.827500E-04
      0.495000          0.818358E-04
      0.500000          0.811728E-04
