 I_abs(s)[cm^-1]/c[mg/ml]
       0.00000          0.148556E-01
      0.500000E-02      0.148010E-01
      0.100000E-01      0.146387E-01
      0.150000E-01      0.143724E-01
      0.200000E-01      0.140082E-01
      0.250000E-01      0.135544E-01
      0.300000E-01      0.130210E-01
      0.350000E-01      0.124194E-01
      0.400000E-01      0.117623E-01
      0.450000E-01      0.110628E-01
      0.500000E-01      0.103341E-01
      0.550000E-01      0.958941E-02
      0.600000E-01      0.884108E-02
      0.650000E-01      0.810058E-02
      0.700000E-01      0.737810E-02
      0.750000E-01      0.668240E-02
      0.800000E-01      0.602065E-02
      0.850000E-01      0.539838E-02
      0.900000E-01      0.481950E-02
      0.950000E-01      0.428636E-02
      0.100000          0.379991E-02
      0.105000          0.335985E-02
      0.110000          0.296481E-02
      0.115000          0.261261E-02
      0.120000          0.230046E-02
      0.125000          0.202515E-02
      0.130000          0.178327E-02
      0.135000          0.157135E-02
      0.140000          0.138605E-02
      0.145000          0.122418E-02
      0.150000          0.108284E-02
      0.155000          0.959457E-03
      0.160000          0.851756E-03
      0.165000          0.757790E-03
      0.170000          0.675901E-03
      0.175000          0.604685E-03
      0.180000          0.542947E-03
      0.185000          0.489662E-03
      0.190000          0.443926E-03
      0.195000          0.404929E-03
      0.200000          0.371922E-03
      0.205000          0.344199E-03
      0.210000          0.321087E-03
      0.215000          0.301941E-03
      0.220000          0.286151E-03
      0.225000          0.273143E-03
      0.230000          0.262389E-03
      0.235000          0.253420E-03
      0.240000          0.245827E-03
      0.245000          0.239272E-03
      0.250000          0.233483E-03
      0.255000          0.228258E-03
      0.260000          0.223454E-03
      0.265000          0.218983E-03
      0.270000          0.214797E-03
      0.275000          0.210877E-03
      0.280000          0.207222E-03
      0.285000          0.203839E-03
      0.290000          0.200729E-03
      0.295000          0.197885E-03
      0.300000          0.195284E-03
      0.305000          0.192886E-03
      0.310000          0.190637E-03
      0.315000          0.188468E-03
      0.320000          0.186302E-03
      0.325000          0.184062E-03
      0.330000          0.181672E-03
      0.335000          0.179065E-03
      0.340000          0.176187E-03
      0.345000          0.173004E-03
      0.350000          0.169500E-03
      0.355000          0.165678E-03
      0.360000          0.161561E-03
      0.365000          0.157189E-03
      0.370000          0.152614E-03
      0.375000          0.147897E-03
      0.380000          0.143105E-03
      0.385000          0.138306E-03
      0.390000          0.133562E-03
      0.395000          0.128933E-03
      0.400000          0.124465E-03
      0.405000          0.120198E-03
      0.410000          0.116160E-03
      0.415000          0.112366E-03
      0.420000          0.108826E-03
      0.425000          0.105538E-03
      0.430000          0.102495E-03
      0.435000          0.996856E-04
      0.440000          0.970948E-04
      0.445000          0.947067E-04
      0.450000          0.925052E-04
      0.455000          0.904748E-04
      0.460000          0.886015E-04
      0.465000          0.868722E-04
      0.470000          0.852754E-04
      0.475000          0.838004E-04
      0.480000          0.824369E-04
      0.485000          0.811746E-04
      0.490000          0.800033E-04
      0.495000          0.789118E-04
      0.500000          0.778889E-04
