 I_abs(s)[cm^-1]/c[mg/ml]
       0.00000          0.143470E-01
      0.500000E-02      0.142800E-01
      0.100000E-01      0.140812E-01
      0.150000E-01      0.137565E-01
      0.200000E-01      0.133159E-01
      0.250000E-01      0.127721E-01
      0.300000E-01      0.121410E-01
      0.350000E-01      0.114400E-01
      0.400000E-01      0.106877E-01
      0.450000E-01      0.990296E-02
      0.500000E-01      0.910425E-02
      0.550000E-01      0.830874E-02
      0.600000E-01      0.753178E-02
      0.650000E-01      0.678650E-02
      0.700000E-01      0.608343E-02
      0.750000E-01      0.543034E-02
      0.800000E-01      0.483232E-02
      0.850000E-01      0.429182E-02
      0.900000E-01      0.380899E-02
      0.950000E-01      0.338200E-02
      0.100000          0.300745E-02
      0.105000          0.268082E-02
      0.110000          0.239687E-02
      0.115000          0.215010E-02
      0.120000          0.193504E-02
      0.125000          0.174659E-02
      0.130000          0.158020E-02
      0.135000          0.143198E-02
      0.140000          0.129879E-02
      0.145000          0.117823E-02
      0.150000          0.106854E-02
      0.155000          0.968549E-03
      0.160000          0.877506E-03
      0.165000          0.794978E-03
      0.170000          0.720706E-03
      0.175000          0.654501E-03
      0.180000          0.596150E-03
      0.185000          0.545352E-03
      0.190000          0.501682E-03
      0.195000          0.464582E-03
      0.200000          0.433372E-03
      0.205000          0.407279E-03
      0.210000          0.385474E-03
      0.215000          0.367122E-03
      0.220000          0.351422E-03
      0.225000          0.337647E-03
      0.230000          0.325176E-03
      0.235000          0.313511E-03
      0.240000          0.302289E-03
      0.245000          0.291278E-03
      0.250000          0.280364E-03
      0.255000          0.269534E-03
      0.260000          0.258851E-03
      0.265000          0.248428E-03
      0.270000          0.238403E-03
      0.275000          0.228914E-03
      0.280000          0.220079E-03
      0.285000          0.211985E-03
      0.290000          0.204675E-03
      0.295000          0.198149E-03
      0.300000          0.192362E-03
      0.305000          0.187234E-03
      0.310000          0.182656E-03
      0.315000          0.178505E-03
      0.320000          0.174653E-03
      0.325000          0.170982E-03
      0.330000          0.167390E-03
      0.335000          0.163802E-03
      0.340000          0.160172E-03
      0.345000          0.156487E-03
      0.350000          0.152766E-03
      0.355000          0.149052E-03
      0.360000          0.145411E-03
      0.365000          0.141919E-03
      0.370000          0.138656E-03
      0.375000          0.135695E-03
      0.380000          0.133097E-03
      0.385000          0.130901E-03
      0.390000          0.129118E-03
      0.395000          0.127735E-03
      0.400000          0.126709E-03
      0.405000          0.125972E-03
      0.410000          0.125434E-03
      0.415000          0.124992E-03
      0.420000          0.124536E-03
      0.425000          0.123958E-03
      0.430000          0.123159E-03
      0.435000          0.122055E-03
      0.440000          0.120585E-03
      0.445000          0.118715E-03
      0.450000          0.116435E-03
      0.455000          0.113767E-03
      0.460000          0.110754E-03
      0.465000          0.107460E-03
      0.470000          0.103967E-03
      0.475000          0.100364E-03
      0.480000          0.967444E-04
      0.485000          0.931975E-04
      0.490000          0.898046E-04
      0.495000          0.866343E-04
      0.500000          0.837392E-04
