 I_abs(s)[cm^-1]/c[mg/ml]
       0.00000          0.146320E-01
      0.500000E-02      0.145464E-01
      0.100000E-01      0.142931E-01
      0.150000E-01      0.138821E-01
      0.200000E-01      0.133297E-01
      0.250000E-01      0.126570E-01
      0.300000E-01      0.118888E-01
      0.350000E-01      0.110520E-01
      0.400000E-01      0.101744E-01
      0.450000E-01      0.928249E-02
      0.500000E-01      0.840072E-02
      0.550000E-01      0.755005E-02
      0.600000E-01      0.674731E-02
      0.650000E-01      0.600471E-02
      0.700000E-01      0.532980E-02
      0.750000E-01      0.472573E-02
      0.800000E-01      0.419177E-02
      0.850000E-01      0.372411E-02
      0.900000E-01      0.331668E-02
      0.950000E-01      0.296206E-02
      0.100000          0.265238E-02
      0.105000          0.238002E-02
      0.110000          0.213819E-02
      0.115000          0.192136E-02
      0.120000          0.172537E-02
      0.125000          0.154750E-02
      0.130000          0.138624E-02
      0.135000          0.124106E-02
      0.140000          0.111203E-02
      0.145000          0.999503E-03
      0.150000          0.903724E-03
      0.155000          0.824601E-03
      0.160000          0.761500E-03
      0.165000          0.713173E-03
      0.170000          0.677764E-03
      0.175000          0.652913E-03
      0.180000          0.635924E-03
      0.185000          0.623968E-03
      0.190000          0.614299E-03
      0.195000          0.604464E-03
      0.200000          0.592462E-03
      0.205000          0.576867E-03
      0.210000          0.556876E-03
      0.215000          0.532308E-03
      0.220000          0.503539E-03
      0.225000          0.471396E-03
      0.230000          0.437021E-03
      0.235000          0.401722E-03
      0.240000          0.366825E-03
      0.245000          0.333544E-03
      0.250000          0.302879E-03
      0.255000          0.275551E-03
      0.260000          0.251966E-03
      0.265000          0.232223E-03
      0.270000          0.216149E-03
      0.275000          0.203352E-03
      0.280000          0.193294E-03
      0.285000          0.185368E-03
      0.290000          0.178965E-03
      0.295000          0.173537E-03
      0.300000          0.168640E-03
      0.305000          0.163959E-03
      0.310000          0.159316E-03
      0.315000          0.154662E-03
      0.320000          0.150049E-03
      0.325000          0.145606E-03
      0.330000          0.141497E-03
      0.335000          0.137890E-03
      0.340000          0.134925E-03
      0.345000          0.132693E-03
      0.350000          0.131223E-03
      0.355000          0.130476E-03
      0.360000          0.130357E-03
      0.365000          0.130719E-03
      0.370000          0.131387E-03
      0.375000          0.132175E-03
      0.380000          0.132907E-03
      0.385000          0.133429E-03
      0.390000          0.133626E-03
      0.395000          0.133426E-03
      0.400000          0.132800E-03
      0.405000          0.131761E-03
      0.410000          0.130351E-03
      0.415000          0.128637E-03
      0.420000          0.126695E-03
      0.425000          0.124600E-03
      0.430000          0.122420E-03
      0.435000          0.120206E-03
      0.440000          0.117992E-03
      0.445000          0.115791E-03
      0.450000          0.113605E-03
      0.455000          0.111424E-03
      0.460000          0.109234E-03
      0.465000          0.107022E-03
      0.470000          0.104782E-03
      0.475000          0.102519E-03
      0.480000          0.100247E-03
      0.485000          0.979909E-04
      0.490000          0.957854E-04
      0.495000          0.936680E-04
      0.500000          0.916761E-04
