 I_abs(s)[cm^-1]/c[mg/ml]
       0.00000          0.147196E-01
      0.500000E-02      0.146591E-01
      0.100000E-01      0.144792E-01
      0.150000E-01      0.141845E-01
      0.200000E-01      0.137825E-01
      0.250000E-01      0.132833E-01
      0.300000E-01      0.126990E-01
      0.350000E-01      0.120436E-01
      0.400000E-01      0.113319E-01
      0.450000E-01      0.105794E-01
      0.500000E-01      0.980141E-02
      0.550000E-01      0.901290E-02
      0.600000E-01      0.822771E-02
      0.650000E-01      0.745833E-02
      0.700000E-01      0.671559E-02
      0.750000E-01      0.600850E-02
      0.800000E-01      0.534412E-02
      0.850000E-01      0.472760E-02
      0.900000E-01      0.416226E-02
      0.950000E-01      0.364969E-02
      0.100000          0.319003E-02
      0.105000          0.278211E-02
      0.110000          0.242375E-02
      0.115000          0.211200E-02
      0.120000          0.184333E-02
      0.125000          0.161388E-02
      0.130000          0.141960E-02
      0.135000          0.125642E-02
      0.140000          0.112038E-02
      0.145000          0.100768E-02
      0.150000          0.914761E-03
      0.155000          0.838346E-03
      0.160000          0.775464E-03
      0.165000          0.723453E-03
      0.170000          0.679971E-03
      0.175000          0.642986E-03
      0.180000          0.610773E-03
      0.185000          0.581901E-03
      0.190000          0.555220E-03
      0.195000          0.529846E-03
      0.200000          0.505140E-03
      0.205000          0.480685E-03
      0.210000          0.456258E-03
      0.215000          0.431799E-03
      0.220000          0.407379E-03
      0.225000          0.383165E-03
      0.230000          0.359386E-03
      0.235000          0.336300E-03
      0.240000          0.314167E-03
      0.245000          0.293223E-03
      0.250000          0.273666E-03
      0.255000          0.255639E-03
      0.260000          0.239233E-03
      0.265000          0.224478E-03
      0.270000          0.211356E-03
      0.275000          0.199808E-03
      0.280000          0.189745E-03
      0.285000          0.181058E-03
      0.290000          0.173630E-03
      0.295000          0.167348E-03
      0.300000          0.162103E-03
      0.305000          0.157799E-03
      0.310000          0.154352E-03
      0.315000          0.151684E-03
      0.320000          0.149728E-03
      0.325000          0.148415E-03
      0.330000          0.147674E-03
      0.335000          0.147426E-03
      0.340000          0.147584E-03
      0.345000          0.148048E-03
      0.350000          0.148711E-03
      0.355000          0.149458E-03
      0.360000          0.150173E-03
      0.365000          0.150745E-03
      0.370000          0.151069E-03
      0.375000          0.151060E-03
      0.380000          0.150651E-03
      0.385000          0.149800E-03
      0.390000          0.148489E-03
      0.395000          0.146729E-03
      0.400000          0.144553E-03
      0.405000          0.142015E-03
      0.410000          0.139184E-03
      0.415000          0.136141E-03
      0.420000          0.132970E-03
      0.425000          0.129752E-03
      0.430000          0.126564E-03
      0.435000          0.123471E-03
      0.440000          0.120522E-03
      0.445000          0.117753E-03
      0.450000          0.115182E-03
      0.455000          0.112814E-03
      0.460000          0.110641E-03
      0.465000          0.108642E-03
      0.470000          0.106793E-03
      0.475000          0.105065E-03
      0.480000          0.103428E-03
      0.485000          0.101855E-03
      0.490000          0.100323E-03
      0.495000          0.988168E-04
      0.500000          0.973258E-04
