 I_abs(s)[cm^-1]/c[mg/ml]
       0.00000          0.142213E-01
      0.500000E-02      0.141343E-01
      0.100000E-01      0.138770E-01
      0.150000E-01      0.134603E-01
      0.200000E-01      0.129013E-01
      0.250000E-01      0.122225E-01
      0.300000E-01      0.114501E-01
      0.350000E-01      0.106125E-01
      0.400000E-01      0.973832E-02
      0.450000E-01      0.885504E-02
      0.500000E-01      0.798742E-02
      0.550000E-01      0.715637E-02
      0.600000E-01      0.637822E-02
      0.650000E-01      0.566434E-02
      0.700000E-01      0.502117E-02
      0.750000E-01      0.445064E-02
      0.800000E-01      0.395080E-02
      0.850000E-01      0.351669E-02
      0.900000E-01      0.314135E-02
      0.950000E-01      0.281669E-02
      0.100000          0.253444E-02
      0.105000          0.228682E-02
      0.110000          0.206709E-02
      0.115000          0.186981E-02
      0.120000          0.169102E-02
      0.125000          0.152807E-02
      0.130000          0.137945E-02
      0.135000          0.124450E-02
      0.140000          0.112302E-02
      0.145000          0.101498E-02
      0.150000          0.920248E-03
      0.155000          0.838379E-03
      0.160000          0.768543E-03
      0.165000          0.709500E-03
      0.170000          0.659672E-03
      0.175000          0.617272E-03
      0.180000          0.580453E-03
      0.185000          0.547471E-03
      0.190000          0.516822E-03
      0.195000          0.487342E-03
      0.200000          0.458264E-03
      0.205000          0.429219E-03
      0.210000          0.400195E-03
      0.215000          0.371463E-03
      0.220000          0.343476E-03
      0.225000          0.316764E-03
      0.230000          0.291842E-03
      0.235000          0.269126E-03
      0.240000          0.248883E-03
      0.245000          0.231208E-03
      0.250000          0.216031E-03
      0.255000          0.203140E-03
      0.260000          0.192230E-03
      0.265000          0.182950E-03
      0.270000          0.174955E-03
      0.275000          0.167945E-03
      0.280000          0.161699E-03
      0.285000          0.156082E-03
      0.290000          0.151050E-03
      0.295000          0.146629E-03
      0.300000          0.142896E-03
      0.305000          0.139948E-03
      0.310000          0.137873E-03
      0.315000          0.136728E-03
      0.320000          0.136518E-03
      0.325000          0.137193E-03
      0.330000          0.138643E-03
      0.335000          0.140711E-03
      0.340000          0.143202E-03
      0.345000          0.145907E-03
      0.350000          0.148614E-03
      0.355000          0.151131E-03
      0.360000          0.153295E-03
      0.365000          0.154982E-03
      0.370000          0.156107E-03
      0.375000          0.156631E-03
      0.380000          0.156549E-03
      0.385000          0.155885E-03
      0.390000          0.154690E-03
      0.395000          0.153026E-03
      0.400000          0.150966E-03
      0.405000          0.148585E-03
      0.410000          0.145958E-03
      0.415000          0.143158E-03
      0.420000          0.140253E-03
      0.425000          0.137305E-03
      0.430000          0.134370E-03
      0.435000          0.131496E-03
      0.440000          0.128722E-03
      0.445000          0.126077E-03
      0.450000          0.123577E-03
      0.455000          0.121227E-03
      0.460000          0.119019E-03
      0.465000          0.116932E-03
      0.470000          0.114940E-03
      0.475000          0.113008E-03
      0.480000          0.111103E-03
      0.485000          0.109195E-03
      0.490000          0.107262E-03
      0.495000          0.105295E-03
      0.500000          0.103296E-03
