 I_abs(s)[cm^-1]/c[mg/ml]
       0.00000          0.144338E-01
      0.500000E-02      0.143508E-01
      0.100000E-01      0.141051E-01
      0.150000E-01      0.137066E-01
      0.200000E-01      0.131712E-01
      0.250000E-01      0.125195E-01
      0.300000E-01      0.117755E-01
      0.350000E-01      0.109654E-01
      0.400000E-01      0.101157E-01
      0.450000E-01      0.925170E-02
      0.500000E-01      0.839659E-02
      0.550000E-01      0.757004E-02
      0.600000E-01      0.678773E-02
      0.650000E-01      0.606095E-02
      0.700000E-01      0.539670E-02
      0.750000E-01      0.479793E-02
      0.800000E-01      0.426420E-02
      0.850000E-01      0.379235E-02
      0.900000E-01      0.337735E-02
      0.950000E-01      0.301306E-02
      0.100000          0.269297E-02
      0.105000          0.241076E-02
      0.110000          0.216078E-02
      0.115000          0.193825E-02
      0.120000          0.173938E-02
      0.125000          0.156132E-02
      0.130000          0.140204E-02
      0.135000          0.126009E-02
      0.140000          0.113440E-02
      0.145000          0.102407E-02
      0.150000          0.928196E-03
      0.155000          0.845747E-03
      0.160000          0.775518E-03
      0.165000          0.716121E-03
      0.170000          0.666037E-03
      0.175000          0.623680E-03
      0.180000          0.587490E-03
      0.185000          0.556014E-03
      0.190000          0.527979E-03
      0.195000          0.502336E-03
      0.200000          0.478288E-03
      0.205000          0.455283E-03
      0.210000          0.432992E-03
      0.215000          0.411272E-03
      0.220000          0.390116E-03
      0.225000          0.369612E-03
      0.230000          0.349895E-03
      0.235000          0.331113E-03
      0.240000          0.313405E-03
      0.245000          0.296879E-03
      0.250000          0.281610E-03
      0.255000          0.267638E-03
      0.260000          0.254969E-03
      0.265000          0.243584E-03
      0.270000          0.233441E-03
      0.275000          0.224481E-03
      0.280000          0.216631E-03
      0.285000          0.209805E-03
      0.290000          0.203904E-03
      0.295000          0.198821E-03
      0.300000          0.194440E-03
      0.305000          0.190637E-03
      0.310000          0.187288E-03
      0.315000          0.184269E-03
      0.320000          0.181463E-03
      0.325000          0.178763E-03
      0.330000          0.176080E-03
      0.335000          0.173340E-03
      0.340000          0.170490E-03
      0.345000          0.167498E-03
      0.350000          0.164349E-03
      0.355000          0.161047E-03
      0.360000          0.157611E-03
      0.365000          0.154068E-03
      0.370000          0.150457E-03
      0.375000          0.146817E-03
      0.380000          0.143189E-03
      0.385000          0.139615E-03
      0.390000          0.136129E-03
      0.395000          0.132760E-03
      0.400000          0.129531E-03
      0.405000          0.126456E-03
      0.410000          0.123541E-03
      0.415000          0.120787E-03
      0.420000          0.118187E-03
      0.425000          0.115729E-03
      0.430000          0.113399E-03
      0.435000          0.111184E-03
      0.440000          0.109070E-03
      0.445000          0.107046E-03
      0.450000          0.105104E-03
      0.455000          0.103242E-03
      0.460000          0.101459E-03
      0.465000          0.997576E-04
      0.470000          0.981405E-04
      0.475000          0.966109E-04
      0.480000          0.951696E-04
      0.485000          0.938142E-04
      0.490000          0.925382E-04
      0.495000          0.913308E-04
      0.500000          0.901776E-04
