 I_abs(s)[cm^-1]/c[mg/ml]
       0.00000          0.144971E-01
      0.500000E-02      0.144295E-01
      0.100000E-01      0.142288E-01
      0.150000E-01      0.139003E-01
      0.200000E-01      0.134530E-01
      0.250000E-01      0.128987E-01
      0.300000E-01      0.122520E-01
      0.350000E-01      0.115291E-01
      0.400000E-01      0.107478E-01
      0.450000E-01      0.992627E-02
      0.500000E-01      0.908278E-02
      0.550000E-01      0.823483E-02
      0.600000E-01      0.739866E-02
      0.650000E-01      0.658874E-02
      0.700000E-01      0.581744E-02
      0.750000E-01      0.509476E-02
      0.800000E-01      0.442821E-02
      0.850000E-01      0.382278E-02
      0.900000E-01      0.328110E-02
      0.950000E-01      0.280356E-02
      0.100000          0.238866E-02
      0.105000          0.203330E-02
      0.110000          0.173311E-02
      0.115000          0.148288E-02
      0.120000          0.127686E-02
      0.125000          0.110909E-02
      0.130000          0.973717E-03
      0.135000          0.865190E-03
      0.140000          0.778440E-03
      0.145000          0.709004E-03
      0.150000          0.653076E-03
      0.155000          0.607526E-03
      0.160000          0.569868E-03
      0.165000          0.538201E-03
      0.170000          0.511127E-03
      0.175000          0.487663E-03
      0.180000          0.467141E-03
      0.185000          0.449118E-03
      0.190000          0.433301E-03
      0.195000          0.419475E-03
      0.200000          0.407455E-03
      0.205000          0.397052E-03
      0.210000          0.388055E-03
      0.215000          0.380222E-03
      0.220000          0.373289E-03
      0.225000          0.366976E-03
      0.230000          0.361005E-03
      0.235000          0.355119E-03
      0.240000          0.349089E-03
      0.245000          0.342735E-03
      0.250000          0.335928E-03
      0.255000          0.328596E-03
      0.260000          0.320721E-03
      0.265000          0.312337E-03
      0.270000          0.303518E-03
      0.275000          0.294371E-03
      0.280000          0.285024E-03
      0.285000          0.275614E-03
      0.290000          0.266278E-03
      0.295000          0.257142E-03
      0.300000          0.248317E-03
      0.305000          0.239892E-03
      0.310000          0.231932E-03
      0.315000          0.224477E-03
      0.320000          0.217545E-03
      0.325000          0.211129E-03
      0.330000          0.205208E-03
      0.335000          0.199744E-03
      0.340000          0.194689E-03
      0.345000          0.189991E-03
      0.350000          0.185591E-03
      0.355000          0.181435E-03
      0.360000          0.177472E-03
      0.365000          0.173655E-03
      0.370000          0.169946E-03
      0.375000          0.166313E-03
      0.380000          0.162736E-03
      0.385000          0.159202E-03
      0.390000          0.155704E-03
      0.395000          0.152247E-03
      0.400000          0.148837E-03
      0.405000          0.145487E-03
      0.410000          0.142214E-03
      0.415000          0.139033E-03
      0.420000          0.135961E-03
      0.425000          0.133012E-03
      0.430000          0.130199E-03
      0.435000          0.127528E-03
      0.440000          0.125002E-03
      0.445000          0.122619E-03
      0.450000          0.120371E-03
      0.455000          0.118247E-03
      0.460000          0.116232E-03
      0.465000          0.114308E-03
      0.470000          0.112455E-03
      0.475000          0.110654E-03
      0.480000          0.108888E-03
      0.485000          0.107140E-03
      0.490000          0.105399E-03
      0.495000          0.103657E-03
      0.500000          0.101910E-03
