 I_abs(s)[cm^-1]/c[mg/ml]
       0.00000          0.148075E-01
      0.500000E-02      0.147389E-01
      0.100000E-01      0.145350E-01
      0.150000E-01      0.142019E-01
      0.200000E-01      0.137494E-01
      0.250000E-01      0.131906E-01
      0.300000E-01      0.125410E-01
      0.350000E-01      0.118182E-01
      0.400000E-01      0.110407E-01
      0.450000E-01      0.102274E-01
      0.500000E-01      0.939678E-02
      0.550000E-01      0.856593E-02
      0.600000E-01      0.775037E-02
      0.650000E-01      0.696339E-02
      0.700000E-01      0.621586E-02
      0.750000E-01      0.551602E-02
      0.800000E-01      0.486960E-02
      0.850000E-01      0.427987E-02
      0.900000E-01      0.374796E-02
      0.950000E-01      0.327314E-02
      0.100000          0.285318E-02
      0.105000          0.248477E-02
      0.110000          0.216385E-02
      0.115000          0.188596E-02
      0.120000          0.164652E-02
      0.125000          0.144104E-02
      0.130000          0.126531E-02
      0.135000          0.111547E-02
      0.140000          0.988117E-03
      0.145000          0.880238E-03
      0.150000          0.789242E-03
      0.155000          0.712896E-03
      0.160000          0.649269E-03
      0.165000          0.596677E-03
      0.170000          0.553630E-03
      0.175000          0.518793E-03
      0.180000          0.490944E-03
      0.185000          0.468964E-03
      0.190000          0.451814E-03
      0.195000          0.438538E-03
      0.200000          0.428257E-03
      0.205000          0.420173E-03
      0.210000          0.413571E-03
      0.215000          0.407820E-03
      0.220000          0.402374E-03
      0.225000          0.396768E-03
      0.230000          0.390622E-03
      0.235000          0.383632E-03
      0.240000          0.375571E-03
      0.245000          0.366287E-03
      0.250000          0.355702E-03
      0.255000          0.343811E-03
      0.260000          0.330677E-03
      0.265000          0.316431E-03
      0.270000          0.301269E-03
      0.275000          0.285435E-03
      0.280000          0.269221E-03
      0.285000          0.252942E-03
      0.290000          0.236929E-03
      0.295000          0.221500E-03
      0.300000          0.206952E-03
      0.305000          0.193537E-03
      0.310000          0.181447E-03
      0.315000          0.170808E-03
      0.320000          0.161670E-03
      0.325000          0.154008E-03
      0.330000          0.147731E-03
      0.335000          0.142687E-03
      0.340000          0.138682E-03
      0.345000          0.135497E-03
      0.350000          0.132905E-03
      0.355000          0.130690E-03
      0.360000          0.128664E-03
      0.365000          0.126676E-03
      0.370000          0.124624E-03
      0.375000          0.122456E-03
      0.380000          0.120165E-03
      0.385000          0.117790E-03
      0.390000          0.115401E-03
      0.395000          0.113086E-03
      0.400000          0.110944E-03
      0.405000          0.109067E-03
      0.410000          0.107531E-03
      0.415000          0.106387E-03
      0.420000          0.105657E-03
      0.425000          0.105329E-03
      0.430000          0.105361E-03
      0.435000          0.105685E-03
      0.440000          0.106209E-03
      0.445000          0.106833E-03
      0.450000          0.107450E-03
      0.455000          0.107959E-03
      0.460000          0.108271E-03
      0.465000          0.108313E-03
      0.470000          0.108035E-03
      0.475000          0.107411E-03
      0.480000          0.106436E-03
      0.485000          0.105127E-03
      0.490000          0.103518E-03
      0.495000          0.101654E-03
      0.500000          0.995910E-04
