 I_abs(s)[cm^-1]/c[mg/ml]
       0.00000          0.142213E-01
      0.500000E-02      0.141416E-01
      0.100000E-01      0.139058E-01
      0.150000E-01      0.135225E-01
      0.200000E-01      0.130059E-01
      0.250000E-01      0.123745E-01
      0.300000E-01      0.116503E-01
      0.350000E-01      0.108571E-01
      0.400000E-01      0.100198E-01
      0.450000E-01      0.916256E-02
      0.500000E-01      0.830792E-02
      0.550000E-01      0.747578E-02
      0.600000E-01      0.668263E-02
      0.650000E-01      0.594117E-02
      0.700000E-01      0.526013E-02
      0.750000E-01      0.464438E-02
      0.800000E-01      0.409531E-02
      0.850000E-01      0.361134E-02
      0.900000E-01      0.318859E-02
      0.950000E-01      0.282156E-02
      0.100000          0.250383E-02
      0.105000          0.222869E-02
      0.110000          0.198963E-02
      0.115000          0.178074E-02
      0.120000          0.159696E-02
      0.125000          0.143418E-02
      0.130000          0.128924E-02
      0.135000          0.115983E-02
      0.140000          0.104430E-02
      0.145000          0.941536E-03
      0.150000          0.850684E-03
      0.155000          0.771046E-03
      0.160000          0.701922E-03
      0.165000          0.642532E-03
      0.170000          0.591982E-03
      0.175000          0.549266E-03
      0.180000          0.513308E-03
      0.185000          0.483014E-03
      0.190000          0.457338E-03
      0.195000          0.435336E-03
      0.200000          0.416209E-03
      0.205000          0.399325E-03
      0.210000          0.384223E-03
      0.215000          0.370593E-03
      0.220000          0.358247E-03
      0.225000          0.347079E-03
      0.230000          0.337026E-03
      0.235000          0.328030E-03
      0.240000          0.320012E-03
      0.245000          0.312854E-03
      0.250000          0.306401E-03
      0.255000          0.300461E-03
      0.260000          0.294826E-03
      0.265000          0.289285E-03
      0.270000          0.283649E-03
      0.275000          0.277765E-03
      0.280000          0.271526E-03
      0.285000          0.264875E-03
      0.290000          0.257803E-03
      0.295000          0.250340E-03
      0.300000          0.242542E-03
      0.305000          0.234481E-03
      0.310000          0.226226E-03
      0.315000          0.217839E-03
      0.320000          0.209369E-03
      0.325000          0.200848E-03
      0.330000          0.192301E-03
      0.335000          0.183749E-03
      0.340000          0.175219E-03
      0.345000          0.166756E-03
      0.350000          0.158424E-03
      0.355000          0.150312E-03
      0.360000          0.142534E-03
      0.365000          0.135219E-03
      0.370000          0.128507E-03
      0.375000          0.122531E-03
      0.380000          0.117405E-03
      0.385000          0.113213E-03
      0.390000          0.109997E-03
      0.395000          0.107750E-03
      0.400000          0.106413E-03
      0.405000          0.105881E-03
      0.410000          0.106008E-03
      0.415000          0.106617E-03
      0.420000          0.107517E-03
      0.425000          0.108519E-03
      0.430000          0.109444E-03
      0.435000          0.110141E-03
      0.440000          0.110494E-03
      0.445000          0.110427E-03
      0.450000          0.109904E-03
      0.455000          0.108932E-03
      0.460000          0.107545E-03
      0.465000          0.105809E-03
      0.470000          0.103799E-03
      0.475000          0.101603E-03
      0.480000          0.993030E-04
      0.485000          0.969760E-04
      0.490000          0.946851E-04
      0.495000          0.924795E-04
      0.500000          0.903932E-04
