 I_abs(s)[cm^-1]/c[mg/ml]
       0.00000          0.144971E-01
      0.500000E-02      0.144151E-01
      0.100000E-01      0.141723E-01
      0.150000E-01      0.137775E-01
      0.200000E-01      0.132451E-01
      0.250000E-01      0.125941E-01
      0.300000E-01      0.118465E-01
      0.350000E-01      0.110267E-01
      0.400000E-01      0.101601E-01
      0.450000E-01      0.927128E-02
      0.500000E-01      0.838332E-02
      0.550000E-01      0.751669E-02
      0.600000E-01      0.668850E-02
      0.650000E-01      0.591209E-02
      0.700000E-01      0.519689E-02
      0.750000E-01      0.454848E-02
      0.800000E-01      0.396898E-02
      0.850000E-01      0.345751E-02
      0.900000E-01      0.301085E-02
      0.950000E-01      0.262405E-02
      0.100000          0.229113E-02
      0.105000          0.200563E-02
      0.110000          0.176113E-02
      0.115000          0.155160E-02
      0.120000          0.137165E-02
      0.125000          0.121668E-02
      0.130000          0.108287E-02
      0.135000          0.967155E-03
      0.140000          0.867110E-03
      0.145000          0.780806E-03
      0.150000          0.706671E-03
      0.155000          0.643370E-03
      0.160000          0.589701E-03
      0.165000          0.544524E-03
      0.170000          0.506727E-03
      0.175000          0.475219E-03
      0.180000          0.448943E-03
      0.185000          0.426900E-03
      0.190000          0.408180E-03
      0.195000          0.391996E-03
      0.200000          0.377696E-03
      0.205000          0.364781E-03
      0.210000          0.352895E-03
      0.215000          0.341821E-03
      0.220000          0.331450E-03
      0.225000          0.321765E-03
      0.230000          0.312804E-03
      0.235000          0.304638E-03
      0.240000          0.297341E-03
      0.245000          0.290977E-03
      0.250000          0.285579E-03
      0.255000          0.281143E-03
      0.260000          0.277624E-03
      0.265000          0.274936E-03
      0.270000          0.272956E-03
      0.275000          0.271530E-03
      0.280000          0.270483E-03
      0.285000          0.269627E-03
      0.290000          0.268768E-03
      0.295000          0.267722E-03
      0.300000          0.266317E-03
      0.305000          0.264407E-03
      0.310000          0.261875E-03
      0.315000          0.258638E-03
      0.320000          0.254651E-03
      0.325000          0.249908E-03
      0.330000          0.244437E-03
      0.335000          0.238304E-03
      0.340000          0.231598E-03
      0.345000          0.224431E-03
      0.350000          0.216928E-03
      0.355000          0.209222E-03
      0.360000          0.201442E-03
      0.365000          0.193712E-03
      0.370000          0.186142E-03
      0.375000          0.178826E-03
      0.380000          0.171840E-03
      0.385000          0.165239E-03
      0.390000          0.159060E-03
      0.395000          0.153321E-03
      0.400000          0.148025E-03
      0.405000          0.143159E-03
      0.410000          0.138701E-03
      0.415000          0.134620E-03
      0.420000          0.130879E-03
      0.425000          0.127437E-03
      0.430000          0.124254E-03
      0.435000          0.121287E-03
      0.440000          0.118499E-03
      0.445000          0.115857E-03
      0.450000          0.113330E-03
      0.455000          0.110897E-03
      0.460000          0.108541E-03
      0.465000          0.106250E-03
      0.470000          0.104020E-03
      0.475000          0.101849E-03
      0.480000          0.997402E-04
      0.485000          0.976982E-04
      0.490000          0.957288E-04
      0.495000          0.938378E-04
      0.500000          0.920300E-04
