 I_abs(s)[cm^-1]/c[mg/ml]
       0.00000          0.146320E-01
      0.500000E-02      0.145556E-01
      0.100000E-01      0.143290E-01
      0.150000E-01      0.139602E-01
      0.200000E-01      0.134616E-01
      0.250000E-01      0.128499E-01
      0.300000E-01      0.121448E-01
      0.350000E-01      0.113681E-01
      0.400000E-01      0.105424E-01
      0.450000E-01      0.969029E-02
      0.500000E-01      0.883294E-02
      0.550000E-01      0.798957E-02
      0.600000E-01      0.717659E-02
      0.650000E-01      0.640717E-02
      0.700000E-01      0.569107E-02
      0.750000E-01      0.503460E-02
      0.800000E-01      0.444088E-02
      0.850000E-01      0.391021E-02
      0.900000E-01      0.344055E-02
      0.950000E-01      0.302811E-02
      0.100000          0.266789E-02
      0.105000          0.235424E-02
      0.110000          0.208137E-02
      0.115000          0.184367E-02
      0.120000          0.163604E-02
      0.125000          0.145401E-02
      0.130000          0.129388E-02
      0.135000          0.115263E-02
      0.140000          0.102790E-02
      0.145000          0.917841E-03
      0.150000          0.820990E-03
      0.155000          0.736153E-03
      0.160000          0.662278E-03
      0.165000          0.598377E-03
      0.170000          0.543471E-03
      0.175000          0.496567E-03
      0.180000          0.456665E-03
      0.185000          0.422774E-03
      0.190000          0.393950E-03
      0.195000          0.369328E-03
      0.200000          0.348147E-03
      0.205000          0.329778E-03
      0.210000          0.313719E-03
      0.215000          0.299600E-03
      0.220000          0.287156E-03
      0.225000          0.276211E-03
      0.230000          0.266646E-03
      0.235000          0.258375E-03
      0.240000          0.251320E-03
      0.245000          0.245396E-03
      0.250000          0.240502E-03
      0.255000          0.236523E-03
      0.260000          0.233326E-03
      0.265000          0.230775E-03
      0.270000          0.228740E-03
      0.275000          0.227102E-03
      0.280000          0.225761E-03
      0.285000          0.224638E-03
      0.290000          0.223674E-03
      0.295000          0.222823E-03
      0.300000          0.222047E-03
      0.305000          0.221303E-03
      0.310000          0.220540E-03
      0.315000          0.219690E-03
      0.320000          0.218669E-03
      0.325000          0.217376E-03
      0.330000          0.215703E-03
      0.335000          0.213540E-03
      0.340000          0.210791E-03
      0.345000          0.207381E-03
      0.350000          0.203271E-03
      0.355000          0.198461E-03
      0.360000          0.193000E-03
      0.365000          0.186980E-03
      0.370000          0.180533E-03
      0.375000          0.173822E-03
      0.380000          0.167030E-03
      0.385000          0.160340E-03
      0.390000          0.153926E-03
      0.395000          0.147938E-03
      0.400000          0.142488E-03
      0.405000          0.137645E-03
      0.410000          0.133435E-03
      0.415000          0.129836E-03
      0.420000          0.126788E-03
      0.425000          0.124201E-03
      0.430000          0.121967E-03
      0.435000          0.119971E-03
      0.440000          0.118104E-03
      0.445000          0.116273E-03
      0.450000          0.114409E-03
      0.455000          0.112474E-03
      0.460000          0.110459E-03
      0.465000          0.108386E-03
      0.470000          0.106298E-03
      0.475000          0.104257E-03
      0.480000          0.102331E-03
      0.485000          0.100590E-03
      0.490000          0.990891E-04
      0.495000          0.978706E-04
      0.500000          0.969526E-04
