 I_abs(s)[cm^-1]/c[mg/ml]
       0.00000          0.145684E-01
      0.500000E-02      0.144833E-01
      0.100000E-01      0.142313E-01
      0.150000E-01      0.138215E-01
      0.200000E-01      0.132690E-01
      0.250000E-01      0.125933E-01
      0.300000E-01      0.118178E-01
      0.350000E-01      0.109681E-01
      0.400000E-01      0.100709E-01
      0.450000E-01      0.915257E-02
      0.500000E-01      0.823778E-02
      0.550000E-01      0.734863E-02
      0.600000E-01      0.650368E-02
      0.650000E-01      0.571745E-02
      0.700000E-01      0.500012E-02
      0.750000E-01      0.435758E-02
      0.800000E-01      0.379172E-02
      0.850000E-01      0.330089E-02
      0.900000E-01      0.288061E-02
      0.950000E-01      0.252427E-02
      0.100000          0.222393E-02
      0.105000          0.197106E-02
      0.110000          0.175720E-02
      0.115000          0.157447E-02
      0.120000          0.141602E-02
      0.125000          0.127621E-02
      0.130000          0.115072E-02
      0.135000          0.103653E-02
      0.140000          0.931727E-03
      0.145000          0.835341E-03
      0.150000          0.747054E-03
      0.155000          0.666955E-03
      0.160000          0.595294E-03
      0.165000          0.532290E-03
      0.170000          0.477983E-03
      0.175000          0.432149E-03
      0.180000          0.394281E-03
      0.185000          0.363606E-03
      0.190000          0.339150E-03
      0.195000          0.319822E-03
      0.200000          0.304507E-03
      0.205000          0.292155E-03
      0.210000          0.281852E-03
      0.215000          0.272873E-03
      0.220000          0.264703E-03
      0.225000          0.257038E-03
      0.230000          0.249763E-03
      0.235000          0.242908E-03
      0.240000          0.236602E-03
      0.245000          0.231016E-03
      0.250000          0.226321E-03
      0.255000          0.222641E-03
      0.260000          0.220032E-03
      0.265000          0.218463E-03
      0.270000          0.217823E-03
      0.275000          0.217927E-03
      0.280000          0.218540E-03
      0.285000          0.219400E-03
      0.290000          0.220250E-03
      0.295000          0.220856E-03
      0.300000          0.221034E-03
      0.305000          0.220658E-03
      0.310000          0.219666E-03
      0.315000          0.218064E-03
      0.320000          0.215909E-03
      0.325000          0.213306E-03
      0.330000          0.210385E-03
      0.335000          0.207287E-03
      0.340000          0.204149E-03
      0.345000          0.201090E-03
      0.350000          0.198202E-03
      0.355000          0.195542E-03
      0.360000          0.193130E-03
      0.365000          0.190955E-03
      0.370000          0.188974E-03
      0.375000          0.187121E-03
      0.380000          0.185316E-03
      0.385000          0.183474E-03
      0.390000          0.181508E-03
      0.395000          0.179342E-03
      0.400000          0.176912E-03
      0.405000          0.174170E-03
      0.410000          0.171090E-03
      0.415000          0.167661E-03
      0.420000          0.163891E-03
      0.425000          0.159806E-03
      0.430000          0.155441E-03
      0.435000          0.150845E-03
      0.440000          0.146070E-03
      0.445000          0.141175E-03
      0.450000          0.136216E-03
      0.455000          0.131251E-03
      0.460000          0.126336E-03
      0.465000          0.121520E-03
      0.470000          0.116851E-03
      0.475000          0.112369E-03
      0.480000          0.108112E-03
      0.485000          0.104111E-03
      0.490000          0.100392E-03
      0.495000          0.969756E-04
      0.500000          0.938787E-04
