 I_abs(s)[cm^-1]/c[mg/ml]
       0.00000          0.148636E-01
      0.500000E-02      0.148108E-01
      0.100000E-01      0.146536E-01
      0.150000E-01      0.143956E-01
      0.200000E-01      0.140425E-01
      0.250000E-01      0.136019E-01
      0.300000E-01      0.130834E-01
      0.350000E-01      0.124977E-01
      0.400000E-01      0.118565E-01
      0.450000E-01      0.111721E-01
      0.500000E-01      0.104572E-01
      0.550000E-01      0.972383E-02
      0.600000E-01      0.898387E-02
      0.650000E-01      0.824815E-02
      0.700000E-01      0.752643E-02
      0.750000E-01      0.682721E-02
      0.800000E-01      0.615757E-02
      0.850000E-01      0.552317E-02
      0.900000E-01      0.492825E-02
      0.950000E-01      0.437565E-02
      0.100000          0.386700E-02
      0.105000          0.340278E-02
      0.110000          0.298253E-02
      0.115000          0.260499E-02
      0.120000          0.226828E-02
      0.125000          0.197007E-02
      0.130000          0.170773E-02
      0.135000          0.147843E-02
      0.140000          0.127929E-02
      0.145000          0.110740E-02
      0.150000          0.959984E-03
      0.155000          0.834340E-03
      0.160000          0.727939E-03
      0.165000          0.638420E-03
      0.170000          0.563594E-03
      0.175000          0.501454E-03
      0.180000          0.450167E-03
      0.185000          0.408070E-03
      0.190000          0.373670E-03
      0.195000          0.345631E-03
      0.200000          0.322775E-03
      0.205000          0.304077E-03
      0.210000          0.288654E-03
      0.215000          0.275768E-03
      0.220000          0.264809E-03
      0.225000          0.255291E-03
      0.230000          0.246840E-03
      0.235000          0.239180E-03
      0.240000          0.232117E-03
      0.245000          0.225527E-03
      0.250000          0.219341E-03
      0.255000          0.213526E-03
      0.260000          0.208075E-03
      0.265000          0.202998E-03
      0.270000          0.198306E-03
      0.275000          0.194010E-03
      0.280000          0.190113E-03
      0.285000          0.186608E-03
      0.290000          0.183480E-03
      0.295000          0.180702E-03
      0.300000          0.178241E-03
      0.305000          0.176059E-03
      0.310000          0.174112E-03
      0.315000          0.172358E-03
      0.320000          0.170752E-03
      0.325000          0.169253E-03
      0.330000          0.167819E-03
      0.335000          0.166412E-03
      0.340000          0.164995E-03
      0.345000          0.163533E-03
      0.350000          0.161991E-03
      0.355000          0.160338E-03
      0.360000          0.158542E-03
      0.365000          0.156578E-03
      0.370000          0.154423E-03
      0.375000          0.152059E-03
      0.380000          0.149478E-03
      0.385000          0.146677E-03
      0.390000          0.143665E-03
      0.395000          0.140459E-03
      0.400000          0.137085E-03
      0.405000          0.133581E-03
      0.410000          0.129988E-03
      0.415000          0.126354E-03
      0.420000          0.122732E-03
      0.425000          0.119171E-03
      0.430000          0.115719E-03
      0.435000          0.112419E-03
      0.440000          0.109305E-03
      0.445000          0.106404E-03
      0.450000          0.103730E-03
      0.455000          0.101288E-03
      0.460000          0.990722E-04
      0.465000          0.970673E-04
      0.470000          0.952518E-04
      0.475000          0.935985E-04
      0.480000          0.920778E-04
      0.485000          0.906600E-04
      0.490000          0.893172E-04
      0.495000          0.880259E-04
      0.500000          0.867678E-04
