 I_abs(s)[cm^-1]/c[mg/ml]
       0.00000          0.147515E-01
      0.500000E-02      0.146843E-01
      0.100000E-01      0.144844E-01
      0.150000E-01      0.141576E-01
      0.200000E-01      0.137126E-01
      0.250000E-01      0.131617E-01
      0.300000E-01      0.125193E-01
      0.350000E-01      0.118017E-01
      0.400000E-01      0.110266E-01
      0.450000E-01      0.102118E-01
      0.500000E-01      0.937506E-02
      0.550000E-01      0.853338E-02
      0.600000E-01      0.770220E-02
      0.650000E-01      0.689517E-02
      0.700000E-01      0.612381E-02
      0.750000E-01      0.539732E-02
      0.800000E-01      0.472253E-02
      0.850000E-01      0.410396E-02
      0.900000E-01      0.354401E-02
      0.950000E-01      0.304315E-02
      0.100000          0.260024E-02
      0.105000          0.221288E-02
      0.110000          0.187765E-02
      0.115000          0.159051E-02
      0.120000          0.134702E-02
      0.125000          0.114260E-02
      0.130000          0.972717E-03
      0.135000          0.833014E-03
      0.140000          0.719420E-03
      0.145000          0.628195E-03
      0.150000          0.555951E-03
      0.155000          0.499647E-03
      0.160000          0.456573E-03
      0.165000          0.424321E-03
      0.170000          0.400756E-03
      0.175000          0.383989E-03
      0.180000          0.372362E-03
      0.185000          0.364426E-03
      0.190000          0.358940E-03
      0.195000          0.354860E-03
      0.200000          0.351340E-03
      0.205000          0.347722E-03
      0.210000          0.343534E-03
      0.215000          0.338471E-03
      0.220000          0.332381E-03
      0.225000          0.325242E-03
      0.230000          0.317137E-03
      0.235000          0.308221E-03
      0.240000          0.298695E-03
      0.245000          0.288780E-03
      0.250000          0.278692E-03
      0.255000          0.268623E-03
      0.260000          0.258731E-03
      0.265000          0.249130E-03
      0.270000          0.239896E-03
      0.275000          0.231062E-03
      0.280000          0.222636E-03
      0.285000          0.214605E-03
      0.290000          0.206948E-03
      0.295000          0.199644E-03
      0.300000          0.192681E-03
      0.305000          0.186062E-03
      0.310000          0.179804E-03
      0.315000          0.173939E-03
      0.320000          0.168507E-03
      0.325000          0.163553E-03
      0.330000          0.159118E-03
      0.335000          0.155233E-03
      0.340000          0.151914E-03
      0.345000          0.149153E-03
      0.350000          0.146924E-03
      0.355000          0.145174E-03
      0.360000          0.143834E-03
      0.365000          0.142817E-03
      0.370000          0.142028E-03
      0.375000          0.141369E-03
      0.380000          0.140748E-03
      0.385000          0.140082E-03
      0.390000          0.139306E-03
      0.395000          0.138374E-03
      0.400000          0.137262E-03
      0.405000          0.135967E-03
      0.410000          0.134506E-03
      0.415000          0.132909E-03
      0.420000          0.131219E-03
      0.425000          0.129484E-03
      0.430000          0.127751E-03
      0.435000          0.126063E-03
      0.440000          0.124451E-03
      0.445000          0.122939E-03
      0.450000          0.121533E-03
      0.455000          0.120228E-03
      0.460000          0.119005E-03
      0.465000          0.117837E-03
      0.470000          0.116691E-03
      0.475000          0.115529E-03
      0.480000          0.114317E-03
      0.485000          0.113022E-03
      0.490000          0.111624E-03
      0.495000          0.110108E-03
      0.500000          0.108473E-03
