 I_abs(s)[cm^-1]/c[mg/ml]
       0.00000          0.147276E-01
      0.500000E-02      0.146764E-01
      0.100000E-01      0.145237E-01
      0.150000E-01      0.142729E-01
      0.200000E-01      0.139291E-01
      0.250000E-01      0.134995E-01
      0.300000E-01      0.129926E-01
      0.350000E-01      0.124186E-01
      0.400000E-01      0.117885E-01
      0.450000E-01      0.111139E-01
      0.500000E-01      0.104069E-01
      0.550000E-01      0.967946E-02
      0.600000E-01      0.894330E-02
      0.650000E-01      0.820937E-02
      0.700000E-01      0.748777E-02
      0.750000E-01      0.678746E-02
      0.800000E-01      0.611612E-02
      0.850000E-01      0.548005E-02
      0.900000E-01      0.488412E-02
      0.950000E-01      0.433177E-02
      0.100000          0.382510E-02
      0.105000          0.336492E-02
      0.110000          0.295090E-02
      0.115000          0.258176E-02
      0.120000          0.225539E-02
      0.125000          0.196906E-02
      0.130000          0.171961E-02
      0.135000          0.150362E-02
      0.140000          0.131753E-02
      0.145000          0.115781E-02
      0.150000          0.102107E-02
      0.155000          0.904134E-03
      0.160000          0.804122E-03
      0.165000          0.718463E-03
      0.170000          0.644927E-03
      0.175000          0.581617E-03
      0.180000          0.526950E-03
      0.185000          0.479630E-03
      0.190000          0.438604E-03
      0.195000          0.403025E-03
      0.200000          0.372211E-03
      0.205000          0.345599E-03
      0.210000          0.322718E-03
      0.215000          0.303154E-03
      0.220000          0.286529E-03
      0.225000          0.272484E-03
      0.230000          0.260675E-03
      0.235000          0.250762E-03
      0.240000          0.242416E-03
      0.245000          0.235320E-03
      0.250000          0.229178E-03
      0.255000          0.223719E-03
      0.260000          0.218707E-03
      0.265000          0.213945E-03
      0.270000          0.209277E-03
      0.275000          0.204593E-03
      0.280000          0.199826E-03
      0.285000          0.194948E-03
      0.290000          0.189965E-03
      0.295000          0.184912E-03
      0.300000          0.179845E-03
      0.305000          0.174828E-03
      0.310000          0.169935E-03
      0.315000          0.165231E-03
      0.320000          0.160777E-03
      0.325000          0.156619E-03
      0.330000          0.152786E-03
      0.335000          0.149289E-03
      0.340000          0.146122E-03
      0.345000          0.143262E-03
      0.350000          0.140674E-03
      0.355000          0.138312E-03
      0.360000          0.136122E-03
      0.365000          0.134051E-03
      0.370000          0.132044E-03
      0.375000          0.130055E-03
      0.380000          0.128044E-03
      0.385000          0.125979E-03
      0.390000          0.123842E-03
      0.395000          0.121627E-03
      0.400000          0.119336E-03
      0.405000          0.116984E-03
      0.410000          0.114592E-03
      0.415000          0.112189E-03
      0.420000          0.109807E-03
      0.425000          0.107480E-03
      0.430000          0.105239E-03
      0.435000          0.103113E-03
      0.440000          0.101128E-03
      0.445000          0.993010E-04
      0.450000          0.976428E-04
      0.455000          0.961567E-04
      0.460000          0.948382E-04
      0.465000          0.936758E-04
      0.470000          0.926517E-04
      0.475000          0.917432E-04
      0.480000          0.909238E-04
      0.485000          0.901647E-04
      0.490000          0.894367E-04
      0.495000          0.887112E-04
      0.500000          0.879621E-04
