 I_abs(s)[cm^-1]/c[mg/ml]
       0.00000          0.145367E-01
      0.500000E-02      0.144495E-01
      0.100000E-01      0.141913E-01
      0.150000E-01      0.137718E-01
      0.200000E-01      0.132068E-01
      0.250000E-01      0.125168E-01
      0.300000E-01      0.117261E-01
      0.350000E-01      0.108614E-01
      0.400000E-01      0.995023E-02
      0.450000E-01      0.901973E-02
      0.500000E-01      0.809507E-02
      0.550000E-01      0.719854E-02
      0.600000E-01      0.634869E-02
      0.650000E-01      0.555982E-02
      0.700000E-01      0.484178E-02
      0.750000E-01      0.420007E-02
      0.800000E-01      0.363623E-02
      0.850000E-01      0.314838E-02
      0.900000E-01      0.273195E-02
      0.950000E-01      0.238045E-02
      0.100000          0.208620E-02
      0.105000          0.184113E-02
      0.110000          0.163726E-02
      0.115000          0.146726E-02
      0.120000          0.132467E-02
      0.125000          0.120415E-02
      0.130000          0.110140E-02
      0.135000          0.101315E-02
      0.140000          0.936977E-03
      0.145000          0.871093E-03
      0.150000          0.814159E-03
      0.155000          0.765083E-03
      0.160000          0.722880E-03
      0.165000          0.686565E-03
      0.170000          0.655110E-03
      0.175000          0.627442E-03
      0.180000          0.602477E-03
      0.185000          0.579187E-03
      0.190000          0.556661E-03
      0.195000          0.534174E-03
      0.200000          0.511230E-03
      0.205000          0.487589E-03
      0.210000          0.463263E-03
      0.215000          0.438485E-03
      0.220000          0.413659E-03
      0.225000          0.389298E-03
      0.230000          0.365947E-03
      0.235000          0.344125E-03
      0.240000          0.324256E-03
      0.245000          0.306636E-03
      0.250000          0.291402E-03
      0.255000          0.278534E-03
      0.260000          0.267864E-03
      0.265000          0.259108E-03
      0.270000          0.251903E-03
      0.275000          0.245849E-03
      0.280000          0.240550E-03
      0.285000          0.235653E-03
      0.290000          0.230870E-03
      0.295000          0.226004E-03
      0.300000          0.220945E-03
      0.305000          0.215671E-03
      0.310000          0.210234E-03
      0.315000          0.204737E-03
      0.320000          0.199317E-03
      0.325000          0.194116E-03
      0.330000          0.189265E-03
      0.335000          0.184864E-03
      0.340000          0.180972E-03
      0.345000          0.177603E-03
      0.350000          0.174724E-03
      0.355000          0.172263E-03
      0.360000          0.170118E-03
      0.365000          0.168168E-03
      0.370000          0.166288E-03
      0.375000          0.164359E-03
      0.380000          0.162283E-03
      0.385000          0.159986E-03
      0.390000          0.157430E-03
      0.395000          0.154608E-03
      0.400000          0.151545E-03
      0.405000          0.148295E-03
      0.410000          0.144931E-03
      0.415000          0.141539E-03
      0.420000          0.138207E-03
      0.425000          0.135017E-03
      0.430000          0.132035E-03
      0.435000          0.129309E-03
      0.440000          0.126861E-03
      0.445000          0.124687E-03
      0.450000          0.122756E-03
      0.455000          0.121017E-03
      0.460000          0.119401E-03
      0.465000          0.117830E-03
      0.470000          0.116223E-03
      0.475000          0.114503E-03
      0.480000          0.112608E-03
      0.485000          0.110491E-03
      0.490000          0.108127E-03
      0.495000          0.105516E-03
      0.500000          0.102682E-03
