 I_abs(s)[cm^-1]/c[mg/ml]
       0.00000          0.146161E-01
      0.500000E-02      0.145639E-01
      0.100000E-01      0.144087E-01
      0.150000E-01      0.141537E-01
      0.200000E-01      0.138047E-01
      0.250000E-01      0.133690E-01
      0.300000E-01      0.128561E-01
      0.350000E-01      0.122763E-01
      0.400000E-01      0.116413E-01
      0.450000E-01      0.109633E-01
      0.500000E-01      0.102545E-01
      0.550000E-01      0.952727E-02
      0.600000E-01      0.879326E-02
      0.650000E-01      0.806341E-02
      0.700000E-01      0.734755E-02
      0.750000E-01      0.665431E-02
      0.800000E-01      0.599091E-02
      0.850000E-01      0.536316E-02
      0.900000E-01      0.477541E-02
      0.950000E-01      0.423061E-02
      0.100000          0.373044E-02
      0.105000          0.327540E-02
      0.110000          0.286496E-02
      0.115000          0.249780E-02
      0.120000          0.217190E-02
      0.125000          0.188478E-02
      0.130000          0.163360E-02
      0.135000          0.141538E-02
      0.140000          0.122703E-02
      0.145000          0.106552E-02
      0.150000          0.927923E-03
      0.155000          0.811453E-03
      0.160000          0.713524E-03
      0.165000          0.631748E-03
      0.170000          0.563941E-03
      0.175000          0.508114E-03
      0.180000          0.462466E-03
      0.185000          0.425367E-03
      0.190000          0.395343E-03
      0.195000          0.371069E-03
      0.200000          0.351358E-03
      0.205000          0.335156E-03
      0.210000          0.321540E-03
      0.215000          0.309714E-03
      0.220000          0.299016E-03
      0.225000          0.288911E-03
      0.230000          0.278990E-03
      0.235000          0.268968E-03
      0.240000          0.258675E-03
      0.245000          0.248041E-03
      0.250000          0.237090E-03
      0.255000          0.225916E-03
      0.260000          0.214667E-03
      0.265000          0.203526E-03
      0.270000          0.192693E-03
      0.275000          0.182361E-03
      0.280000          0.172710E-03
      0.285000          0.163884E-03
      0.290000          0.155989E-03
      0.295000          0.149085E-03
      0.300000          0.143187E-03
      0.305000          0.138260E-03
      0.310000          0.134235E-03
      0.315000          0.131006E-03
      0.320000          0.128447E-03
      0.325000          0.126418E-03
      0.330000          0.124775E-03
      0.335000          0.123381E-03
      0.340000          0.122113E-03
      0.345000          0.120867E-03
      0.350000          0.119566E-03
      0.355000          0.118156E-03
      0.360000          0.116613E-03
      0.365000          0.114935E-03
      0.370000          0.113142E-03
      0.375000          0.111272E-03
      0.380000          0.109375E-03
      0.385000          0.107505E-03
      0.390000          0.105722E-03
      0.395000          0.104078E-03
      0.400000          0.102621E-03
      0.405000          0.101389E-03
      0.410000          0.100406E-03
      0.415000          0.996853E-04
      0.420000          0.992266E-04
      0.425000          0.990175E-04
      0.430000          0.990358E-04
      0.435000          0.992506E-04
      0.440000          0.996255E-04
      0.445000          0.100120E-03
      0.450000          0.100693E-03
      0.455000          0.101305E-03
      0.460000          0.101916E-03
      0.465000          0.102493E-03
      0.470000          0.103007E-03
      0.475000          0.103434E-03
      0.480000          0.103756E-03
      0.485000          0.103959E-03
      0.490000          0.104037E-03
      0.495000          0.103986E-03
      0.500000          0.103805E-03
