 I_abs(s)[cm^-1]/c[mg/ml]
       0.00000          0.141195E-01
      0.500000E-02      0.140519E-01
      0.100000E-01      0.138512E-01
      0.150000E-01      0.135233E-01
      0.200000E-01      0.130775E-01
      0.250000E-01      0.125266E-01
      0.300000E-01      0.118857E-01
      0.350000E-01      0.111721E-01
      0.400000E-01      0.104040E-01
      0.450000E-01      0.960022E-02
      0.500000E-01      0.877911E-02
      0.550000E-01      0.795810E-02
      0.600000E-01      0.715307E-02
      0.650000E-01      0.637782E-02
      0.700000E-01      0.564383E-02
      0.750000E-01      0.496002E-02
      0.800000E-01      0.433274E-02
      0.850000E-01      0.376583E-02
      0.900000E-01      0.326078E-02
      0.950000E-01      0.281707E-02
      0.100000          0.243242E-02
      0.105000          0.210320E-02
      0.110000          0.182480E-02
      0.115000          0.159196E-02
      0.120000          0.139908E-02
      0.125000          0.124058E-02
      0.130000          0.111101E-02
      0.135000          0.100533E-02
      0.140000          0.918947E-03
      0.145000          0.847852E-03
      0.150000          0.788597E-03
      0.155000          0.738315E-03
      0.160000          0.694687E-03
      0.165000          0.655890E-03
      0.170000          0.620545E-03
      0.175000          0.587655E-03
      0.180000          0.556545E-03
      0.185000          0.526803E-03
      0.190000          0.498228E-03
      0.195000          0.470784E-03
      0.200000          0.444550E-03
      0.205000          0.419686E-03
      0.210000          0.396397E-03
      0.215000          0.374897E-03
      0.220000          0.355386E-03
      0.225000          0.338025E-03
      0.230000          0.322915E-03
      0.235000          0.310087E-03
      0.240000          0.299494E-03
      0.245000          0.291007E-03
      0.250000          0.284424E-03
      0.255000          0.279477E-03
      0.260000          0.275850E-03
      0.265000          0.273195E-03
      0.270000          0.271155E-03
      0.275000          0.269380E-03
      0.280000          0.267552E-03
      0.285000          0.265395E-03
      0.290000          0.262689E-03
      0.295000          0.259280E-03
      0.300000          0.255077E-03
      0.305000          0.250054E-03
      0.310000          0.244241E-03
      0.315000          0.237717E-03
      0.320000          0.230592E-03
      0.325000          0.223005E-03
      0.330000          0.215102E-03
      0.335000          0.207030E-03
      0.340000          0.198926E-03
      0.345000          0.190913E-03
      0.350000          0.183093E-03
      0.355000          0.175549E-03
      0.360000          0.168339E-03
      0.365000          0.161508E-03
      0.370000          0.155082E-03
      0.375000          0.149076E-03
      0.380000          0.143496E-03
      0.385000          0.138345E-03
      0.390000          0.133620E-03
      0.395000          0.129318E-03
      0.400000          0.125433E-03
      0.405000          0.121958E-03
      0.410000          0.118882E-03
      0.415000          0.116193E-03
      0.420000          0.113873E-03
      0.425000          0.111897E-03
      0.430000          0.110238E-03
      0.435000          0.108861E-03
      0.440000          0.107729E-03
      0.445000          0.106801E-03
      0.450000          0.106034E-03
      0.455000          0.105388E-03
      0.460000          0.104820E-03
      0.465000          0.104296E-03
      0.470000          0.103782E-03
      0.475000          0.103252E-03
      0.480000          0.102682E-03
      0.485000          0.102056E-03
      0.490000          0.101361E-03
      0.495000          0.100588E-03
      0.500000          0.997300E-04
