 I_abs(s)[cm^-1]/c[mg/ml]
       0.00000          0.147835E-01
      0.500000E-02      0.147287E-01
      0.100000E-01      0.145654E-01
      0.150000E-01      0.142976E-01
      0.200000E-01      0.139315E-01
      0.250000E-01      0.134756E-01
      0.300000E-01      0.129402E-01
      0.350000E-01      0.123369E-01
      0.400000E-01      0.116785E-01
      0.450000E-01      0.109784E-01
      0.500000E-01      0.102499E-01
      0.550000E-01      0.950628E-02
      0.600000E-01      0.875984E-02
      0.650000E-01      0.802197E-02
      0.700000E-01      0.730271E-02
      0.750000E-01      0.661061E-02
      0.800000E-01      0.595256E-02
      0.850000E-01      0.533381E-02
      0.900000E-01      0.475796E-02
      0.950000E-01      0.422710E-02
      0.100000          0.374191E-02
      0.105000          0.330191E-02
      0.110000          0.290560E-02
      0.115000          0.255076E-02
      0.120000          0.223462E-02
      0.125000          0.195410E-02
      0.130000          0.170597E-02
      0.135000          0.148704E-02
      0.140000          0.129423E-02
      0.145000          0.112471E-02
      0.150000          0.975934E-03
      0.155000          0.845656E-03
      0.160000          0.731929E-03
      0.165000          0.633085E-03
      0.170000          0.547695E-03
      0.175000          0.474524E-03
      0.180000          0.412482E-03
      0.185000          0.360579E-03
      0.190000          0.317885E-03
      0.195000          0.283504E-03
      0.200000          0.256547E-03
      0.205000          0.236131E-03
      0.210000          0.221374E-03
      0.215000          0.211403E-03
      0.220000          0.205370E-03
      0.225000          0.202468E-03
      0.230000          0.201946E-03
      0.235000          0.203129E-03
      0.240000          0.205429E-03
      0.245000          0.208352E-03
      0.250000          0.211505E-03
      0.255000          0.214592E-03
      0.260000          0.217407E-03
      0.265000          0.219822E-03
      0.270000          0.221777E-03
      0.275000          0.223262E-03
      0.280000          0.224300E-03
      0.285000          0.224935E-03
      0.290000          0.225215E-03
      0.295000          0.225185E-03
      0.300000          0.224875E-03
      0.305000          0.224300E-03
      0.310000          0.223458E-03
      0.315000          0.222328E-03
      0.320000          0.220879E-03
      0.325000          0.219071E-03
      0.330000          0.216863E-03
      0.335000          0.214218E-03
      0.340000          0.211113E-03
      0.345000          0.207537E-03
      0.350000          0.203496E-03
      0.355000          0.199019E-03
      0.360000          0.194150E-03
      0.365000          0.188952E-03
      0.370000          0.183501E-03
      0.375000          0.177882E-03
      0.380000          0.172184E-03
      0.385000          0.166495E-03
      0.390000          0.160898E-03
      0.395000          0.155465E-03
      0.400000          0.150257E-03
      0.405000          0.145316E-03
      0.410000          0.140671E-03
      0.415000          0.136334E-03
      0.420000          0.132300E-03
      0.425000          0.128555E-03
      0.430000          0.125073E-03
      0.435000          0.121821E-03
      0.440000          0.118765E-03
      0.445000          0.115870E-03
      0.450000          0.113104E-03
      0.455000          0.110443E-03
      0.460000          0.107869E-03
      0.465000          0.105372E-03
      0.470000          0.102950E-03
      0.475000          0.100612E-03
      0.480000          0.983697E-04
      0.485000          0.962424E-04
      0.490000          0.942507E-04
      0.495000          0.924157E-04
      0.500000          0.907565E-04
