 I_abs(s)[cm^-1]/c[mg/ml]
       0.00000          0.142448E-01
      0.500000E-02      0.141695E-01
      0.100000E-01      0.139463E-01
      0.150000E-01      0.135826E-01
      0.200000E-01      0.130907E-01
      0.250000E-01      0.124865E-01
      0.300000E-01      0.117892E-01
      0.350000E-01      0.110200E-01
      0.400000E-01      0.102011E-01
      0.450000E-01      0.935485E-02
      0.500000E-01      0.850232E-02
      0.550000E-01      0.766290E-02
      0.600000E-01      0.685335E-02
      0.650000E-01      0.608739E-02
      0.700000E-01      0.537541E-02
      0.750000E-01      0.472442E-02
      0.800000E-01      0.413822E-02
      0.850000E-01      0.361765E-02
      0.900000E-01      0.316108E-02
      0.950000E-01      0.276487E-02
      0.100000          0.242399E-02
      0.105000          0.213249E-02
      0.110000          0.188405E-02
      0.115000          0.167239E-02
      0.120000          0.149159E-02
      0.125000          0.133638E-02
      0.130000          0.120219E-02
      0.135000          0.108530E-02
      0.140000          0.982741E-03
      0.145000          0.892238E-03
      0.150000          0.812111E-03
      0.155000          0.741126E-03
      0.160000          0.678372E-03
      0.165000          0.623141E-03
      0.170000          0.574836E-03
      0.175000          0.532900E-03
      0.180000          0.496774E-03
      0.185000          0.465882E-03
      0.190000          0.439628E-03
      0.195000          0.417408E-03
      0.200000          0.398633E-03
      0.205000          0.382742E-03
      0.210000          0.369226E-03
      0.215000          0.357632E-03
      0.220000          0.347568E-03
      0.225000          0.338704E-03
      0.230000          0.330757E-03
      0.235000          0.323489E-03
      0.240000          0.316690E-03
      0.245000          0.310175E-03
      0.250000          0.303774E-03
      0.255000          0.297333E-03
      0.260000          0.290715E-03
      0.265000          0.283807E-03
      0.270000          0.276524E-03
      0.275000          0.268820E-03
      0.280000          0.260688E-03
      0.285000          0.252166E-03
      0.290000          0.243339E-03
      0.295000          0.234327E-03
      0.300000          0.225285E-03
      0.305000          0.216384E-03
      0.310000          0.207805E-03
      0.315000          0.199721E-03
      0.320000          0.192284E-03
      0.325000          0.185617E-03
      0.330000          0.179804E-03
      0.335000          0.174884E-03
      0.340000          0.170852E-03
      0.345000          0.167660E-03
      0.350000          0.165222E-03
      0.355000          0.163424E-03
      0.360000          0.162127E-03
      0.365000          0.161183E-03
      0.370000          0.160439E-03
      0.375000          0.159750E-03
      0.380000          0.158980E-03
      0.385000          0.158014E-03
      0.390000          0.156754E-03
      0.395000          0.155130E-03
      0.400000          0.153092E-03
      0.405000          0.150617E-03
      0.410000          0.147702E-03
      0.415000          0.144365E-03
      0.420000          0.140643E-03
      0.425000          0.136585E-03
      0.430000          0.132258E-03
      0.435000          0.127734E-03
      0.440000          0.123096E-03
      0.445000          0.118427E-03
      0.450000          0.113814E-03
      0.455000          0.109341E-03
      0.460000          0.105087E-03
      0.465000          0.101123E-03
      0.470000          0.975104E-04
      0.475000          0.942962E-04
      0.480000          0.915136E-04
      0.485000          0.891799E-04
      0.490000          0.872956E-04
      0.495000          0.858453E-04
      0.500000          0.847979E-04
