 I_abs(s)[cm^-1]/c[mg/ml]
       0.00000          0.140415E-01
      0.500000E-02      0.139534E-01
      0.100000E-01      0.136931E-01
      0.150000E-01      0.132714E-01
      0.200000E-01      0.127059E-01
      0.250000E-01      0.120196E-01
      0.300000E-01      0.112392E-01
      0.350000E-01      0.103937E-01
      0.400000E-01      0.951240E-02
      0.450000E-01      0.862360E-02
      0.500000E-01      0.775272E-02
      0.550000E-01      0.692134E-02
      0.600000E-01      0.614631E-02
      0.650000E-01      0.543938E-02
      0.700000E-01      0.480719E-02
      0.750000E-01      0.425160E-02
      0.800000E-01      0.377037E-02
      0.850000E-01      0.335802E-02
      0.900000E-01      0.300677E-02
      0.950000E-01      0.270760E-02
      0.100000          0.245112E-02
      0.105000          0.222838E-02
      0.110000          0.203150E-02
      0.115000          0.185399E-02
      0.120000          0.169100E-02
      0.125000          0.153926E-02
      0.130000          0.139693E-02
      0.135000          0.126331E-02
      0.140000          0.113853E-02
      0.145000          0.102315E-02
      0.150000          0.917903E-03
      0.155000          0.823381E-03
      0.160000          0.739889E-03
      0.165000          0.667337E-03
      0.170000          0.605221E-03
      0.175000          0.552671E-03
      0.180000          0.508544E-03
      0.185000          0.471540E-03
      0.190000          0.440325E-03
      0.195000          0.413638E-03
      0.200000          0.390377E-03
      0.205000          0.369650E-03
      0.210000          0.350797E-03
      0.215000          0.333378E-03
      0.220000          0.317151E-03
      0.225000          0.302017E-03
      0.230000          0.287979E-03
      0.235000          0.275095E-03
      0.240000          0.263433E-03
      0.245000          0.253051E-03
      0.250000          0.243977E-03
      0.255000          0.236205E-03
      0.260000          0.229693E-03
      0.265000          0.224377E-03
      0.270000          0.220171E-03
      0.275000          0.216979E-03
      0.280000          0.214696E-03
      0.285000          0.213208E-03
      0.290000          0.212392E-03
      0.295000          0.212109E-03
      0.300000          0.212204E-03
      0.305000          0.212507E-03
      0.310000          0.212829E-03
      0.315000          0.212976E-03
      0.320000          0.212757E-03
      0.325000          0.211997E-03
      0.330000          0.210548E-03
      0.335000          0.208311E-03
      0.340000          0.205236E-03
      0.345000          0.201337E-03
      0.350000          0.196684E-03
      0.355000          0.191405E-03
      0.360000          0.185671E-03
      0.365000          0.179681E-03
      0.370000          0.173648E-03
      0.375000          0.167775E-03
      0.380000          0.162244E-03
      0.385000          0.157198E-03
      0.390000          0.152733E-03
      0.395000          0.148897E-03
      0.400000          0.145686E-03
      0.405000          0.143052E-03
      0.410000          0.140912E-03
      0.415000          0.139159E-03
      0.420000          0.137675E-03
      0.425000          0.136338E-03
      0.430000          0.135038E-03
      0.435000          0.133680E-03
      0.440000          0.132187E-03
      0.445000          0.130507E-03
      0.450000          0.128604E-03
      0.455000          0.126464E-03
      0.460000          0.124083E-03
      0.465000          0.121471E-03
      0.470000          0.118644E-03
      0.475000          0.115623E-03
      0.480000          0.112437E-03
      0.485000          0.109115E-03
      0.490000          0.105696E-03
      0.495000          0.102224E-03
      0.500000          0.987526E-04
