 I_abs(s)[cm^-1]/c[mg/ml]
       0.00000          0.137084E-01
      0.500000E-02      0.136011E-01
      0.100000E-01      0.132856E-01
      0.150000E-01      0.127795E-01
      0.200000E-01      0.121107E-01
      0.250000E-01      0.113146E-01
      0.300000E-01      0.104307E-01
      0.350000E-01      0.949995E-02
      0.400000E-01      0.856084E-02
      0.450000E-01      0.764718E-02
      0.500000E-01      0.678597E-02
      0.550000E-01      0.599637E-02
      0.600000E-01      0.528947E-02
      0.650000E-01      0.466897E-02
      0.700000E-01      0.413237E-02
      0.750000E-01      0.367264E-02
      0.800000E-01      0.327996E-02
      0.850000E-01      0.294341E-02
      0.900000E-01      0.265235E-02
      0.950000E-01      0.239740E-02
      0.100000          0.217101E-02
      0.105000          0.196761E-02
      0.110000          0.178343E-02
      0.115000          0.161615E-02
      0.120000          0.146440E-02
      0.125000          0.132730E-02
      0.130000          0.120412E-02
      0.135000          0.109406E-02
      0.140000          0.996104E-03
      0.145000          0.909090E-03
      0.150000          0.831779E-03
      0.155000          0.762976E-03
      0.160000          0.701632E-03
      0.165000          0.646902E-03
      0.170000          0.598149E-03
      0.175000          0.554902E-03
      0.180000          0.516777E-03
      0.185000          0.483402E-03
      0.190000          0.454344E-03
      0.195000          0.429081E-03
      0.200000          0.407004E-03
      0.205000          0.387455E-03
      0.210000          0.369794E-03
      0.215000          0.353462E-03
      0.220000          0.338039E-03
      0.225000          0.323282E-03
      0.230000          0.309122E-03
      0.235000          0.295636E-03
      0.240000          0.282996E-03
      0.245000          0.271404E-03
      0.250000          0.261031E-03
      0.255000          0.251968E-03
      0.260000          0.244204E-03
      0.265000          0.237619E-03
      0.270000          0.232015E-03
      0.275000          0.227146E-03
      0.280000          0.222762E-03
      0.285000          0.218653E-03
      0.290000          0.214668E-03
      0.295000          0.210730E-03
      0.300000          0.206831E-03
      0.305000          0.203007E-03
      0.310000          0.199317E-03
      0.315000          0.195811E-03
      0.320000          0.192511E-03
      0.325000          0.189395E-03
      0.330000          0.186402E-03
      0.335000          0.183438E-03
      0.340000          0.180396E-03
      0.345000          0.177177E-03
      0.350000          0.173707E-03
      0.355000          0.169952E-03
      0.360000          0.165921E-03
      0.365000          0.161664E-03
      0.370000          0.157259E-03
      0.375000          0.152803E-03
      0.380000          0.148395E-03
      0.385000          0.144121E-03
      0.390000          0.140052E-03
      0.395000          0.136238E-03
      0.400000          0.132709E-03
      0.405000          0.129483E-03
      0.410000          0.126568E-03
      0.415000          0.123971E-03
      0.420000          0.121693E-03
      0.425000          0.119734E-03
      0.430000          0.118086E-03
      0.435000          0.116730E-03
      0.440000          0.115629E-03
      0.445000          0.114731E-03
      0.450000          0.113967E-03
      0.455000          0.113258E-03
      0.460000          0.112525E-03
      0.465000          0.111695E-03
      0.470000          0.110715E-03
      0.475000          0.109555E-03
      0.480000          0.108213E-03
      0.485000          0.106714E-03
      0.490000          0.105098E-03
      0.495000          0.103414E-03
      0.500000          0.101711E-03
