 I_abs(s)[cm^-1]/c[mg/ml]
       0.00000          0.144417E-01
      0.500000E-02      0.143795E-01
      0.100000E-01      0.141948E-01
      0.150000E-01      0.138925E-01
      0.200000E-01      0.134807E-01
      0.250000E-01      0.129703E-01
      0.300000E-01      0.123743E-01
      0.350000E-01      0.117076E-01
      0.400000E-01      0.109861E-01
      0.450000E-01      0.102259E-01
      0.500000E-01      0.944326E-02
      0.550000E-01      0.865359E-02
      0.600000E-01      0.787107E-02
      0.650000E-01      0.710831E-02
      0.700000E-01      0.637603E-02
      0.750000E-01      0.568292E-02
      0.800000E-01      0.503557E-02
      0.850000E-01      0.443850E-02
      0.900000E-01      0.389435E-02
      0.950000E-01      0.340399E-02
      0.100000          0.296682E-02
      0.105000          0.258102E-02
      0.110000          0.224383E-02
      0.115000          0.195181E-02
      0.120000          0.170108E-02
      0.125000          0.148756E-02
      0.130000          0.130708E-02
      0.135000          0.115559E-02
      0.140000          0.102923E-02
      0.145000          0.924387E-03
      0.150000          0.837755E-03
      0.155000          0.766345E-03
      0.160000          0.707491E-03
      0.165000          0.658848E-03
      0.170000          0.618370E-03
      0.175000          0.584301E-03
      0.180000          0.555152E-03
      0.185000          0.529687E-03
      0.190000          0.506898E-03
      0.195000          0.485992E-03
      0.200000          0.466365E-03
      0.205000          0.447585E-03
      0.210000          0.429365E-03
      0.215000          0.411545E-03
      0.220000          0.394060E-03
      0.225000          0.376923E-03
      0.230000          0.360198E-03
      0.235000          0.343979E-03
      0.240000          0.328374E-03
      0.245000          0.313487E-03
      0.250000          0.299409E-03
      0.255000          0.286209E-03
      0.260000          0.273932E-03
      0.265000          0.262593E-03
      0.270000          0.252181E-03
      0.275000          0.242663E-03
      0.280000          0.233981E-03
      0.285000          0.226065E-03
      0.290000          0.218828E-03
      0.295000          0.212178E-03
      0.300000          0.206016E-03
      0.305000          0.200245E-03
      0.310000          0.194769E-03
      0.315000          0.189501E-03
      0.320000          0.184365E-03
      0.325000          0.179295E-03
      0.330000          0.174247E-03
      0.335000          0.169193E-03
      0.340000          0.164125E-03
      0.345000          0.159055E-03
      0.350000          0.154015E-03
      0.355000          0.149051E-03
      0.360000          0.144224E-03
      0.365000          0.139599E-03
      0.370000          0.135245E-03
      0.375000          0.131225E-03
      0.380000          0.127592E-03
      0.385000          0.124385E-03
      0.390000          0.121625E-03
      0.395000          0.119313E-03
      0.400000          0.117428E-03
      0.405000          0.115930E-03
      0.410000          0.114765E-03
      0.415000          0.113864E-03
      0.420000          0.113154E-03
      0.425000          0.112559E-03
      0.430000          0.112004E-03
      0.435000          0.111425E-03
      0.440000          0.110767E-03
      0.445000          0.109988E-03
      0.450000          0.109062E-03
      0.455000          0.107974E-03
      0.460000          0.106725E-03
      0.465000          0.105323E-03
      0.470000          0.103787E-03
      0.475000          0.102138E-03
      0.480000          0.100403E-03
      0.485000          0.986081E-04
      0.490000          0.967768E-04
      0.495000          0.949322E-04
      0.500000          0.930937E-04
