 I_abs(s)[cm^-1]/c[mg/ml]
       0.00000          0.145288E-01
      0.500000E-02      0.144683E-01
      0.100000E-01      0.142886E-01
      0.150000E-01      0.139951E-01
      0.200000E-01      0.135962E-01
      0.250000E-01      0.131032E-01
      0.300000E-01      0.125296E-01
      0.350000E-01      0.118905E-01
      0.400000E-01      0.112019E-01
      0.450000E-01      0.104798E-01
      0.500000E-01      0.973991E-02
      0.550000E-01      0.899679E-02
      0.600000E-01      0.826342E-02
      0.650000E-01      0.755092E-02
      0.700000E-01      0.686830E-02
      0.750000E-01      0.622238E-02
      0.800000E-01      0.561788E-02
      0.850000E-01      0.505752E-02
      0.900000E-01      0.454233E-02
      0.950000E-01      0.407184E-02
      0.100000          0.364450E-02
      0.105000          0.325792E-02
      0.110000          0.290919E-02
      0.115000          0.259515E-02
      0.120000          0.231259E-02
      0.125000          0.205842E-02
      0.130000          0.182976E-02
      0.135000          0.162403E-02
      0.140000          0.143895E-02
      0.145000          0.127254E-02
      0.150000          0.112309E-02
      0.155000          0.989147E-03
      0.160000          0.869418E-03
      0.165000          0.762777E-03
      0.170000          0.668205E-03
      0.175000          0.584766E-03
      0.180000          0.511582E-03
      0.185000          0.447823E-03
      0.190000          0.392696E-03
      0.195000          0.345437E-03
      0.200000          0.305315E-03
      0.205000          0.271624E-03
      0.210000          0.243689E-03
      0.215000          0.220865E-03
      0.220000          0.202535E-03
      0.225000          0.188115E-03
      0.230000          0.177054E-03
      0.235000          0.168836E-03
      0.240000          0.162985E-03
      0.245000          0.159063E-03
      0.250000          0.156680E-03
      0.255000          0.155490E-03
      0.260000          0.155193E-03
      0.265000          0.155535E-03
      0.270000          0.156304E-03
      0.275000          0.157329E-03
      0.280000          0.158468E-03
      0.285000          0.159609E-03
      0.290000          0.160661E-03
      0.295000          0.161548E-03
      0.300000          0.162206E-03
      0.305000          0.162578E-03
      0.310000          0.162617E-03
      0.315000          0.162285E-03
      0.320000          0.161553E-03
      0.325000          0.160406E-03
      0.330000          0.158843E-03
      0.335000          0.156882E-03
      0.340000          0.154559E-03
      0.345000          0.151926E-03
      0.350000          0.149052E-03
      0.355000          0.146015E-03
      0.360000          0.142901E-03
      0.365000          0.139794E-03
      0.370000          0.136773E-03
      0.375000          0.133905E-03
      0.380000          0.131243E-03
      0.385000          0.128817E-03
      0.390000          0.126643E-03
      0.395000          0.124712E-03
      0.400000          0.123004E-03
      0.405000          0.121482E-03
      0.410000          0.120105E-03
      0.415000          0.118825E-03
      0.420000          0.117600E-03
      0.425000          0.116393E-03
      0.430000          0.115174E-03
      0.435000          0.113926E-03
      0.440000          0.112643E-03
      0.445000          0.111329E-03
      0.450000          0.109996E-03
      0.455000          0.108661E-03
      0.460000          0.107345E-03
      0.465000          0.106066E-03
      0.470000          0.104841E-03
      0.475000          0.103678E-03
      0.480000          0.102583E-03
      0.485000          0.101551E-03
      0.490000          0.100572E-03
      0.495000          0.996308E-04
      0.500000          0.987078E-04
