 I_abs(s)[cm^-1]/c[mg/ml]
       0.00000          0.138551E-01
      0.500000E-02      0.137740E-01
      0.100000E-01      0.135337E-01
      0.150000E-01      0.131430E-01
      0.200000E-01      0.126160E-01
      0.250000E-01      0.119711E-01
      0.300000E-01      0.112304E-01
      0.350000E-01      0.104183E-01
      0.400000E-01      0.956005E-02
      0.450000E-01      0.868096E-02
      0.500000E-01      0.780479E-02
      0.550000E-01      0.695296E-02
      0.600000E-01      0.614368E-02
      0.650000E-01      0.539141E-02
      0.700000E-01      0.470657E-02
      0.750000E-01      0.409552E-02
      0.800000E-01      0.356075E-02
      0.850000E-01      0.310130E-02
      0.900000E-01      0.271337E-02
      0.950000E-01      0.239089E-02
      0.100000          0.212633E-02
      0.105000          0.191130E-02
      0.110000          0.173721E-02
      0.115000          0.159579E-02
      0.120000          0.147953E-02
      0.125000          0.138190E-02
      0.130000          0.129755E-02
      0.135000          0.122231E-02
      0.140000          0.115317E-02
      0.145000          0.108811E-02
      0.150000          0.102590E-02
      0.155000          0.965954E-03
      0.160000          0.908112E-03
      0.165000          0.852443E-03
      0.170000          0.799125E-03
      0.175000          0.748337E-03
      0.180000          0.700193E-03
      0.185000          0.654718E-03
      0.190000          0.611851E-03
      0.195000          0.571468E-03
      0.200000          0.533416E-03
      0.205000          0.497547E-03
      0.210000          0.463750E-03
      0.215000          0.431972E-03
      0.220000          0.402224E-03
      0.225000          0.374577E-03
      0.230000          0.349146E-03
      0.235000          0.326065E-03
      0.240000          0.305461E-03
      0.245000          0.287427E-03
      0.250000          0.271999E-03
      0.255000          0.259138E-03
      0.260000          0.248726E-03
      0.265000          0.240562E-03
      0.270000          0.234374E-03
      0.275000          0.229836E-03
      0.280000          0.226585E-03
      0.285000          0.224248E-03
      0.290000          0.222458E-03
      0.295000          0.220881E-03
      0.300000          0.219226E-03
      0.305000          0.217260E-03
      0.310000          0.214814E-03
      0.315000          0.211780E-03
      0.320000          0.208114E-03
      0.325000          0.203823E-03
      0.330000          0.198960E-03
      0.335000          0.193612E-03
      0.340000          0.187889E-03
      0.345000          0.181916E-03
      0.350000          0.175820E-03
      0.355000          0.169726E-03
      0.360000          0.163750E-03
      0.365000          0.157993E-03
      0.370000          0.152541E-03
      0.375000          0.147459E-03
      0.380000          0.142794E-03
      0.385000          0.138575E-03
      0.390000          0.134809E-03
      0.395000          0.131489E-03
      0.400000          0.128589E-03
      0.405000          0.126073E-03
      0.410000          0.123890E-03
      0.415000          0.121985E-03
      0.420000          0.120296E-03
      0.425000          0.118761E-03
      0.430000          0.117320E-03
      0.435000          0.115919E-03
      0.440000          0.114509E-03
      0.445000          0.113053E-03
      0.450000          0.111525E-03
      0.455000          0.109910E-03
      0.460000          0.108207E-03
      0.465000          0.106421E-03
      0.470000          0.104570E-03
      0.475000          0.102676E-03
      0.480000          0.100769E-03
      0.485000          0.988766E-04
      0.490000          0.970300E-04
      0.495000          0.952566E-04
      0.500000          0.935803E-04
