 I_abs(s)[cm^-1]/c[mg/ml]
       0.00000          0.144496E-01
      0.500000E-02      0.143743E-01
      0.100000E-01      0.141509E-01
      0.150000E-01      0.137867E-01
      0.200000E-01      0.132935E-01
      0.250000E-01      0.126869E-01
      0.300000E-01      0.119857E-01
      0.350000E-01      0.112108E-01
      0.400000E-01      0.103843E-01
      0.450000E-01      0.952845E-02
      0.500000E-01      0.866480E-02
      0.550000E-01      0.781318E-02
      0.600000E-01      0.699106E-02
      0.650000E-01      0.621299E-02
      0.700000E-01      0.549023E-02
      0.750000E-01      0.483060E-02
      0.800000E-01      0.423857E-02
      0.850000E-01      0.371542E-02
      0.900000E-01      0.325966E-02
      0.950000E-01      0.286751E-02
      0.100000          0.253339E-02
      0.105000          0.225059E-02
      0.110000          0.201177E-02
      0.115000          0.180947E-02
      0.120000          0.163659E-02
      0.125000          0.148671E-02
      0.130000          0.135434E-02
      0.135000          0.123504E-02
      0.140000          0.112548E-02
      0.145000          0.102336E-02
      0.150000          0.927311E-03
      0.155000          0.836735E-03
      0.160000          0.751595E-03
      0.165000          0.672227E-03
      0.170000          0.599155E-03
      0.175000          0.532924E-03
      0.180000          0.473978E-03
      0.185000          0.422569E-03
      0.190000          0.378706E-03
      0.195000          0.342153E-03
      0.200000          0.312434E-03
      0.205000          0.288890E-03
      0.210000          0.270724E-03
      0.215000          0.257069E-03
      0.220000          0.247050E-03
      0.225000          0.239836E-03
      0.230000          0.234683E-03
      0.235000          0.230962E-03
      0.240000          0.228172E-03
      0.245000          0.225944E-03
      0.250000          0.224026E-03
      0.255000          0.222266E-03
      0.260000          0.220593E-03
      0.265000          0.218984E-03
      0.270000          0.217450E-03
      0.275000          0.216010E-03
      0.280000          0.214679E-03
      0.285000          0.213458E-03
      0.290000          0.212328E-03
      0.295000          0.211256E-03
      0.300000          0.210190E-03
      0.305000          0.209073E-03
      0.310000          0.207844E-03
      0.315000          0.206449E-03
      0.320000          0.204841E-03
      0.325000          0.202987E-03
      0.330000          0.200869E-03
      0.335000          0.198482E-03
      0.340000          0.195832E-03
      0.345000          0.192937E-03
      0.350000          0.189817E-03
      0.355000          0.186495E-03
      0.360000          0.182993E-03
      0.365000          0.179329E-03
      0.370000          0.175518E-03
      0.375000          0.171570E-03
      0.380000          0.167492E-03
      0.385000          0.163292E-03
      0.390000          0.158975E-03
      0.395000          0.154552E-03
      0.400000          0.150040E-03
      0.405000          0.145460E-03
      0.410000          0.140842E-03
      0.415000          0.136225E-03
      0.420000          0.131655E-03
      0.425000          0.127181E-03
      0.430000          0.122858E-03
      0.435000          0.118741E-03
      0.440000          0.114882E-03
      0.445000          0.111330E-03
      0.450000          0.108126E-03
      0.455000          0.105298E-03
      0.460000          0.102867E-03
      0.465000          0.100837E-03
      0.470000          0.991987E-04
      0.475000          0.979309E-04
      0.480000          0.969980E-04
      0.485000          0.963536E-04
      0.490000          0.959420E-04
      0.495000          0.957012E-04
      0.500000          0.955652E-04
