 I_abs(s)[cm^-1]/c[mg/ml]
       0.00000          0.141273E-01
      0.500000E-02      0.140659E-01
      0.100000E-01      0.138831E-01
      0.150000E-01      0.135840E-01
      0.200000E-01      0.131763E-01
      0.250000E-01      0.126705E-01
      0.300000E-01      0.120794E-01
      0.350000E-01      0.114177E-01
      0.400000E-01      0.107010E-01
      0.450000E-01      0.994588E-02
      0.500000E-01      0.916865E-02
      0.550000E-01      0.838527E-02
      0.600000E-01      0.761059E-02
      0.650000E-01      0.685800E-02
      0.700000E-01      0.613905E-02
      0.750000E-01      0.546319E-02
      0.800000E-01      0.483765E-02
      0.850000E-01      0.426736E-02
      0.900000E-01      0.375505E-02
      0.950000E-01      0.330135E-02
      0.100000          0.290507E-02
      0.105000          0.256341E-02
      0.110000          0.227233E-02
      0.115000          0.202685E-02
      0.120000          0.182143E-02
      0.125000          0.165022E-02
      0.130000          0.150744E-02
      0.135000          0.138754E-02
      0.140000          0.128547E-02
      0.145000          0.119678E-02
      0.150000          0.111774E-02
      0.155000          0.104535E-02
      0.160000          0.977366E-03
      0.165000          0.912242E-03
      0.170000          0.849046E-03
      0.175000          0.787367E-03
      0.180000          0.727209E-03
      0.185000          0.668867E-03
      0.190000          0.612825E-03
      0.195000          0.559648E-03
      0.200000          0.509901E-03
      0.205000          0.464077E-03
      0.210000          0.422552E-03
      0.215000          0.385550E-03
      0.220000          0.353136E-03
      0.225000          0.325215E-03
      0.230000          0.301552E-03
      0.235000          0.281796E-03
      0.240000          0.265509E-03
      0.245000          0.252202E-03
      0.250000          0.241364E-03
      0.255000          0.232498E-03
      0.260000          0.225139E-03
      0.265000          0.218875E-03
      0.270000          0.213365E-03
      0.275000          0.208335E-03
      0.280000          0.203586E-03
      0.285000          0.198989E-03
      0.290000          0.194470E-03
      0.295000          0.190005E-03
      0.300000          0.185607E-03
      0.305000          0.181308E-03
      0.310000          0.177155E-03
      0.315000          0.173193E-03
      0.320000          0.169460E-03
      0.325000          0.165983E-03
      0.330000          0.162770E-03
      0.335000          0.159814E-03
      0.340000          0.157092E-03
      0.345000          0.154569E-03
      0.350000          0.152200E-03
      0.355000          0.149935E-03
      0.360000          0.147726E-03
      0.365000          0.145526E-03
      0.370000          0.143299E-03
      0.375000          0.141015E-03
      0.380000          0.138657E-03
      0.385000          0.136221E-03
      0.390000          0.133712E-03
      0.395000          0.131147E-03
      0.400000          0.128547E-03
      0.405000          0.125944E-03
      0.410000          0.123367E-03
      0.415000          0.120850E-03
      0.420000          0.118423E-03
      0.425000          0.116111E-03
      0.430000          0.113936E-03
      0.435000          0.111912E-03
      0.440000          0.110045E-03
      0.445000          0.108336E-03
      0.450000          0.106779E-03
      0.455000          0.105359E-03
      0.460000          0.104060E-03
      0.465000          0.102860E-03
      0.470000          0.101733E-03
      0.475000          0.100654E-03
      0.480000          0.995961E-04
      0.485000          0.985335E-04
      0.490000          0.974428E-04
      0.495000          0.963034E-04
      0.500000          0.950982E-04
