 I_abs(s)[cm^-1]/c[mg/ml]
       0.00000          0.148876E-01
      0.500000E-02      0.148311E-01
      0.100000E-01      0.146630E-01
      0.150000E-01      0.143871E-01
      0.200000E-01      0.140099E-01
      0.250000E-01      0.135400E-01
      0.300000E-01      0.129881E-01
      0.350000E-01      0.123661E-01
      0.400000E-01      0.116873E-01
      0.450000E-01      0.109655E-01
      0.500000E-01      0.102146E-01
      0.550000E-01      0.944841E-02
      0.600000E-01      0.868002E-02
      0.650000E-01      0.792146E-02
      0.700000E-01      0.718348E-02
      0.750000E-01      0.647528E-02
      0.800000E-01      0.580439E-02
      0.850000E-01      0.517660E-02
      0.900000E-01      0.459597E-02
      0.950000E-01      0.406487E-02
      0.100000          0.358418E-02
      0.105000          0.315337E-02
      0.110000          0.277080E-02
      0.115000          0.243389E-02
      0.120000          0.213935E-02
      0.125000          0.188344E-02
      0.130000          0.166215E-02
      0.135000          0.147143E-02
      0.140000          0.130729E-02
      0.145000          0.116596E-02
      0.150000          0.104401E-02
      0.155000          0.938356E-03
      0.160000          0.846329E-03
      0.165000          0.765675E-03
      0.170000          0.694535E-03
      0.175000          0.631415E-03
      0.180000          0.575146E-03
      0.185000          0.524830E-03
      0.190000          0.479789E-03
      0.195000          0.439518E-03
      0.200000          0.403632E-03
      0.205000          0.371831E-03
      0.210000          0.343860E-03
      0.215000          0.319486E-03
      0.220000          0.298480E-03
      0.225000          0.280597E-03
      0.230000          0.265577E-03
      0.235000          0.253140E-03
      0.240000          0.242985E-03
      0.245000          0.234801E-03
      0.250000          0.228269E-03
      0.255000          0.223071E-03
      0.260000          0.218899E-03
      0.265000          0.215461E-03
      0.270000          0.212492E-03
      0.275000          0.209755E-03
      0.280000          0.207050E-03
      0.285000          0.204216E-03
      0.290000          0.201133E-03
      0.295000          0.197722E-03
      0.300000          0.193945E-03
      0.305000          0.189799E-03
      0.310000          0.185317E-03
      0.315000          0.180558E-03
      0.320000          0.175602E-03
      0.325000          0.170544E-03
      0.330000          0.165488E-03
      0.335000          0.160537E-03
      0.340000          0.155788E-03
      0.345000          0.151328E-03
      0.350000          0.147226E-03
      0.355000          0.143533E-03
      0.360000          0.140277E-03
      0.365000          0.137466E-03
      0.370000          0.135085E-03
      0.375000          0.133102E-03
      0.380000          0.131467E-03
      0.385000          0.130121E-03
      0.390000          0.128996E-03
      0.395000          0.128019E-03
      0.400000          0.127122E-03
      0.405000          0.126239E-03
      0.410000          0.125312E-03
      0.415000          0.124297E-03
      0.420000          0.123157E-03
      0.425000          0.121870E-03
      0.430000          0.120427E-03
      0.435000          0.118829E-03
      0.440000          0.117087E-03
      0.445000          0.115221E-03
      0.450000          0.113256E-03
      0.455000          0.111221E-03
      0.460000          0.109145E-03
      0.465000          0.107060E-03
      0.470000          0.104994E-03
      0.475000          0.102972E-03
      0.480000          0.101016E-03
      0.485000          0.991437E-04
      0.490000          0.973676E-04
      0.495000          0.956963E-04
      0.500000          0.941341E-04
