 I_abs(s)[cm^-1]/c[mg/ml]
       0.00000          0.150405E-01
      0.500000E-02      0.149867E-01
      0.100000E-01      0.148264E-01
      0.150000E-01      0.145631E-01
      0.200000E-01      0.142024E-01
      0.250000E-01      0.137520E-01
      0.300000E-01      0.132210E-01
      0.350000E-01      0.126202E-01
      0.400000E-01      0.119614E-01
      0.450000E-01      0.112570E-01
      0.500000E-01      0.105197E-01
      0.550000E-01      0.976211E-02
      0.600000E-01      0.899649E-02
      0.650000E-01      0.823430E-02
      0.700000E-01      0.748598E-02
      0.750000E-01      0.676078E-02
      0.800000E-01      0.606656E-02
      0.850000E-01      0.540971E-02
      0.900000E-01      0.479515E-02
      0.950000E-01      0.422629E-02
      0.100000          0.370518E-02
      0.105000          0.323258E-02
      0.110000          0.280808E-02
      0.115000          0.243036E-02
      0.120000          0.209725E-02
      0.125000          0.180601E-02
      0.130000          0.155347E-02
      0.135000          0.133619E-02
      0.140000          0.115060E-02
      0.145000          0.993174E-03
      0.150000          0.860469E-03
      0.155000          0.749248E-03
      0.160000          0.656515E-03
      0.165000          0.579556E-03
      0.170000          0.515950E-03
      0.175000          0.463572E-03
      0.180000          0.420578E-03
      0.185000          0.385387E-03
      0.190000          0.356652E-03
      0.195000          0.333231E-03
      0.200000          0.314163E-03
      0.205000          0.298636E-03
      0.210000          0.285963E-03
      0.215000          0.275567E-03
      0.220000          0.266956E-03
      0.225000          0.259716E-03
      0.230000          0.253496E-03
      0.235000          0.248005E-03
      0.240000          0.243003E-03
      0.245000          0.238296E-03
      0.250000          0.233734E-03
      0.255000          0.229207E-03
      0.260000          0.224640E-03
      0.265000          0.219988E-03
      0.270000          0.215233E-03
      0.275000          0.210382E-03
      0.280000          0.205453E-03
      0.285000          0.200479E-03
      0.290000          0.195500E-03
      0.295000          0.190557E-03
      0.300000          0.185690E-03
      0.305000          0.180935E-03
      0.310000          0.176323E-03
      0.315000          0.171877E-03
      0.320000          0.167612E-03
      0.325000          0.163537E-03
      0.330000          0.159652E-03
      0.335000          0.155955E-03
      0.340000          0.152439E-03
      0.345000          0.149093E-03
      0.350000          0.145907E-03
      0.355000          0.142872E-03
      0.360000          0.139978E-03
      0.365000          0.137218E-03
      0.370000          0.134587E-03
      0.375000          0.132083E-03
      0.380000          0.129704E-03
      0.385000          0.127450E-03
      0.390000          0.125322E-03
      0.395000          0.123320E-03
      0.400000          0.121444E-03
      0.405000          0.119694E-03
      0.410000          0.118065E-03
      0.415000          0.116554E-03
      0.420000          0.115155E-03
      0.425000          0.113860E-03
      0.430000          0.112660E-03
      0.435000          0.111545E-03
      0.440000          0.110507E-03
      0.445000          0.109534E-03
      0.450000          0.108620E-03
      0.455000          0.107755E-03
      0.460000          0.106934E-03
      0.465000          0.106152E-03
      0.470000          0.105405E-03
      0.475000          0.104691E-03
      0.480000          0.104007E-03
      0.485000          0.103353E-03
      0.490000          0.102727E-03
      0.495000          0.102128E-03
      0.500000          0.101551E-03
