 I_abs(s)[cm^-1]/c[mg/ml]
       0.00000          0.147515E-01
      0.500000E-02      0.146884E-01
      0.100000E-01      0.145007E-01
      0.150000E-01      0.141938E-01
      0.200000E-01      0.137762E-01
      0.250000E-01      0.132595E-01
      0.300000E-01      0.126572E-01
      0.350000E-01      0.119851E-01
      0.400000E-01      0.112595E-01
      0.450000E-01      0.104974E-01
      0.500000E-01      0.971538E-02
      0.550000E-01      0.892925E-02
      0.600000E-01      0.815325E-02
      0.650000E-01      0.739985E-02
      0.700000E-01      0.667942E-02
      0.750000E-01      0.600003E-02
      0.800000E-01      0.536749E-02
      0.850000E-01      0.478536E-02
      0.900000E-01      0.425521E-02
      0.950000E-01      0.377681E-02
      0.100000          0.334849E-02
      0.105000          0.296743E-02
      0.110000          0.263007E-02
      0.115000          0.233232E-02
      0.120000          0.206996E-02
      0.125000          0.183878E-02
      0.130000          0.163485E-02
      0.135000          0.145458E-02
      0.140000          0.129481E-02
      0.145000          0.115288E-02
      0.150000          0.102656E-02
      0.155000          0.914062E-03
      0.160000          0.813936E-03
      0.165000          0.725033E-03
      0.170000          0.646422E-03
      0.175000          0.577323E-03
      0.180000          0.517053E-03
      0.185000          0.464977E-03
      0.190000          0.420478E-03
      0.195000          0.382935E-03
      0.200000          0.351711E-03
      0.205000          0.326155E-03
      0.210000          0.305604E-03
      0.215000          0.289391E-03
      0.220000          0.276854E-03
      0.225000          0.267351E-03
      0.230000          0.260270E-03
      0.235000          0.255035E-03
      0.240000          0.251119E-03
      0.245000          0.248049E-03
      0.250000          0.245415E-03
      0.255000          0.242871E-03
      0.260000          0.240142E-03
      0.265000          0.237025E-03
      0.270000          0.233386E-03
      0.275000          0.229159E-03
      0.280000          0.224341E-03
      0.285000          0.218987E-03
      0.290000          0.213192E-03
      0.295000          0.207086E-03
      0.300000          0.200819E-03
      0.305000          0.194543E-03
      0.310000          0.188403E-03
      0.315000          0.182523E-03
      0.320000          0.176999E-03
      0.325000          0.171888E-03
      0.330000          0.167211E-03
      0.335000          0.162949E-03
      0.340000          0.159053E-03
      0.345000          0.155447E-03
      0.350000          0.152043E-03
      0.355000          0.148746E-03
      0.360000          0.145469E-03
      0.365000          0.142139E-03
      0.370000          0.138708E-03
      0.375000          0.135156E-03
      0.380000          0.131491E-03
      0.385000          0.127749E-03
      0.390000          0.123990E-03
      0.395000          0.120289E-03
      0.400000          0.116730E-03
      0.405000          0.113396E-03
      0.410000          0.110364E-03
      0.415000          0.107692E-03
      0.420000          0.105423E-03
      0.425000          0.103573E-03
      0.430000          0.102137E-03
      0.435000          0.101090E-03
      0.440000          0.100387E-03
      0.445000          0.999747E-04
      0.450000          0.997914E-04
      0.455000          0.997759E-04
      0.460000          0.998719E-04
      0.465000          0.100032E-03
      0.470000          0.100219E-03
      0.475000          0.100409E-03
      0.480000          0.100587E-03
      0.485000          0.100749E-03
      0.490000          0.100896E-03
      0.495000          0.101028E-03
      0.500000          0.101148E-03
