 I_abs(s)[cm^-1]/c[mg/ml]
       0.00000          0.146638E-01
      0.500000E-02      0.146028E-01
      0.100000E-01      0.144214E-01
      0.150000E-01      0.141243E-01
      0.200000E-01      0.137190E-01
      0.250000E-01      0.132156E-01
      0.300000E-01      0.126264E-01
      0.350000E-01      0.119655E-01
      0.400000E-01      0.112479E-01
      0.450000E-01      0.104893E-01
      0.500000E-01      0.970534E-02
      0.550000E-01      0.891115E-02
      0.600000E-01      0.812090E-02
      0.650000E-01      0.734737E-02
      0.700000E-01      0.660164E-02
      0.750000E-01      0.589293E-02
      0.800000E-01      0.522843E-02
      0.850000E-01      0.461336E-02
      0.900000E-01      0.405098E-02
      0.950000E-01      0.354276E-02
      0.100000          0.308861E-02
      0.105000          0.268703E-02
      0.110000          0.233549E-02
      0.115000          0.203058E-02
      0.120000          0.176835E-02
      0.125000          0.154452E-02
      0.130000          0.135465E-02
      0.135000          0.119440E-02
      0.140000          0.105958E-02
      0.145000          0.946320E-03
      0.150000          0.851091E-03
      0.155000          0.770777E-03
      0.160000          0.702670E-03
      0.165000          0.644475E-03
      0.170000          0.594280E-03
      0.175000          0.550530E-03
      0.180000          0.511990E-03
      0.185000          0.477703E-03
      0.190000          0.446947E-03
      0.195000          0.419200E-03
      0.200000          0.394097E-03
      0.205000          0.371398E-03
      0.210000          0.350955E-03
      0.215000          0.332680E-03
      0.220000          0.316522E-03
      0.225000          0.302441E-03
      0.230000          0.290394E-03
      0.235000          0.280312E-03
      0.240000          0.272098E-03
      0.245000          0.265614E-03
      0.250000          0.260679E-03
      0.255000          0.257075E-03
      0.260000          0.254550E-03
      0.265000          0.252827E-03
      0.270000          0.251616E-03
      0.275000          0.250627E-03
      0.280000          0.249583E-03
      0.285000          0.248235E-03
      0.290000          0.246368E-03
      0.295000          0.243816E-03
      0.300000          0.240463E-03
      0.305000          0.236249E-03
      0.310000          0.231168E-03
      0.315000          0.225264E-03
      0.320000          0.218627E-03
      0.325000          0.211382E-03
      0.330000          0.203681E-03
      0.335000          0.195692E-03
      0.340000          0.187589E-03
      0.345000          0.179542E-03
      0.350000          0.171711E-03
      0.355000          0.164235E-03
      0.360000          0.157230E-03
      0.365000          0.150786E-03
      0.370000          0.144964E-03
      0.375000          0.139796E-03
      0.380000          0.135290E-03
      0.385000          0.131429E-03
      0.390000          0.128177E-03
      0.395000          0.125479E-03
      0.400000          0.123271E-03
      0.405000          0.121477E-03
      0.410000          0.120021E-03
      0.415000          0.118822E-03
      0.420000          0.117801E-03
      0.425000          0.116885E-03
      0.430000          0.116007E-03
      0.435000          0.115105E-03
      0.440000          0.114129E-03
      0.445000          0.113038E-03
      0.450000          0.111799E-03
      0.455000          0.110392E-03
      0.460000          0.108805E-03
      0.465000          0.107039E-03
      0.470000          0.105101E-03
      0.475000          0.103008E-03
      0.480000          0.100785E-03
      0.485000          0.984616E-04
      0.490000          0.960743E-04
      0.495000          0.936620E-04
      0.500000          0.912652E-04
