 I_abs(s)[cm^-1]/c[mg/ml]
       0.00000          0.147835E-01
      0.500000E-02      0.147173E-01
      0.100000E-01      0.145206E-01
      0.150000E-01      0.141984E-01
      0.200000E-01      0.137595E-01
      0.250000E-01      0.132150E-01
      0.300000E-01      0.125790E-01
      0.350000E-01      0.118670E-01
      0.400000E-01      0.110959E-01
      0.450000E-01      0.102834E-01
      0.500000E-01      0.944689E-02
      0.550000E-01      0.860320E-02
      0.600000E-01      0.776801E-02
      0.650000E-01      0.695532E-02
      0.700000E-01      0.617715E-02
      0.750000E-01      0.544329E-02
      0.800000E-01      0.476120E-02
      0.850000E-01      0.413598E-02
      0.900000E-01      0.357049E-02
      0.950000E-01      0.306553E-02
      0.100000          0.262011E-02
      0.105000          0.223178E-02
      0.110000          0.189689E-02
      0.115000          0.161104E-02
      0.120000          0.136931E-02
      0.125000          0.116662E-02
      0.130000          0.997944E-03
      0.135000          0.858531E-03
      0.140000          0.744044E-03
      0.145000          0.650644E-03
      0.150000          0.575030E-03
      0.155000          0.514433E-03
      0.160000          0.466567E-03
      0.165000          0.429562E-03
      0.170000          0.401887E-03
      0.175000          0.382255E-03
      0.180000          0.369542E-03
      0.185000          0.362722E-03
      0.190000          0.360805E-03
      0.195000          0.362808E-03
      0.200000          0.367734E-03
      0.205000          0.374580E-03
      0.210000          0.382350E-03
      0.215000          0.390086E-03
      0.220000          0.396902E-03
      0.225000          0.402019E-03
      0.230000          0.404796E-03
      0.235000          0.404759E-03
      0.240000          0.401614E-03
      0.245000          0.395254E-03
      0.250000          0.385752E-03
      0.255000          0.373343E-03
      0.260000          0.358399E-03
      0.265000          0.341395E-03
      0.270000          0.322877E-03
      0.275000          0.303417E-03
      0.280000          0.283586E-03
      0.285000          0.263918E-03
      0.290000          0.244884E-03
      0.295000          0.226877E-03
      0.300000          0.210200E-03
      0.305000          0.195063E-03
      0.310000          0.181586E-03
      0.315000          0.169811E-03
      0.320000          0.159712E-03
      0.325000          0.151211E-03
      0.330000          0.144194E-03
      0.335000          0.138527E-03
      0.340000          0.134068E-03
      0.345000          0.130678E-03
      0.350000          0.128227E-03
      0.355000          0.126598E-03
      0.360000          0.125687E-03
      0.365000          0.125403E-03
      0.370000          0.125663E-03
      0.375000          0.126388E-03
      0.380000          0.127497E-03
      0.385000          0.128905E-03
      0.390000          0.130522E-03
      0.395000          0.132248E-03
      0.400000          0.133976E-03
      0.405000          0.135596E-03
      0.410000          0.137000E-03
      0.415000          0.138082E-03
      0.420000          0.138749E-03
      0.425000          0.138926E-03
      0.430000          0.138558E-03
      0.435000          0.137618E-03
      0.440000          0.136104E-03
      0.445000          0.134044E-03
      0.450000          0.131492E-03
      0.455000          0.128526E-03
      0.460000          0.125243E-03
      0.465000          0.121750E-03
      0.470000          0.118162E-03
      0.475000          0.114592E-03
      0.480000          0.111144E-03
      0.485000          0.107909E-03
      0.490000          0.104960E-03
      0.495000          0.102348E-03
      0.500000          0.100100E-03
