 I_abs(s)[cm^-1]/c[mg/ml]
       0.00000          0.142998E-01
      0.500000E-02      0.142384E-01
      0.100000E-01      0.140559E-01
      0.150000E-01      0.137568E-01
      0.200000E-01      0.133487E-01
      0.250000E-01      0.128416E-01
      0.300000E-01      0.122480E-01
      0.350000E-01      0.115818E-01
      0.400000E-01      0.108585E-01
      0.450000E-01      0.100939E-01
      0.500000E-01      0.930434E-02
      0.550000E-01      0.850550E-02
      0.600000E-01      0.771225E-02
      0.650000E-01      0.693815E-02
      0.700000E-01      0.619510E-02
      0.750000E-01      0.549305E-02
      0.800000E-01      0.483986E-02
      0.850000E-01      0.424122E-02
      0.900000E-01      0.370064E-02
      0.950000E-01      0.321963E-02
      0.100000          0.279779E-02
      0.105000          0.243311E-02
      0.110000          0.212224E-02
      0.115000          0.186077E-02
      0.120000          0.164357E-02
      0.125000          0.146509E-02
      0.130000          0.131964E-02
      0.135000          0.120163E-02
      0.140000          0.110581E-02
      0.145000          0.102740E-02
      0.150000          0.962235E-03
      0.155000          0.906787E-03
      0.160000          0.858223E-03
      0.165000          0.814366E-03
      0.170000          0.773647E-03
      0.175000          0.735029E-03
      0.180000          0.697915E-03
      0.185000          0.662051E-03
      0.190000          0.627425E-03
      0.195000          0.594176E-03
      0.200000          0.562513E-03
      0.205000          0.532651E-03
      0.210000          0.504759E-03
      0.215000          0.478932E-03
      0.220000          0.455174E-03
      0.225000          0.433398E-03
      0.230000          0.413436E-03
      0.235000          0.395060E-03
      0.240000          0.378003E-03
      0.245000          0.361988E-03
      0.250000          0.346751E-03
      0.255000          0.332066E-03
      0.260000          0.317757E-03
      0.265000          0.303710E-03
      0.270000          0.289876E-03
      0.275000          0.276271E-03
      0.280000          0.262966E-03
      0.285000          0.250072E-03
      0.290000          0.237731E-03
      0.295000          0.226093E-03
      0.300000          0.215304E-03
      0.305000          0.205490E-03
      0.310000          0.196742E-03
      0.315000          0.189114E-03
      0.320000          0.182608E-03
      0.325000          0.177184E-03
      0.330000          0.172753E-03
      0.335000          0.169190E-03
      0.340000          0.166336E-03
      0.345000          0.164014E-03
      0.350000          0.162039E-03
      0.355000          0.160226E-03
      0.360000          0.158402E-03
      0.365000          0.156418E-03
      0.370000          0.154152E-03
      0.375000          0.151516E-03
      0.380000          0.148458E-03
      0.385000          0.144962E-03
      0.390000          0.141046E-03
      0.395000          0.136758E-03
      0.400000          0.132173E-03
      0.405000          0.127380E-03
      0.410000          0.122484E-03
      0.415000          0.117590E-03
      0.420000          0.112804E-03
      0.425000          0.108223E-03
      0.430000          0.103930E-03
      0.435000          0.999911E-04
      0.440000          0.964545E-04
      0.445000          0.933474E-04
      0.450000          0.906774E-04
      0.455000          0.884336E-04
      0.460000          0.865888E-04
      0.465000          0.851029E-04
      0.470000          0.839261E-04
      0.475000          0.830029E-04
      0.480000          0.822758E-04
      0.485000          0.816888E-04
      0.490000          0.811902E-04
      0.495000          0.807356E-04
      0.500000          0.802896E-04
