 I_abs(s)[cm^-1]/c[mg/ml]
       0.00000          0.148476E-01
      0.500000E-02      0.147914E-01
      0.100000E-01      0.146244E-01
      0.150000E-01      0.143506E-01
      0.200000E-01      0.139766E-01
      0.250000E-01      0.135112E-01
      0.300000E-01      0.129654E-01
      0.350000E-01      0.123513E-01
      0.400000E-01      0.116823E-01
      0.450000E-01      0.109722E-01
      0.500000E-01      0.102349E-01
      0.550000E-01      0.948410E-02
      0.600000E-01      0.873234E-02
      0.650000E-01      0.799121E-02
      0.700000E-01      0.727081E-02
      0.750000E-01      0.657961E-02
      0.800000E-01      0.592435E-02
      0.850000E-01      0.531001E-02
      0.900000E-01      0.473985E-02
      0.950000E-01      0.421558E-02
      0.100000          0.373749E-02
      0.105000          0.330468E-02
      0.110000          0.291529E-02
      0.115000          0.256678E-02
      0.120000          0.225611E-02
      0.125000          0.198000E-02
      0.130000          0.173510E-02
      0.135000          0.151816E-02
      0.140000          0.132614E-02
      0.145000          0.115627E-02
      0.150000          0.100613E-02
      0.155000          0.873629E-03
      0.160000          0.756996E-03
      0.165000          0.654747E-03
      0.170000          0.565633E-03
      0.175000          0.488583E-03
      0.180000          0.422650E-03
      0.185000          0.366958E-03
      0.190000          0.320664E-03
      0.195000          0.282926E-03
      0.200000          0.252885E-03
      0.205000          0.229657E-03
      0.210000          0.212340E-03
      0.215000          0.200027E-03
      0.220000          0.191824E-03
      0.225000          0.186870E-03
      0.230000          0.184363E-03
      0.235000          0.183580E-03
      0.240000          0.183890E-03
      0.245000          0.184772E-03
      0.250000          0.185812E-03
      0.255000          0.186710E-03
      0.260000          0.187269E-03
      0.265000          0.187385E-03
      0.270000          0.187032E-03
      0.275000          0.186245E-03
      0.280000          0.185101E-03
      0.285000          0.183701E-03
      0.290000          0.182153E-03
      0.295000          0.180561E-03
      0.300000          0.179009E-03
      0.305000          0.177559E-03
      0.310000          0.176242E-03
      0.315000          0.175060E-03
      0.320000          0.173989E-03
      0.325000          0.172980E-03
      0.330000          0.171967E-03
      0.335000          0.170872E-03
      0.340000          0.169618E-03
      0.345000          0.168126E-03
      0.350000          0.166331E-03
      0.355000          0.164182E-03
      0.360000          0.161645E-03
      0.365000          0.158707E-03
      0.370000          0.155379E-03
      0.375000          0.151689E-03
      0.380000          0.147686E-03
      0.385000          0.143434E-03
      0.390000          0.139009E-03
      0.395000          0.134496E-03
      0.400000          0.129983E-03
      0.405000          0.125557E-03
      0.410000          0.121301E-03
      0.415000          0.117290E-03
      0.420000          0.113585E-03
      0.425000          0.110238E-03
      0.430000          0.107283E-03
      0.435000          0.104740E-03
      0.440000          0.102611E-03
      0.445000          0.100887E-03
      0.450000          0.995417E-04
      0.455000          0.985397E-04
      0.460000          0.978356E-04
      0.465000          0.973775E-04
      0.470000          0.971093E-04
      0.475000          0.969738E-04
      0.480000          0.969150E-04
      0.485000          0.968803E-04
      0.490000          0.968226E-04
      0.495000          0.967018E-04
      0.500000          0.964858E-04
