 I_abs(s)[cm^-1]/c[mg/ml]
       0.00000          0.145684E-01
      0.500000E-02      0.144700E-01
      0.100000E-01      0.141789E-01
      0.150000E-01      0.137073E-01
      0.200000E-01      0.130750E-01
      0.250000E-01      0.123074E-01
      0.300000E-01      0.114345E-01
      0.350000E-01      0.104888E-01
      0.400000E-01      0.950342E-02
      0.450000E-01      0.851018E-02
      0.500000E-01      0.753802E-02
      0.550000E-01      0.661164E-02
      0.600000E-01      0.575058E-02
      0.650000E-01      0.496874E-02
      0.700000E-01      0.427431E-02
      0.750000E-01      0.367010E-02
      0.800000E-01      0.315424E-02
      0.850000E-01      0.272109E-02
      0.900000E-01      0.236226E-02
      0.950000E-01      0.206770E-02
      0.100000          0.182671E-02
      0.105000          0.162885E-02
      0.110000          0.146459E-02
      0.115000          0.132579E-02
      0.120000          0.120594E-02
      0.125000          0.110024E-02
      0.130000          0.100541E-02
      0.135000          0.919498E-03
      0.140000          0.841541E-03
      0.145000          0.771217E-03
      0.150000          0.708542E-03
      0.155000          0.653598E-03
      0.160000          0.606347E-03
      0.165000          0.566510E-03
      0.170000          0.533536E-03
      0.175000          0.506627E-03
      0.180000          0.484800E-03
      0.185000          0.466989E-03
      0.190000          0.452134E-03
      0.195000          0.439272E-03
      0.200000          0.427597E-03
      0.205000          0.416496E-03
      0.210000          0.405555E-03
      0.215000          0.394538E-03
      0.220000          0.383355E-03
      0.225000          0.372015E-03
      0.230000          0.360583E-03
      0.235000          0.349140E-03
      0.240000          0.337752E-03
      0.245000          0.326461E-03
      0.250000          0.315279E-03
      0.255000          0.304199E-03
      0.260000          0.293204E-03
      0.265000          0.282289E-03
      0.270000          0.271471E-03
      0.275000          0.260801E-03
      0.280000          0.250367E-03
      0.285000          0.240287E-03
      0.290000          0.230699E-03
      0.295000          0.221746E-03
      0.300000          0.213562E-03
      0.305000          0.206249E-03
      0.310000          0.199873E-03
      0.315000          0.194448E-03
      0.320000          0.189938E-03
      0.325000          0.186262E-03
      0.330000          0.183298E-03
      0.335000          0.180897E-03
      0.340000          0.178896E-03
      0.345000          0.177131E-03
      0.350000          0.175449E-03
      0.355000          0.173720E-03
      0.360000          0.171837E-03
      0.365000          0.169725E-03
      0.370000          0.167337E-03
      0.375000          0.164652E-03
      0.380000          0.161672E-03
      0.385000          0.158417E-03
      0.390000          0.154920E-03
      0.395000          0.151224E-03
      0.400000          0.147376E-03
      0.405000          0.143430E-03
      0.410000          0.139441E-03
      0.415000          0.135466E-03
      0.420000          0.131566E-03
      0.425000          0.127799E-03
      0.430000          0.124225E-03
      0.435000          0.120902E-03
      0.440000          0.117880E-03
      0.445000          0.115205E-03
      0.450000          0.112910E-03
      0.455000          0.111016E-03
      0.460000          0.109526E-03
      0.465000          0.108429E-03
      0.470000          0.107693E-03
      0.475000          0.107271E-03
      0.480000          0.107098E-03
      0.485000          0.107100E-03
      0.490000          0.107190E-03
      0.495000          0.107283E-03
      0.500000          0.107290E-03
