 I_abs(s)[cm^-1]/c[mg/ml]
       0.00000          0.146479E-01
      0.500000E-02      0.145911E-01
      0.100000E-01      0.144219E-01
      0.150000E-01      0.141446E-01
      0.200000E-01      0.137657E-01
      0.250000E-01      0.132943E-01
      0.300000E-01      0.127412E-01
      0.350000E-01      0.121188E-01
      0.400000E-01      0.114406E-01
      0.450000E-01      0.107208E-01
      0.500000E-01      0.997340E-02
      0.550000E-01      0.921224E-02
      0.600000E-01      0.845033E-02
      0.650000E-01      0.769951E-02
      0.700000E-01      0.697024E-02
      0.750000E-01      0.627132E-02
      0.800000E-01      0.560983E-02
      0.850000E-01      0.499107E-02
      0.900000E-01      0.441862E-02
      0.950000E-01      0.389443E-02
      0.100000          0.341900E-02
      0.105000          0.299158E-02
      0.110000          0.261041E-02
      0.115000          0.227293E-02
      0.120000          0.197605E-02
      0.125000          0.171633E-02
      0.130000          0.149021E-02
      0.135000          0.129414E-02
      0.140000          0.112472E-02
      0.145000          0.978795E-03
      0.150000          0.853488E-03
      0.155000          0.746249E-03
      0.160000          0.654838E-03
      0.165000          0.577310E-03
      0.170000          0.511979E-03
      0.175000          0.457375E-03
      0.180000          0.412206E-03
      0.185000          0.375314E-03
      0.190000          0.345640E-03
      0.195000          0.322205E-03
      0.200000          0.304086E-03
      0.205000          0.290408E-03
      0.210000          0.280349E-03
      0.215000          0.273140E-03
      0.220000          0.268071E-03
      0.225000          0.264507E-03
      0.230000          0.261892E-03
      0.235000          0.259760E-03
      0.240000          0.257732E-03
      0.245000          0.255524E-03
      0.250000          0.252938E-03
      0.255000          0.249854E-03
      0.260000          0.246220E-03
      0.265000          0.242039E-03
      0.270000          0.237356E-03
      0.275000          0.232244E-03
      0.280000          0.226790E-03
      0.285000          0.221086E-03
      0.290000          0.215220E-03
      0.295000          0.209271E-03
      0.300000          0.203304E-03
      0.305000          0.197371E-03
      0.310000          0.191512E-03
      0.315000          0.185753E-03
      0.320000          0.180116E-03
      0.325000          0.174615E-03
      0.330000          0.169264E-03
      0.335000          0.164076E-03
      0.340000          0.159067E-03
      0.345000          0.154255E-03
      0.350000          0.149658E-03
      0.355000          0.145297E-03
      0.360000          0.141193E-03
      0.365000          0.137364E-03
      0.370000          0.133824E-03
      0.375000          0.130582E-03
      0.380000          0.127641E-03
      0.385000          0.124997E-03
      0.390000          0.122639E-03
      0.395000          0.120552E-03
      0.400000          0.118714E-03
      0.405000          0.117100E-03
      0.410000          0.115682E-03
      0.415000          0.114434E-03
      0.420000          0.113328E-03
      0.425000          0.112339E-03
      0.430000          0.111446E-03
      0.435000          0.110630E-03
      0.440000          0.109877E-03
      0.445000          0.109176E-03
      0.450000          0.108519E-03
      0.455000          0.107902E-03
      0.460000          0.107322E-03
      0.465000          0.106777E-03
      0.470000          0.106268E-03
      0.475000          0.105793E-03
      0.480000          0.105353E-03
      0.485000          0.104946E-03
      0.490000          0.104570E-03
      0.495000          0.104221E-03
      0.500000          0.103895E-03
