 I_abs(s)[cm^-1]/c[mg/ml]
       0.00000          0.146638E-01
      0.500000E-02      0.146088E-01
      0.100000E-01      0.144452E-01
      0.150000E-01      0.141766E-01
      0.200000E-01      0.138096E-01
      0.250000E-01      0.133523E-01
      0.300000E-01      0.128150E-01
      0.350000E-01      0.122095E-01
      0.400000E-01      0.115484E-01
      0.450000E-01      0.108449E-01
      0.500000E-01      0.101124E-01
      0.550000E-01      0.936396E-02
      0.600000E-01      0.861200E-02
      0.650000E-01      0.786790E-02
      0.700000E-01      0.714176E-02
      0.750000E-01      0.644227E-02
      0.800000E-01      0.577656E-02
      0.850000E-01      0.515015E-02
      0.900000E-01      0.456702E-02
      0.950000E-01      0.402966E-02
      0.100000          0.353923E-02
      0.105000          0.309570E-02
      0.110000          0.269806E-02
      0.115000          0.234450E-02
      0.120000          0.203258E-02
      0.125000          0.175946E-02
      0.130000          0.152200E-02
      0.135000          0.131696E-02
      0.140000          0.114106E-02
      0.145000          0.991104E-03
      0.150000          0.864035E-03
      0.155000          0.756974E-03
      0.160000          0.667259E-03
      0.165000          0.592446E-03
      0.170000          0.530323E-03
      0.175000          0.478900E-03
      0.180000          0.436403E-03
      0.185000          0.401262E-03
      0.190000          0.372104E-03
      0.195000          0.347740E-03
      0.200000          0.327152E-03
      0.205000          0.309490E-03
      0.210000          0.294052E-03
      0.215000          0.280282E-03
      0.220000          0.267752E-03
      0.225000          0.256151E-03
      0.230000          0.245269E-03
      0.235000          0.234984E-03
      0.240000          0.225238E-03
      0.245000          0.216030E-03
      0.250000          0.207391E-03
      0.255000          0.199370E-03
      0.260000          0.192022E-03
      0.265000          0.185397E-03
      0.270000          0.179524E-03
      0.275000          0.174413E-03
      0.280000          0.170046E-03
      0.285000          0.166380E-03
      0.290000          0.163343E-03
      0.295000          0.160847E-03
      0.300000          0.158784E-03
      0.305000          0.157039E-03
      0.310000          0.155493E-03
      0.315000          0.154031E-03
      0.320000          0.152550E-03
      0.325000          0.150961E-03
      0.330000          0.149194E-03
      0.335000          0.147200E-03
      0.340000          0.144954E-03
      0.345000          0.142453E-03
      0.350000          0.139715E-03
      0.355000          0.136776E-03
      0.360000          0.133687E-03
      0.365000          0.130510E-03
      0.370000          0.127313E-03
      0.375000          0.124168E-03
      0.380000          0.121142E-03
      0.385000          0.118298E-03
      0.390000          0.115691E-03
      0.395000          0.113364E-03
      0.400000          0.111345E-03
      0.405000          0.109648E-03
      0.410000          0.108275E-03
      0.415000          0.107210E-03
      0.420000          0.106428E-03
      0.425000          0.105889E-03
      0.430000          0.105547E-03
      0.435000          0.105347E-03
      0.440000          0.105233E-03
      0.445000          0.105145E-03
      0.450000          0.105027E-03
      0.455000          0.104827E-03
      0.460000          0.104497E-03
      0.465000          0.103999E-03
      0.470000          0.103305E-03
      0.475000          0.102394E-03
      0.480000          0.101258E-03
      0.485000          0.998972E-04
      0.490000          0.983215E-04
      0.495000          0.965494E-04
      0.500000          0.946058E-04
