 I_abs(s)[cm^-1]/c[mg/ml]
       0.00000          0.135625E-01
      0.500000E-02      0.134904E-01
      0.100000E-01      0.132768E-01
      0.150000E-01      0.129291E-01
      0.200000E-01      0.124592E-01
      0.250000E-01      0.118830E-01
      0.300000E-01      0.112193E-01
      0.350000E-01      0.104891E-01
      0.400000E-01      0.971451E-02
      0.450000E-01      0.891757E-02
      0.500000E-01      0.811934E-02
      0.550000E-01      0.733905E-02
      0.600000E-01      0.659330E-02
      0.650000E-01      0.589555E-02
      0.700000E-01      0.525580E-02
      0.750000E-01      0.468050E-02
      0.800000E-01      0.417260E-02
      0.850000E-01      0.373192E-02
      0.900000E-01      0.335550E-02
      0.950000E-01      0.303820E-02
      0.100000          0.277330E-02
      0.105000          0.255310E-02
      0.110000          0.236951E-02
      0.115000          0.221464E-02
      0.120000          0.208115E-02
      0.125000          0.196266E-02
      0.130000          0.185392E-02
      0.135000          0.175092E-02
      0.140000          0.165088E-02
      0.145000          0.155217E-02
      0.150000          0.145412E-02
      0.155000          0.135682E-02
      0.160000          0.126094E-02
      0.165000          0.116743E-02
      0.170000          0.107739E-02
      0.175000          0.991853E-03
      0.180000          0.911702E-03
      0.185000          0.837551E-03
      0.190000          0.769736E-03
      0.195000          0.708307E-03
      0.200000          0.653067E-03
      0.205000          0.603625E-03
      0.210000          0.559460E-03
      0.215000          0.519992E-03
      0.220000          0.484635E-03
      0.225000          0.452850E-03
      0.230000          0.424178E-03
      0.235000          0.398250E-03
      0.240000          0.374790E-03
      0.245000          0.353602E-03
      0.250000          0.334548E-03
      0.255000          0.317523E-03
      0.260000          0.302427E-03
      0.265000          0.289141E-03
      0.270000          0.277515E-03
      0.275000          0.267358E-03
      0.280000          0.258435E-03
      0.285000          0.250482E-03
      0.290000          0.243213E-03
      0.295000          0.236344E-03
      0.300000          0.229609E-03
      0.305000          0.222781E-03
      0.310000          0.215686E-03
      0.315000          0.208212E-03
      0.320000          0.200317E-03
      0.325000          0.192025E-03
      0.330000          0.183416E-03
      0.335000          0.174620E-03
      0.340000          0.165795E-03
      0.345000          0.157113E-03
      0.350000          0.148743E-03
      0.355000          0.140838E-03
      0.360000          0.133517E-03
      0.365000          0.126863E-03
      0.370000          0.120917E-03
      0.375000          0.115678E-03
      0.380000          0.111107E-03
      0.385000          0.107137E-03
      0.390000          0.103679E-03
      0.395000          0.100633E-03
      0.400000          0.978993E-04
      0.405000          0.953867E-04
      0.410000          0.930184E-04
      0.415000          0.907375E-04
      0.420000          0.885089E-04
      0.425000          0.863188E-04
      0.430000          0.841722E-04
      0.435000          0.820891E-04
      0.440000          0.800993E-04
      0.445000          0.782373E-04
      0.450000          0.765368E-04
      0.455000          0.750265E-04
      0.460000          0.737272E-04
      0.465000          0.726492E-04
      0.470000          0.717922E-04
      0.475000          0.711454E-04
      0.480000          0.706893E-04
      0.485000          0.703977E-04
      0.490000          0.702405E-04
      0.495000          0.701858E-04
      0.500000          0.702025E-04
