 I_abs(s)[cm^-1]/c[mg/ml]
       0.00000          0.141508E-01
      0.500000E-02      0.140810E-01
      0.100000E-01      0.138739E-01
      0.150000E-01      0.135359E-01
      0.200000E-01      0.130774E-01
      0.250000E-01      0.125122E-01
      0.300000E-01      0.118569E-01
      0.350000E-01      0.111303E-01
      0.400000E-01      0.103522E-01
      0.450000E-01      0.954267E-02
      0.500000E-01      0.872151E-02
      0.550000E-01      0.790706E-02
      0.600000E-01      0.711580E-02
      0.650000E-01      0.636172E-02
      0.700000E-01      0.565603E-02
      0.750000E-01      0.500697E-02
      0.800000E-01      0.441972E-02
      0.850000E-01      0.389661E-02
      0.900000E-01      0.343735E-02
      0.950000E-01      0.303939E-02
      0.100000          0.269838E-02
      0.105000          0.240867E-02
      0.110000          0.216374E-02
      0.115000          0.195674E-02
      0.120000          0.178085E-02
      0.125000          0.162966E-02
      0.130000          0.149744E-02
      0.135000          0.137932E-02
      0.140000          0.127138E-02
      0.145000          0.117070E-02
      0.150000          0.107526E-02
      0.155000          0.983903E-03
      0.160000          0.896156E-03
      0.165000          0.812079E-03
      0.170000          0.732103E-03
      0.175000          0.656865E-03
      0.180000          0.587068E-03
      0.185000          0.523362E-03
      0.190000          0.466255E-03
      0.195000          0.416056E-03
      0.200000          0.372847E-03
      0.205000          0.336477E-03
      0.210000          0.306584E-03
      0.215000          0.282631E-03
      0.220000          0.263946E-03
      0.225000          0.249776E-03
      0.230000          0.239334E-03
      0.235000          0.231845E-03
      0.240000          0.226582E-03
      0.245000          0.222896E-03
      0.250000          0.220235E-03
      0.255000          0.218155E-03
      0.260000          0.216318E-03
      0.265000          0.214491E-03
      0.270000          0.212531E-03
      0.275000          0.210373E-03
      0.280000          0.208011E-03
      0.285000          0.205480E-03
      0.290000          0.202841E-03
      0.295000          0.200166E-03
      0.300000          0.197523E-03
      0.305000          0.194968E-03
      0.310000          0.192539E-03
      0.315000          0.190249E-03
      0.320000          0.188091E-03
      0.325000          0.186035E-03
      0.330000          0.184031E-03
      0.335000          0.182019E-03
      0.340000          0.179930E-03
      0.345000          0.177695E-03
      0.350000          0.175253E-03
      0.355000          0.172553E-03
      0.360000          0.169558E-03
      0.365000          0.166255E-03
      0.370000          0.162647E-03
      0.375000          0.158761E-03
      0.380000          0.154642E-03
      0.385000          0.150352E-03
      0.390000          0.145965E-03
      0.395000          0.141560E-03
      0.400000          0.137222E-03
      0.405000          0.133029E-03
      0.410000          0.129054E-03
      0.415000          0.125357E-03
      0.420000          0.121982E-03
      0.425000          0.118959E-03
      0.430000          0.116297E-03
      0.435000          0.113991E-03
      0.440000          0.112022E-03
      0.445000          0.110355E-03
      0.450000          0.108948E-03
      0.455000          0.107753E-03
      0.460000          0.106720E-03
      0.465000          0.105797E-03
      0.470000          0.104939E-03
      0.475000          0.104104E-03
      0.480000          0.103258E-03
      0.485000          0.102375E-03
      0.490000          0.101435E-03
      0.495000          0.100429E-03
      0.500000          0.993515E-04
