 I_abs(s)[cm^-1]/c[mg/ml]
       0.00000          0.145446E-01
      0.500000E-02      0.144691E-01
      0.100000E-01      0.142450E-01
      0.150000E-01      0.138791E-01
      0.200000E-01      0.133823E-01
      0.250000E-01      0.127695E-01
      0.300000E-01      0.120584E-01
      0.350000E-01      0.112688E-01
      0.400000E-01      0.104219E-01
      0.450000E-01      0.953941E-02
      0.500000E-01      0.864248E-02
      0.550000E-01      0.775105E-02
      0.600000E-01      0.688309E-02
      0.650000E-01      0.605412E-02
      0.700000E-01      0.527681E-02
      0.750000E-01      0.456073E-02
      0.800000E-01      0.391239E-02
      0.850000E-01      0.333526E-02
      0.900000E-01      0.283009E-02
      0.950000E-01      0.239521E-02
      0.100000          0.202697E-02
      0.105000          0.172021E-02
      0.110000          0.146870E-02
      0.115000          0.126561E-02
      0.120000          0.110390E-02
      0.125000          0.976659E-03
      0.130000          0.877410E-03
      0.135000          0.800272E-03
      0.140000          0.740096E-03
      0.145000          0.692528E-03
      0.150000          0.654003E-03
      0.155000          0.621705E-03
      0.160000          0.593492E-03
      0.165000          0.567803E-03
      0.170000          0.543554E-03
      0.175000          0.520043E-03
      0.180000          0.496855E-03
      0.185000          0.473793E-03
      0.190000          0.450804E-03
      0.195000          0.427943E-03
      0.200000          0.405331E-03
      0.205000          0.383134E-03
      0.210000          0.361546E-03
      0.215000          0.340780E-03
      0.220000          0.321054E-03
      0.225000          0.302587E-03
      0.230000          0.285587E-03
      0.235000          0.270241E-03
      0.240000          0.256703E-03
      0.245000          0.245086E-03
      0.250000          0.235451E-03
      0.255000          0.227799E-03
      0.260000          0.222069E-03
      0.265000          0.218139E-03
      0.270000          0.215827E-03
      0.275000          0.214902E-03
      0.280000          0.215096E-03
      0.285000          0.216113E-03
      0.290000          0.217649E-03
      0.295000          0.219402E-03
      0.300000          0.221091E-03
      0.305000          0.222464E-03
      0.310000          0.223307E-03
      0.315000          0.223452E-03
      0.320000          0.222782E-03
      0.325000          0.221225E-03
      0.330000          0.218760E-03
      0.335000          0.215407E-03
      0.340000          0.211222E-03
      0.345000          0.206292E-03
      0.350000          0.200729E-03
      0.355000          0.194658E-03
      0.360000          0.188218E-03
      0.365000          0.181549E-03
      0.370000          0.174792E-03
      0.375000          0.168080E-03
      0.380000          0.161538E-03
      0.385000          0.155280E-03
      0.390000          0.149401E-03
      0.395000          0.143984E-03
      0.400000          0.139088E-03
      0.405000          0.134756E-03
      0.410000          0.131008E-03
      0.415000          0.127846E-03
      0.420000          0.125250E-03
      0.425000          0.123184E-03
      0.430000          0.121596E-03
      0.435000          0.120419E-03
      0.440000          0.119578E-03
      0.445000          0.118991E-03
      0.450000          0.118577E-03
      0.455000          0.118253E-03
      0.460000          0.117944E-03
      0.465000          0.117586E-03
      0.470000          0.117126E-03
      0.475000          0.116523E-03
      0.480000          0.115753E-03
      0.485000          0.114807E-03
      0.490000          0.113690E-03
      0.495000          0.112417E-03
      0.500000          0.111015E-03
