 I_abs(s)[cm^-1]/c[mg/ml]
       0.00000          0.144634E-01
      0.500000E-02      0.143953E-01
      0.100000E-01      0.141929E-01
      0.150000E-01      0.138621E-01
      0.200000E-01      0.134120E-01
      0.250000E-01      0.128552E-01
      0.300000E-01      0.122068E-01
      0.350000E-01      0.114836E-01
      0.400000E-01      0.107042E-01
      0.450000E-01      0.988729E-02
      0.500000E-01      0.905155E-02
      0.550000E-01      0.821479E-02
      0.600000E-01      0.739335E-02
      0.650000E-01      0.660161E-02
      0.700000E-01      0.585163E-02
      0.750000E-01      0.515290E-02
      0.800000E-01      0.451223E-02
      0.850000E-01      0.393381E-02
      0.900000E-01      0.341932E-02
      0.950000E-01      0.296822E-02
      0.100000          0.257801E-02
      0.105000          0.224470E-02
      0.110000          0.196312E-02
      0.115000          0.172740E-02
      0.120000          0.153131E-02
      0.125000          0.136862E-02
      0.130000          0.123338E-02
      0.135000          0.112019E-02
      0.140000          0.102427E-02
      0.145000          0.941639E-03
      0.150000          0.869102E-03
      0.155000          0.804226E-03
      0.160000          0.745278E-03
      0.165000          0.691128E-03
      0.170000          0.641126E-03
      0.175000          0.594980E-03
      0.180000          0.552635E-03
      0.185000          0.514164E-03
      0.190000          0.479674E-03
      0.195000          0.449237E-03
      0.200000          0.422845E-03
      0.205000          0.400381E-03
      0.210000          0.381614E-03
      0.215000          0.366211E-03
      0.220000          0.353755E-03
      0.225000          0.343777E-03
      0.230000          0.335785E-03
      0.235000          0.329294E-03
      0.240000          0.323855E-03
      0.245000          0.319072E-03
      0.250000          0.314616E-03
      0.255000          0.310233E-03
      0.260000          0.305741E-03
      0.265000          0.301027E-03
      0.270000          0.296033E-03
      0.275000          0.290745E-03
      0.280000          0.285183E-03
      0.285000          0.279382E-03
      0.290000          0.273387E-03
      0.295000          0.267242E-03
      0.300000          0.260980E-03
      0.305000          0.254629E-03
      0.310000          0.248201E-03
      0.315000          0.241704E-03
      0.320000          0.235133E-03
      0.325000          0.228484E-03
      0.330000          0.221752E-03
      0.335000          0.214937E-03
      0.340000          0.208044E-03
      0.345000          0.201087E-03
      0.350000          0.194089E-03
      0.355000          0.187085E-03
      0.360000          0.180114E-03
      0.365000          0.173224E-03
      0.370000          0.166468E-03
      0.375000          0.159899E-03
      0.380000          0.153570E-03
      0.385000          0.147533E-03
      0.390000          0.141835E-03
      0.395000          0.136514E-03
      0.400000          0.131605E-03
      0.405000          0.127130E-03
      0.410000          0.123103E-03
      0.415000          0.119531E-03
      0.420000          0.116407E-03
      0.425000          0.113718E-03
      0.430000          0.111441E-03
      0.435000          0.109543E-03
      0.440000          0.107986E-03
      0.445000          0.106728E-03
      0.450000          0.105719E-03
      0.455000          0.104909E-03
      0.460000          0.104246E-03
      0.465000          0.103682E-03
      0.470000          0.103170E-03
      0.475000          0.102667E-03
      0.480000          0.102139E-03
      0.485000          0.101557E-03
      0.490000          0.100901E-03
      0.495000          0.100159E-03
      0.500000          0.993271E-04
