 I_abs(s)[cm^-1]/c[mg/ml]
       0.00000          0.145507E-01
      0.500000E-02      0.144908E-01
      0.100000E-01      0.143126E-01
      0.150000E-01      0.140205E-01
      0.200000E-01      0.136215E-01
      0.250000E-01      0.131253E-01
      0.300000E-01      0.125436E-01
      0.350000E-01      0.118895E-01
      0.400000E-01      0.111776E-01
      0.450000E-01      0.104231E-01
      0.500000E-01      0.964103E-02
      0.550000E-01      0.884644E-02
      0.600000E-01      0.805339E-02
      0.650000E-01      0.727477E-02
      0.700000E-01      0.652200E-02
      0.750000E-01      0.580475E-02
      0.800000E-01      0.513082E-02
      0.850000E-01      0.450608E-02
      0.900000E-01      0.393450E-02
      0.950000E-01      0.341822E-02
      0.100000          0.295774E-02
      0.105000          0.255208E-02
      0.110000          0.219906E-02
      0.115000          0.189549E-02
      0.120000          0.163745E-02
      0.125000          0.142055E-02
      0.130000          0.124013E-02
      0.135000          0.109146E-02
      0.140000          0.969925E-03
      0.145000          0.871146E-03
      0.150000          0.791090E-03
      0.155000          0.726141E-03
      0.160000          0.673133E-03
      0.165000          0.629372E-03
      0.170000          0.592619E-03
      0.175000          0.561071E-03
      0.180000          0.533319E-03
      0.185000          0.508303E-03
      0.190000          0.485258E-03
      0.195000          0.463664E-03
      0.200000          0.443195E-03
      0.205000          0.423665E-03
      0.210000          0.404995E-03
      0.215000          0.387167E-03
      0.220000          0.370200E-03
      0.225000          0.354124E-03
      0.230000          0.338962E-03
      0.235000          0.324723E-03
      0.240000          0.311391E-03
      0.245000          0.298929E-03
      0.250000          0.287277E-03
      0.255000          0.276359E-03
      0.260000          0.266091E-03
      0.265000          0.256382E-03
      0.270000          0.247150E-03
      0.275000          0.238319E-03
      0.280000          0.229828E-03
      0.285000          0.221636E-03
      0.290000          0.213717E-03
      0.295000          0.206067E-03
      0.300000          0.198694E-03
      0.305000          0.191621E-03
      0.310000          0.184880E-03
      0.315000          0.178506E-03
      0.320000          0.172533E-03
      0.325000          0.166994E-03
      0.330000          0.161909E-03
      0.335000          0.157293E-03
      0.340000          0.153147E-03
      0.345000          0.149463E-03
      0.350000          0.146221E-03
      0.355000          0.143392E-03
      0.360000          0.140940E-03
      0.365000          0.138825E-03
      0.370000          0.137005E-03
      0.375000          0.135435E-03
      0.380000          0.134074E-03
      0.385000          0.132883E-03
      0.390000          0.131829E-03
      0.395000          0.130880E-03
      0.400000          0.130010E-03
      0.405000          0.129199E-03
      0.410000          0.128428E-03
      0.415000          0.127684E-03
      0.420000          0.126954E-03
      0.425000          0.126230E-03
      0.430000          0.125504E-03
      0.435000          0.124773E-03
      0.440000          0.124030E-03
      0.445000          0.123275E-03
      0.450000          0.122505E-03
      0.455000          0.121721E-03
      0.460000          0.120923E-03
      0.465000          0.120111E-03
      0.470000          0.119288E-03
      0.475000          0.118455E-03
      0.480000          0.117612E-03
      0.485000          0.116759E-03
      0.490000          0.115895E-03
      0.495000          0.115016E-03
      0.500000          0.114118E-03
