 I_abs(s)[cm^-1]/c[mg/ml]
       0.00000          0.146462E-01
      0.500000E-02      0.145851E-01
      0.100000E-01      0.144033E-01
      0.150000E-01      0.141056E-01
      0.200000E-01      0.136996E-01
      0.250000E-01      0.131953E-01
      0.300000E-01      0.126050E-01
      0.350000E-01      0.119428E-01
      0.400000E-01      0.112237E-01
      0.450000E-01      0.104633E-01
      0.500000E-01      0.967720E-02
      0.550000E-01      0.888037E-02
      0.600000E-01      0.808687E-02
      0.650000E-01      0.730934E-02
      0.700000E-01      0.655876E-02
      0.750000E-01      0.584425E-02
      0.800000E-01      0.517297E-02
      0.850000E-01      0.455015E-02
      0.900000E-01      0.397914E-02
      0.950000E-01      0.346159E-02
      0.100000          0.299763E-02
      0.105000          0.258612E-02
      0.110000          0.222487E-02
      0.115000          0.191091E-02
      0.120000          0.164074E-02
      0.125000          0.141049E-02
      0.130000          0.121615E-02
      0.135000          0.105370E-02
      0.140000          0.919234E-03
      0.145000          0.809023E-03
      0.150000          0.719591E-03
      0.155000          0.647738E-03
      0.160000          0.590557E-03
      0.165000          0.545433E-03
      0.170000          0.510037E-03
      0.175000          0.482314E-03
      0.180000          0.460470E-03
      0.185000          0.442959E-03
      0.190000          0.428465E-03
      0.195000          0.415896E-03
      0.200000          0.404369E-03
      0.205000          0.393196E-03
      0.210000          0.381871E-03
      0.215000          0.370054E-03
      0.220000          0.357556E-03
      0.225000          0.344313E-03
      0.230000          0.330371E-03
      0.235000          0.315857E-03
      0.240000          0.300962E-03
      0.245000          0.285915E-03
      0.250000          0.270964E-03
      0.255000          0.256356E-03
      0.260000          0.242324E-03
      0.265000          0.229072E-03
      0.270000          0.216771E-03
      0.275000          0.205549E-03
      0.280000          0.195492E-03
      0.285000          0.186644E-03
      0.290000          0.179010E-03
      0.295000          0.172559E-03
      0.300000          0.167234E-03
      0.305000          0.162951E-03
      0.310000          0.159612E-03
      0.315000          0.157105E-03
      0.320000          0.155315E-03
      0.325000          0.154124E-03
      0.330000          0.153417E-03
      0.335000          0.153087E-03
      0.340000          0.153033E-03
      0.345000          0.153165E-03
      0.350000          0.153402E-03
      0.355000          0.153677E-03
      0.360000          0.153930E-03
      0.365000          0.154114E-03
      0.370000          0.154191E-03
      0.375000          0.154129E-03
      0.380000          0.153907E-03
      0.385000          0.153507E-03
      0.390000          0.152919E-03
      0.395000          0.152139E-03
      0.400000          0.151166E-03
      0.405000          0.150004E-03
      0.410000          0.148664E-03
      0.415000          0.147158E-03
      0.420000          0.145505E-03
      0.425000          0.143725E-03
      0.430000          0.141845E-03
      0.435000          0.139891E-03
      0.440000          0.137894E-03
      0.445000          0.135882E-03
      0.450000          0.133886E-03
      0.455000          0.131931E-03
      0.460000          0.130041E-03
      0.465000          0.128235E-03
      0.470000          0.126526E-03
      0.475000          0.124919E-03
      0.480000          0.123416E-03
      0.485000          0.122011E-03
      0.490000          0.120692E-03
      0.495000          0.119444E-03
      0.500000          0.118248E-03
