 I_abs(s)[cm^-1]/c[mg/ml]
       0.00000          0.145030E-01
      0.500000E-02      0.144352E-01
      0.100000E-01      0.142338E-01
      0.150000E-01      0.139045E-01
      0.200000E-01      0.134566E-01
      0.250000E-01      0.129028E-01
      0.300000E-01      0.122579E-01
      0.350000E-01      0.115390E-01
      0.400000E-01      0.107644E-01
      0.450000E-01      0.995268E-02
      0.500000E-01      0.912230E-02
      0.550000E-01      0.829076E-02
      0.600000E-01      0.747405E-02
      0.650000E-01      0.668617E-02
      0.700000E-01      0.593879E-02
      0.750000E-01      0.524101E-02
      0.800000E-01      0.459935E-02
      0.850000E-01      0.401775E-02
      0.900000E-01      0.349776E-02
      0.950000E-01      0.303883E-02
      0.100000          0.263860E-02
      0.105000          0.229332E-02
      0.110000          0.199819E-02
      0.115000          0.174782E-02
      0.120000          0.153651E-02
      0.125000          0.135861E-02
      0.130000          0.120872E-02
      0.135000          0.108197E-02
      0.140000          0.974046E-03
      0.145000          0.881324E-03
      0.150000          0.800851E-03
      0.155000          0.730321E-03
      0.160000          0.668001E-03
      0.165000          0.612645E-03
      0.170000          0.563394E-03
      0.175000          0.519665E-03
      0.180000          0.481063E-03
      0.185000          0.447294E-03
      0.190000          0.418099E-03
      0.195000          0.393203E-03
      0.200000          0.372288E-03
      0.205000          0.354982E-03
      0.210000          0.340854E-03
      0.215000          0.329431E-03
      0.220000          0.320215E-03
      0.225000          0.312708E-03
      0.230000          0.306430E-03
      0.235000          0.300946E-03
      0.240000          0.295879E-03
      0.245000          0.290922E-03
      0.250000          0.285847E-03
      0.255000          0.280503E-03
      0.260000          0.274811E-03
      0.265000          0.268761E-03
      0.270000          0.262392E-03
      0.275000          0.255788E-03
      0.280000          0.249057E-03
      0.285000          0.242323E-03
      0.290000          0.235709E-03
      0.295000          0.229330E-03
      0.300000          0.223280E-03
      0.305000          0.217634E-03
      0.310000          0.212435E-03
      0.315000          0.207699E-03
      0.320000          0.203416E-03
      0.325000          0.199551E-03
      0.330000          0.196049E-03
      0.335000          0.192839E-03
      0.340000          0.189844E-03
      0.345000          0.186985E-03
      0.350000          0.184184E-03
      0.355000          0.181375E-03
      0.360000          0.178502E-03
      0.365000          0.175527E-03
      0.370000          0.172427E-03
      0.375000          0.169199E-03
      0.380000          0.165853E-03
      0.385000          0.162414E-03
      0.390000          0.158918E-03
      0.395000          0.155406E-03
      0.400000          0.151923E-03
      0.405000          0.148509E-03
      0.410000          0.145201E-03
      0.415000          0.142028E-03
      0.420000          0.139007E-03
      0.425000          0.136145E-03
      0.430000          0.133436E-03
      0.435000          0.130866E-03
      0.440000          0.128413E-03
      0.445000          0.126047E-03
      0.450000          0.123738E-03
      0.455000          0.121459E-03
      0.460000          0.119183E-03
      0.465000          0.116891E-03
      0.470000          0.114575E-03
      0.475000          0.112232E-03
      0.480000          0.109873E-03
      0.485000          0.107514E-03
      0.490000          0.105182E-03
      0.495000          0.102907E-03
      0.500000          0.100722E-03
