 I_abs(s)[cm^-1]/c[mg/ml]
       0.00000          0.145745E-01
      0.500000E-02      0.145026E-01
      0.100000E-01      0.142890E-01
      0.150000E-01      0.139399E-01
      0.200000E-01      0.134652E-01
      0.250000E-01      0.128786E-01
      0.300000E-01      0.121960E-01
      0.350000E-01      0.114359E-01
      0.400000E-01      0.106180E-01
      0.450000E-01      0.976237E-02
      0.500000E-01      0.888915E-02
      0.550000E-01      0.801734E-02
      0.600000E-01      0.716440E-02
      0.650000E-01      0.634565E-02
      0.700000E-01      0.557386E-02
      0.750000E-01      0.485904E-02
      0.800000E-01      0.420831E-02
      0.850000E-01      0.362590E-02
      0.900000E-01      0.311337E-02
      0.950000E-01      0.266982E-02
      0.100000          0.229228E-02
      0.105000          0.197608E-02
      0.110000          0.171533E-02
      0.115000          0.150330E-02
      0.120000          0.133287E-02
      0.125000          0.119692E-02
      0.130000          0.108860E-02
      0.135000          0.100163E-02
      0.140000          0.930485E-03
      0.145000          0.870476E-03
      0.150000          0.817833E-03
      0.155000          0.769684E-03
      0.160000          0.724003E-03
      0.165000          0.679516E-03
      0.170000          0.635587E-03
      0.175000          0.592083E-03
      0.180000          0.549242E-03
      0.185000          0.507547E-03
      0.190000          0.467604E-03
      0.195000          0.430045E-03
      0.200000          0.395453E-03
      0.205000          0.364301E-03
      0.210000          0.336913E-03
      0.215000          0.313451E-03
      0.220000          0.293914E-03
      0.225000          0.278146E-03
      0.230000          0.265862E-03
      0.235000          0.256677E-03
      0.240000          0.250134E-03
      0.245000          0.245743E-03
      0.250000          0.243005E-03
      0.255000          0.241444E-03
      0.260000          0.240627E-03
      0.265000          0.240179E-03
      0.270000          0.239795E-03
      0.275000          0.239243E-03
      0.280000          0.238365E-03
      0.285000          0.237070E-03
      0.290000          0.235327E-03
      0.295000          0.233151E-03
      0.300000          0.230593E-03
      0.305000          0.227726E-03
      0.310000          0.224635E-03
      0.315000          0.221403E-03
      0.320000          0.218105E-03
      0.325000          0.214799E-03
      0.330000          0.211529E-03
      0.335000          0.208316E-03
      0.340000          0.205164E-03
      0.345000          0.202061E-03
      0.350000          0.198986E-03
      0.355000          0.195908E-03
      0.360000          0.192799E-03
      0.365000          0.189630E-03
      0.370000          0.186381E-03
      0.375000          0.183043E-03
      0.380000          0.179612E-03
      0.385000          0.176100E-03
      0.390000          0.172525E-03
      0.395000          0.168910E-03
      0.400000          0.165286E-03
      0.405000          0.161680E-03
      0.410000          0.158120E-03
      0.415000          0.154626E-03
      0.420000          0.151213E-03
      0.425000          0.147888E-03
      0.430000          0.144649E-03
      0.435000          0.141489E-03
      0.440000          0.138395E-03
      0.445000          0.135350E-03
      0.450000          0.132339E-03
      0.455000          0.129348E-03
      0.460000          0.126368E-03
      0.465000          0.123398E-03
      0.470000          0.120441E-03
      0.475000          0.117513E-03
      0.480000          0.114632E-03
      0.485000          0.111827E-03
      0.490000          0.109127E-03
      0.495000          0.106566E-03
      0.500000          0.104176E-03
