 I_abs(s)[cm^-1]/c[mg/ml]
       0.00000          0.139064E-01
      0.500000E-02      0.138358E-01
      0.100000E-01      0.136260E-01
      0.150000E-01      0.132836E-01
      0.200000E-01      0.128187E-01
      0.250000E-01      0.122451E-01
      0.300000E-01      0.115795E-01
      0.350000E-01      0.108405E-01
      0.400000E-01      0.100481E-01
      0.450000E-01      0.922252E-02
      0.500000E-01      0.838390E-02
      0.550000E-01      0.755106E-02
      0.600000E-01      0.674104E-02
      0.650000E-01      0.596858E-02
      0.700000E-01      0.524568E-02
      0.750000E-01      0.458142E-02
      0.800000E-01      0.398186E-02
      0.850000E-01      0.345015E-02
      0.900000E-01      0.298674E-02
      0.950000E-01      0.258971E-02
      0.100000          0.225514E-02
      0.105000          0.197762E-02
      0.110000          0.175067E-02
      0.115000          0.156725E-02
      0.120000          0.142013E-02
      0.125000          0.130232E-02
      0.130000          0.120730E-02
      0.135000          0.112932E-02
      0.140000          0.106349E-02
      0.145000          0.100586E-02
      0.150000          0.953434E-03
      0.155000          0.904096E-03
      0.160000          0.856509E-03
      0.165000          0.809991E-03
      0.170000          0.764365E-03
      0.175000          0.719810E-03
      0.180000          0.676726E-03
      0.185000          0.635603E-03
      0.190000          0.596928E-03
      0.195000          0.561105E-03
      0.200000          0.528409E-03
      0.205000          0.498957E-03
      0.210000          0.472712E-03
      0.215000          0.449487E-03
      0.220000          0.428982E-03
      0.225000          0.410807E-03
      0.230000          0.394526E-03
      0.235000          0.379687E-03
      0.240000          0.365860E-03
      0.245000          0.352657E-03
      0.250000          0.339754E-03
      0.255000          0.326901E-03
      0.260000          0.313929E-03
      0.265000          0.300745E-03
      0.270000          0.287329E-03
      0.275000          0.273721E-03
      0.280000          0.260009E-03
      0.285000          0.246317E-03
      0.290000          0.232791E-03
      0.295000          0.219588E-03
      0.300000          0.206862E-03
      0.305000          0.194759E-03
      0.310000          0.183408E-03
      0.315000          0.172915E-03
      0.320000          0.163364E-03
      0.325000          0.154813E-03
      0.330000          0.147292E-03
      0.335000          0.140807E-03
      0.340000          0.135341E-03
      0.345000          0.130857E-03
      0.350000          0.127297E-03
      0.355000          0.124589E-03
      0.360000          0.122649E-03
      0.365000          0.121383E-03
      0.370000          0.120689E-03
      0.375000          0.120463E-03
      0.380000          0.120601E-03
      0.385000          0.120999E-03
      0.390000          0.121557E-03
      0.395000          0.122184E-03
      0.400000          0.122795E-03
      0.405000          0.123315E-03
      0.410000          0.123682E-03
      0.415000          0.123846E-03
      0.420000          0.123770E-03
      0.425000          0.123429E-03
      0.430000          0.122813E-03
      0.435000          0.121924E-03
      0.440000          0.120775E-03
      0.445000          0.119391E-03
      0.450000          0.117805E-03
      0.455000          0.116058E-03
      0.460000          0.114196E-03
      0.465000          0.112267E-03
      0.470000          0.110322E-03
      0.475000          0.108409E-03
      0.480000          0.106575E-03
      0.485000          0.104859E-03
      0.490000          0.103296E-03
      0.495000          0.101911E-03
      0.500000          0.100719E-03
