 I_abs(s)[cm^-1]/c[mg/ml]
       0.00000          0.145110E-01
      0.500000E-02      0.144268E-01
      0.100000E-01      0.141773E-01
      0.150000E-01      0.137710E-01
      0.200000E-01      0.132215E-01
      0.250000E-01      0.125472E-01
      0.300000E-01      0.117696E-01
      0.350000E-01      0.109129E-01
      0.400000E-01      0.100022E-01
      0.450000E-01      0.906305E-02
      0.500000E-01      0.811948E-02
      0.550000E-01      0.719368E-02
      0.600000E-01      0.630489E-02
      0.650000E-01      0.546893E-02
      0.700000E-01      0.469787E-02
      0.750000E-01      0.399991E-02
      0.800000E-01      0.337958E-02
      0.850000E-01      0.283799E-02
      0.900000E-01      0.237335E-02
      0.950000E-01      0.198152E-02
      0.100000          0.165662E-02
      0.105000          0.139163E-02
      0.110000          0.117895E-02
      0.115000          0.101092E-02
      0.120000          0.880173E-03
      0.125000          0.779924E-03
      0.130000          0.704171E-03
      0.135000          0.647754E-03
      0.140000          0.606364E-03
      0.145000          0.576475E-03
      0.150000          0.555249E-03
      0.155000          0.540412E-03
      0.160000          0.530134E-03
      0.165000          0.522922E-03
      0.170000          0.517532E-03
      0.175000          0.512913E-03
      0.180000          0.508172E-03
      0.185000          0.502559E-03
      0.190000          0.495476E-03
      0.195000          0.486484E-03
      0.200000          0.475320E-03
      0.205000          0.461903E-03
      0.210000          0.446330E-03
      0.215000          0.428869E-03
      0.220000          0.409925E-03
      0.225000          0.390011E-03
      0.230000          0.369703E-03
      0.235000          0.349594E-03
      0.240000          0.330252E-03
      0.245000          0.312178E-03
      0.250000          0.295780E-03
      0.255000          0.281351E-03
      0.260000          0.269063E-03
      0.265000          0.258963E-03
      0.270000          0.250991E-03
      0.275000          0.244992E-03
      0.280000          0.240744E-03
      0.285000          0.237973E-03
      0.290000          0.236382E-03
      0.295000          0.235670E-03
      0.300000          0.235546E-03
      0.305000          0.235739E-03
      0.310000          0.236012E-03
      0.315000          0.236157E-03
      0.320000          0.236003E-03
      0.325000          0.235412E-03
      0.330000          0.234273E-03
      0.335000          0.232510E-03
      0.340000          0.230068E-03
      0.345000          0.226923E-03
      0.350000          0.223075E-03
      0.355000          0.218547E-03
      0.360000          0.213390E-03
      0.365000          0.207678E-03
      0.370000          0.201504E-03
      0.375000          0.194984E-03
      0.380000          0.188243E-03
      0.385000          0.181415E-03
      0.390000          0.174636E-03
      0.395000          0.168034E-03
      0.400000          0.161723E-03
      0.405000          0.155798E-03
      0.410000          0.150331E-03
      0.415000          0.145365E-03
      0.420000          0.140916E-03
      0.425000          0.136971E-03
      0.430000          0.133497E-03
      0.435000          0.130438E-03
      0.440000          0.127728E-03
      0.445000          0.125294E-03
      0.450000          0.123062E-03
      0.455000          0.120967E-03
      0.460000          0.118954E-03
      0.465000          0.116980E-03
      0.470000          0.115022E-03
      0.475000          0.113073E-03
      0.480000          0.111138E-03
      0.485000          0.109238E-03
      0.490000          0.107398E-03
      0.495000          0.105651E-03
      0.500000          0.104024E-03
