 I_abs(s)[cm^-1]/c[mg/ml]
       0.00000          0.141796E-01
      0.500000E-02      0.141157E-01
      0.100000E-01      0.139255E-01
      0.150000E-01      0.136143E-01
      0.200000E-01      0.131903E-01
      0.250000E-01      0.126645E-01
      0.300000E-01      0.120503E-01
      0.350000E-01      0.113631E-01
      0.400000E-01      0.106193E-01
      0.450000E-01      0.983599E-02
      0.500000E-01      0.903018E-02
      0.550000E-01      0.821833E-02
      0.600000E-01      0.741575E-02
      0.650000E-01      0.663612E-02
      0.700000E-01      0.589122E-02
      0.750000E-01      0.519065E-02
      0.800000E-01      0.454171E-02
      0.850000E-01      0.394937E-02
      0.900000E-01      0.341638E-02
      0.950000E-01      0.294344E-02
      0.100000          0.252942E-02
      0.105000          0.217168E-02
      0.110000          0.186639E-02
      0.115000          0.160884E-02
      0.120000          0.139379E-02
      0.125000          0.121579E-02
      0.130000          0.106939E-02
      0.135000          0.949408E-03
      0.140000          0.851089E-03
      0.145000          0.770205E-03
      0.150000          0.703129E-03
      0.155000          0.646861E-03
      0.160000          0.599000E-03
      0.165000          0.557702E-03
      0.170000          0.521601E-03
      0.175000          0.489734E-03
      0.180000          0.461443E-03
      0.185000          0.436297E-03
      0.190000          0.414006E-03
      0.195000          0.394363E-03
      0.200000          0.377186E-03
      0.205000          0.362283E-03
      0.210000          0.349435E-03
      0.215000          0.338381E-03
      0.220000          0.328829E-03
      0.225000          0.320462E-03
      0.230000          0.312955E-03
      0.235000          0.305997E-03
      0.240000          0.299308E-03
      0.245000          0.292654E-03
      0.250000          0.285861E-03
      0.255000          0.278819E-03
      0.260000          0.271487E-03
      0.265000          0.263890E-03
      0.270000          0.256106E-03
      0.275000          0.248258E-03
      0.280000          0.240497E-03
      0.285000          0.232989E-03
      0.290000          0.225897E-03
      0.295000          0.219366E-03
      0.300000          0.213513E-03
      0.305000          0.208418E-03
      0.310000          0.204114E-03
      0.315000          0.200588E-03
      0.320000          0.197782E-03
      0.325000          0.195598E-03
      0.330000          0.193905E-03
      0.335000          0.192546E-03
      0.340000          0.191355E-03
      0.345000          0.190161E-03
      0.350000          0.188804E-03
      0.355000          0.187144E-03
      0.360000          0.185065E-03
      0.365000          0.182490E-03
      0.370000          0.179376E-03
      0.375000          0.175719E-03
      0.380000          0.171553E-03
      0.385000          0.166945E-03
      0.390000          0.161992E-03
      0.395000          0.156809E-03
      0.400000          0.151526E-03
      0.405000          0.146278E-03
      0.410000          0.141195E-03
      0.415000          0.136397E-03
      0.420000          0.131986E-03
      0.425000          0.128040E-03
      0.430000          0.124612E-03
      0.435000          0.121727E-03
      0.440000          0.119381E-03
      0.445000          0.117543E-03
      0.450000          0.116161E-03
      0.455000          0.115161E-03
      0.460000          0.114456E-03
      0.465000          0.113951E-03
      0.470000          0.113549E-03
      0.475000          0.113152E-03
      0.480000          0.112673E-03
      0.485000          0.112035E-03
      0.490000          0.111179E-03
      0.495000          0.110061E-03
      0.500000          0.108658E-03
