 I_abs(s)[cm^-1]/c[mg/ml]
       0.00000          0.142582E-01
      0.500000E-02      0.141642E-01
      0.100000E-01      0.138866E-01
      0.150000E-01      0.134378E-01
      0.200000E-01      0.128374E-01
      0.250000E-01      0.121108E-01
      0.300000E-01      0.112877E-01
      0.350000E-01      0.103995E-01
      0.400000E-01      0.947760E-02
      0.450000E-01      0.855168E-02
      0.500000E-01      0.764782E-02
      0.550000E-01      0.678748E-02
      0.600000E-01      0.598681E-02
      0.650000E-01      0.525644E-02
      0.700000E-01      0.460175E-02
      0.750000E-01      0.402351E-02
      0.800000E-01      0.351875E-02
      0.850000E-01      0.308177E-02
      0.900000E-01      0.270526E-02
      0.950000E-01      0.238122E-02
      0.100000          0.210174E-02
      0.105000          0.185965E-02
      0.110000          0.164885E-02
      0.115000          0.146443E-02
      0.120000          0.130267E-02
      0.125000          0.116083E-02
      0.130000          0.103694E-02
      0.135000          0.929483E-03
      0.140000          0.837201E-03
      0.145000          0.758878E-03
      0.150000          0.693229E-03
      0.155000          0.638857E-03
      0.160000          0.594263E-03
      0.165000          0.557908E-03
      0.170000          0.528283E-03
      0.175000          0.503987E-03
      0.180000          0.483788E-03
      0.185000          0.466653E-03
      0.190000          0.451755E-03
      0.195000          0.438452E-03
      0.200000          0.426253E-03
      0.205000          0.414775E-03
      0.210000          0.403709E-03
      0.215000          0.392787E-03
      0.220000          0.381776E-03
      0.225000          0.370479E-03
      0.230000          0.358749E-03
      0.235000          0.346513E-03
      0.240000          0.333783E-03
      0.245000          0.320674E-03
      0.250000          0.307397E-03
      0.255000          0.294249E-03
      0.260000          0.281575E-03
      0.265000          0.269739E-03
      0.270000          0.259074E-03
      0.275000          0.249850E-03
      0.280000          0.242234E-03
      0.285000          0.236278E-03
      0.290000          0.231913E-03
      0.295000          0.228959E-03
      0.300000          0.227149E-03
      0.305000          0.226164E-03
      0.310000          0.225666E-03
      0.315000          0.225335E-03
      0.320000          0.224894E-03
      0.325000          0.224133E-03
      0.330000          0.222914E-03
      0.335000          0.221173E-03
      0.340000          0.218906E-03
      0.345000          0.216155E-03
      0.350000          0.212992E-03
      0.355000          0.209497E-03
      0.360000          0.205746E-03
      0.365000          0.201805E-03
      0.370000          0.197721E-03
      0.375000          0.193522E-03
      0.380000          0.189231E-03
      0.385000          0.184859E-03
      0.390000          0.180424E-03
      0.395000          0.175949E-03
      0.400000          0.171466E-03
      0.405000          0.167015E-03
      0.410000          0.162643E-03
      0.415000          0.158395E-03
      0.420000          0.154313E-03
      0.425000          0.150427E-03
      0.430000          0.146749E-03
      0.435000          0.143277E-03
      0.440000          0.139992E-03
      0.445000          0.136863E-03
      0.450000          0.133850E-03
      0.455000          0.130913E-03
      0.460000          0.128017E-03
      0.465000          0.125138E-03
      0.470000          0.122265E-03
      0.475000          0.119403E-03
      0.480000          0.116567E-03
      0.485000          0.113787E-03
      0.490000          0.111094E-03
      0.495000          0.108522E-03
      0.500000          0.106096E-03
