 I_abs(s)[cm^-1]/c[mg/ml]
       0.00000          0.141639E-01
      0.500000E-02      0.140835E-01
      0.100000E-01      0.138452E-01
      0.150000E-01      0.134578E-01
      0.200000E-01      0.129355E-01
      0.250000E-01      0.122970E-01
      0.300000E-01      0.115640E-01
      0.350000E-01      0.107608E-01
      0.400000E-01      0.991205E-02
      0.450000E-01      0.904226E-02
      0.500000E-01      0.817412E-02
      0.550000E-01      0.732778E-02
      0.600000E-01      0.652007E-02
      0.650000E-01      0.576406E-02
      0.700000E-01      0.506895E-02
      0.750000E-01      0.444011E-02
      0.800000E-01      0.387950E-02
      0.850000E-01      0.338611E-02
      0.900000E-01      0.295661E-02
      0.950000E-01      0.258598E-02
      0.100000          0.226823E-02
      0.105000          0.199689E-02
      0.110000          0.176558E-02
      0.115000          0.156832E-02
      0.120000          0.139979E-02
      0.125000          0.125543E-02
      0.130000          0.113150E-02
      0.135000          0.102492E-02
      0.140000          0.933252E-03
      0.145000          0.854477E-03
      0.150000          0.786902E-03
      0.155000          0.729023E-03
      0.160000          0.679438E-03
      0.165000          0.636804E-03
      0.170000          0.599815E-03
      0.175000          0.567227E-03
      0.180000          0.537892E-03
      0.185000          0.510801E-03
      0.190000          0.485127E-03
      0.195000          0.460259E-03
      0.200000          0.435813E-03
      0.205000          0.411629E-03
      0.210000          0.387743E-03
      0.215000          0.364351E-03
      0.220000          0.341752E-03
      0.225000          0.320301E-03
      0.230000          0.300347E-03
      0.235000          0.282198E-03
      0.240000          0.266081E-03
      0.245000          0.252123E-03
      0.250000          0.240347E-03
      0.255000          0.230679E-03
      0.260000          0.222959E-03
      0.265000          0.216968E-03
      0.270000          0.212450E-03
      0.275000          0.209139E-03
      0.280000          0.206773E-03
      0.285000          0.205118E-03
      0.290000          0.203971E-03
      0.295000          0.203164E-03
      0.300000          0.202567E-03
      0.305000          0.202081E-03
      0.310000          0.201627E-03
      0.315000          0.201145E-03
      0.320000          0.200583E-03
      0.325000          0.199894E-03
      0.330000          0.199031E-03
      0.335000          0.197947E-03
      0.340000          0.196599E-03
      0.345000          0.194945E-03
      0.350000          0.192955E-03
      0.355000          0.190607E-03
      0.360000          0.187896E-03
      0.365000          0.184831E-03
      0.370000          0.181440E-03
      0.375000          0.177765E-03
      0.380000          0.173862E-03
      0.385000          0.169798E-03
      0.390000          0.165643E-03
      0.395000          0.161472E-03
      0.400000          0.157353E-03
      0.405000          0.153349E-03
      0.410000          0.149512E-03
      0.415000          0.145881E-03
      0.420000          0.142477E-03
      0.425000          0.139312E-03
      0.430000          0.136379E-03
      0.435000          0.133662E-03
      0.440000          0.131131E-03
      0.445000          0.128753E-03
      0.450000          0.126488E-03
      0.455000          0.124295E-03
      0.460000          0.122135E-03
      0.465000          0.119973E-03
      0.470000          0.117782E-03
      0.475000          0.115538E-03
      0.480000          0.113229E-03
      0.485000          0.110850E-03
      0.490000          0.108404E-03
      0.495000          0.105899E-03
      0.500000          0.103351E-03
