 I_abs(s)[cm^-1]/c[mg/ml]
       0.00000          0.149910E-01
      0.500000E-02      0.149252E-01
      0.100000E-01      0.147297E-01
      0.150000E-01      0.144096E-01
      0.200000E-01      0.139735E-01
      0.250000E-01      0.134328E-01
      0.300000E-01      0.128011E-01
      0.350000E-01      0.120940E-01
      0.400000E-01      0.113284E-01
      0.450000E-01      0.105215E-01
      0.500000E-01      0.969047E-02
      0.550000E-01      0.885191E-02
      0.600000E-01      0.802105E-02
      0.650000E-01      0.721151E-02
      0.700000E-01      0.643491E-02
      0.750000E-01      0.570068E-02
      0.800000E-01      0.501594E-02
      0.850000E-01      0.438559E-02
      0.900000E-01      0.381235E-02
      0.950000E-01      0.329704E-02
      0.100000          0.283878E-02
      0.105000          0.243537E-02
      0.110000          0.208355E-02
      0.115000          0.177934E-02
      0.120000          0.151837E-02
      0.125000          0.129609E-02
      0.130000          0.110803E-02
      0.135000          0.949940E-03
      0.140000          0.817927E-03
      0.145000          0.708487E-03
      0.150000          0.618546E-03
      0.155000          0.545436E-03
      0.160000          0.486856E-03
      0.165000          0.440815E-03
      0.170000          0.405567E-03
      0.175000          0.379551E-03
      0.180000          0.361335E-03
      0.185000          0.349583E-03
      0.190000          0.343022E-03
      0.195000          0.340438E-03
      0.200000          0.340673E-03
      0.205000          0.342648E-03
      0.210000          0.345377E-03
      0.215000          0.347991E-03
      0.220000          0.349766E-03
      0.225000          0.350135E-03
      0.230000          0.348703E-03
      0.235000          0.345249E-03
      0.240000          0.339714E-03
      0.245000          0.332192E-03
      0.250000          0.322903E-03
      0.255000          0.312164E-03
      0.260000          0.300357E-03
      0.265000          0.287900E-03
      0.270000          0.275211E-03
      0.275000          0.262684E-03
      0.280000          0.250666E-03
      0.285000          0.239443E-03
      0.290000          0.229228E-03
      0.295000          0.220158E-03
      0.300000          0.212300E-03
      0.305000          0.205654E-03
      0.310000          0.200166E-03
      0.315000          0.195740E-03
      0.320000          0.192251E-03
      0.325000          0.189555E-03
      0.330000          0.187505E-03
      0.335000          0.185955E-03
      0.340000          0.184771E-03
      0.345000          0.183834E-03
      0.350000          0.183039E-03
      0.355000          0.182300E-03
      0.360000          0.181548E-03
      0.365000          0.180726E-03
      0.370000          0.179790E-03
      0.375000          0.178705E-03
      0.380000          0.177440E-03
      0.385000          0.175974E-03
      0.390000          0.174286E-03
      0.395000          0.172361E-03
      0.400000          0.170188E-03
      0.405000          0.167757E-03
      0.410000          0.165067E-03
      0.415000          0.162120E-03
      0.420000          0.158925E-03
      0.425000          0.155495E-03
      0.430000          0.151851E-03
      0.435000          0.148020E-03
      0.440000          0.144032E-03
      0.445000          0.139922E-03
      0.450000          0.135727E-03
      0.455000          0.131487E-03
      0.460000          0.127238E-03
      0.465000          0.123019E-03
      0.470000          0.118864E-03
      0.475000          0.114806E-03
      0.480000          0.110873E-03
      0.485000          0.107090E-03
      0.490000          0.103478E-03
      0.495000          0.100054E-03
      0.500000          0.968328E-04
