 I_abs(s)[cm^-1]/c[mg/ml]
       0.00000          0.138521E-01
      0.500000E-02      0.137844E-01
      0.100000E-01      0.135834E-01
      0.150000E-01      0.132552E-01
      0.200000E-01      0.128097E-01
      0.250000E-01      0.122601E-01
      0.300000E-01      0.116222E-01
      0.350000E-01      0.109136E-01
      0.400000E-01      0.101532E-01
      0.450000E-01      0.936014E-02
      0.500000E-01      0.855309E-02
      0.550000E-01      0.774954E-02
      0.600000E-01      0.696518E-02
      0.650000E-01      0.621351E-02
      0.700000E-01      0.550545E-02
      0.750000E-01      0.484926E-02
      0.800000E-01      0.425046E-02
      0.850000E-01      0.371203E-02
      0.900000E-01      0.323462E-02
      0.950000E-01      0.281687E-02
      0.100000          0.245581E-02
      0.105000          0.214723E-02
      0.110000          0.188612E-02
      0.115000          0.166701E-02
      0.120000          0.148431E-02
      0.125000          0.133257E-02
      0.130000          0.120669E-02
      0.135000          0.110204E-02
      0.140000          0.101455E-02
      0.145000          0.940765E-03
      0.150000          0.877770E-03
      0.155000          0.823201E-03
      0.160000          0.775159E-03
      0.165000          0.732152E-03
      0.170000          0.693021E-03
      0.175000          0.656883E-03
      0.180000          0.623074E-03
      0.185000          0.591108E-03
      0.190000          0.560645E-03
      0.195000          0.531465E-03
      0.200000          0.503449E-03
      0.205000          0.476561E-03
      0.210000          0.450834E-03
      0.215000          0.426350E-03
      0.220000          0.403225E-03
      0.225000          0.381588E-03
      0.230000          0.361561E-03
      0.235000          0.343242E-03
      0.240000          0.326689E-03
      0.245000          0.311909E-03
      0.250000          0.298852E-03
      0.255000          0.287408E-03
      0.260000          0.277420E-03
      0.265000          0.268687E-03
      0.270000          0.260982E-03
      0.275000          0.254068E-03
      0.280000          0.247715E-03
      0.285000          0.241717E-03
      0.290000          0.235900E-03
      0.295000          0.230135E-03
      0.300000          0.224339E-03
      0.305000          0.218474E-03
      0.310000          0.212544E-03
      0.315000          0.206585E-03
      0.320000          0.200653E-03
      0.325000          0.194817E-03
      0.330000          0.189144E-03
      0.335000          0.183692E-03
      0.340000          0.178506E-03
      0.345000          0.173608E-03
      0.350000          0.169002E-03
      0.355000          0.164673E-03
      0.360000          0.160593E-03
      0.365000          0.156725E-03
      0.370000          0.153030E-03
      0.375000          0.149468E-03
      0.380000          0.146011E-03
      0.385000          0.142637E-03
      0.390000          0.139338E-03
      0.395000          0.136115E-03
      0.400000          0.132976E-03
      0.405000          0.129939E-03
      0.410000          0.127018E-03
      0.415000          0.124229E-03
      0.420000          0.121581E-03
      0.425000          0.119074E-03
      0.430000          0.116700E-03
      0.435000          0.114443E-03
      0.440000          0.112276E-03
      0.445000          0.110171E-03
      0.450000          0.108092E-03
      0.455000          0.106010E-03
      0.460000          0.103895E-03
      0.465000          0.101725E-03
      0.470000          0.994902E-04
      0.475000          0.971866E-04
      0.480000          0.948230E-04
      0.485000          0.924170E-04
      0.490000          0.899944E-04
      0.495000          0.875868E-04
      0.500000          0.852291E-04
