 I_abs(s)[cm^-1]/c[mg/ml]
       0.00000          0.145904E-01
      0.500000E-02      0.144932E-01
      0.100000E-01      0.142055E-01
      0.150000E-01      0.137395E-01
      0.200000E-01      0.131145E-01
      0.250000E-01      0.123556E-01
      0.300000E-01      0.114923E-01
      0.350000E-01      0.105561E-01
      0.400000E-01      0.957937E-02
      0.450000E-01      0.859282E-02
      0.500000E-01      0.762427E-02
      0.550000E-01      0.669735E-02
      0.600000E-01      0.583065E-02
      0.650000E-01      0.503733E-02
      0.700000E-01      0.432521E-02
      0.750000E-01      0.369715E-02
      0.800000E-01      0.315179E-02
      0.850000E-01      0.268448E-02
      0.900000E-01      0.228824E-02
      0.950000E-01      0.195478E-02
      0.100000          0.167538E-02
      0.105000          0.144160E-02
      0.110000          0.124581E-02
      0.115000          0.108149E-02
      0.120000          0.943320E-03
      0.125000          0.827139E-03
      0.130000          0.729754E-03
      0.135000          0.648707E-03
      0.140000          0.582013E-03
      0.145000          0.527935E-03
      0.150000          0.484811E-03
      0.155000          0.450961E-03
      0.160000          0.424660E-03
      0.165000          0.404180E-03
      0.170000          0.387873E-03
      0.175000          0.374279E-03
      0.180000          0.362217E-03
      0.185000          0.350864E-03
      0.190000          0.339783E-03
      0.195000          0.328908E-03
      0.200000          0.318490E-03
      0.205000          0.308998E-03
      0.210000          0.301004E-03
      0.215000          0.295063E-03
      0.220000          0.291605E-03
      0.225000          0.290851E-03
      0.230000          0.292766E-03
      0.235000          0.297046E-03
      0.240000          0.303152E-03
      0.245000          0.310364E-03
      0.250000          0.317863E-03
      0.255000          0.324820E-03
      0.260000          0.330479E-03
      0.265000          0.334230E-03
      0.270000          0.335657E-03
      0.275000          0.334564E-03
      0.280000          0.330970E-03
      0.285000          0.325086E-03
      0.290000          0.317270E-03
      0.295000          0.307975E-03
      0.300000          0.297691E-03
      0.305000          0.286898E-03
      0.310000          0.276017E-03
      0.315000          0.265386E-03
      0.320000          0.255248E-03
      0.325000          0.245743E-03
      0.330000          0.236927E-03
      0.335000          0.228787E-03
      0.340000          0.221264E-03
      0.345000          0.214277E-03
      0.350000          0.207740E-03
      0.355000          0.201578E-03
      0.360000          0.195734E-03
      0.365000          0.190172E-03
      0.370000          0.184870E-03
      0.375000          0.179821E-03
      0.380000          0.175019E-03
      0.385000          0.170452E-03
      0.390000          0.166102E-03
      0.395000          0.161939E-03
      0.400000          0.157922E-03
      0.405000          0.154005E-03
      0.410000          0.150140E-03
      0.415000          0.146288E-03
      0.420000          0.142422E-03
      0.425000          0.138532E-03
      0.430000          0.134634E-03
      0.435000          0.130760E-03
      0.440000          0.126966E-03
      0.445000          0.123320E-03
      0.450000          0.119896E-03
      0.455000          0.116771E-03
      0.460000          0.114008E-03
      0.465000          0.111660E-03
      0.470000          0.109753E-03
      0.475000          0.108293E-03
      0.480000          0.107258E-03
      0.485000          0.106604E-03
      0.490000          0.106264E-03
      0.495000          0.106160E-03
      0.500000          0.106202E-03
