 I_abs(s)[cm^-1]/c[mg/ml]
       0.00000          0.144634E-01
      0.500000E-02      0.143987E-01
      0.100000E-01      0.142063E-01
      0.150000E-01      0.138913E-01
      0.200000E-01      0.134619E-01
      0.250000E-01      0.129292E-01
      0.300000E-01      0.123067E-01
      0.350000E-01      0.116097E-01
      0.400000E-01      0.108548E-01
      0.450000E-01      0.100594E-01
      0.500000E-01      0.924067E-02
      0.550000E-01      0.841555E-02
      0.600000E-01      0.759973E-02
      0.650000E-01      0.680740E-02
      0.700000E-01      0.605083E-02
      0.750000E-01      0.534013E-02
      0.800000E-01      0.468306E-02
      0.850000E-01      0.408501E-02
      0.900000E-01      0.354905E-02
      0.950000E-01      0.307602E-02
      0.100000          0.266486E-02
      0.105000          0.231277E-02
      0.110000          0.201563E-02
      0.115000          0.176829E-02
      0.120000          0.156493E-02
      0.125000          0.139941E-02
      0.130000          0.126552E-02
      0.135000          0.115730E-02
      0.140000          0.106919E-02
      0.145000          0.996263E-03
      0.150000          0.934263E-03
      0.155000          0.879698E-03
      0.160000          0.829835E-03
      0.165000          0.782672E-03
      0.170000          0.736873E-03
      0.175000          0.691681E-03
      0.180000          0.646817E-03
      0.185000          0.602368E-03
      0.190000          0.558684E-03
      0.195000          0.516275E-03
      0.200000          0.475717E-03
      0.205000          0.437584E-03
      0.210000          0.402384E-03
      0.215000          0.370516E-03
      0.220000          0.342248E-03
      0.225000          0.317701E-03
      0.230000          0.296858E-03
      0.235000          0.279564E-03
      0.240000          0.265558E-03
      0.245000          0.254487E-03
      0.250000          0.245938E-03
      0.255000          0.239463E-03
      0.260000          0.234605E-03
      0.265000          0.230919E-03
      0.270000          0.227994E-03
      0.275000          0.225464E-03
      0.280000          0.223020E-03
      0.285000          0.220413E-03
      0.290000          0.217461E-03
      0.295000          0.214042E-03
      0.300000          0.210092E-03
      0.305000          0.205596E-03
      0.310000          0.200582E-03
      0.315000          0.195113E-03
      0.320000          0.189273E-03
      0.325000          0.183164E-03
      0.330000          0.176894E-03
      0.335000          0.170572E-03
      0.340000          0.164304E-03
      0.345000          0.158186E-03
      0.350000          0.152302E-03
      0.355000          0.146722E-03
      0.360000          0.141504E-03
      0.365000          0.136692E-03
      0.370000          0.132316E-03
      0.375000          0.128394E-03
      0.380000          0.124937E-03
      0.385000          0.121943E-03
      0.390000          0.119406E-03
      0.395000          0.117310E-03
      0.400000          0.115636E-03
      0.405000          0.114360E-03
      0.410000          0.113451E-03
      0.415000          0.112876E-03
      0.420000          0.112598E-03
      0.425000          0.112575E-03
      0.430000          0.112763E-03
      0.435000          0.113117E-03
      0.440000          0.113589E-03
      0.445000          0.114134E-03
      0.450000          0.114706E-03
      0.455000          0.115262E-03
      0.460000          0.115764E-03
      0.465000          0.116179E-03
      0.470000          0.116480E-03
      0.475000          0.116645E-03
      0.480000          0.116664E-03
      0.485000          0.116527E-03
      0.490000          0.116237E-03
      0.495000          0.115798E-03
      0.500000          0.115221E-03
