 I_abs(s)[cm^-1]/c[mg/ml]
       0.00000          0.138598E-01
      0.500000E-02      0.137965E-01
      0.100000E-01      0.136083E-01
      0.150000E-01      0.133002E-01
      0.200000E-01      0.128804E-01
      0.250000E-01      0.123598E-01
      0.300000E-01      0.117518E-01
      0.350000E-01      0.110715E-01
      0.400000E-01      0.103354E-01
      0.450000E-01      0.956058E-02
      0.500000E-01      0.876431E-02
      0.550000E-01      0.796324E-02
      0.600000E-01      0.717295E-02
      0.650000E-01      0.640751E-02
      0.700000E-01      0.567906E-02
      0.750000E-01      0.499757E-02
      0.800000E-01      0.437062E-02
      0.850000E-01      0.380341E-02
      0.900000E-01      0.329875E-02
      0.950000E-01      0.285723E-02
      0.100000          0.247743E-02
      0.105000          0.215624E-02
      0.110000          0.188913E-02
      0.115000          0.167058E-02
      0.120000          0.149437E-02
      0.125000          0.135399E-02
      0.130000          0.124293E-02
      0.135000          0.115495E-02
      0.140000          0.108434E-02
      0.145000          0.102606E-02
      0.150000          0.975858E-03
      0.155000          0.930349E-03
      0.160000          0.886992E-03
      0.165000          0.844053E-03
      0.170000          0.800533E-03
      0.175000          0.756052E-03
      0.180000          0.710727E-03
      0.185000          0.665044E-03
      0.190000          0.619720E-03
      0.195000          0.575589E-03
      0.200000          0.533490E-03
      0.205000          0.494184E-03
      0.210000          0.458287E-03
      0.215000          0.426230E-03
      0.220000          0.398237E-03
      0.225000          0.374323E-03
      0.230000          0.354315E-03
      0.235000          0.337875E-03
      0.240000          0.324539E-03
      0.245000          0.313762E-03
      0.250000          0.304957E-03
      0.255000          0.297539E-03
      0.260000          0.290959E-03
      0.265000          0.284734E-03
      0.270000          0.278467E-03
      0.275000          0.271860E-03
      0.280000          0.264718E-03
      0.285000          0.256950E-03
      0.290000          0.248551E-03
      0.295000          0.239596E-03
      0.300000          0.230220E-03
      0.305000          0.220600E-03
      0.310000          0.210932E-03
      0.315000          0.201419E-03
      0.320000          0.192252E-03
      0.325000          0.183600E-03
      0.330000          0.175594E-03
      0.335000          0.168331E-03
      0.340000          0.161865E-03
      0.345000          0.156209E-03
      0.350000          0.151339E-03
      0.355000          0.147199E-03
      0.360000          0.143709E-03
      0.365000          0.140772E-03
      0.370000          0.138278E-03
      0.375000          0.136120E-03
      0.380000          0.134191E-03
      0.385000          0.132395E-03
      0.390000          0.130650E-03
      0.395000          0.128891E-03
      0.400000          0.127069E-03
      0.405000          0.125156E-03
      0.410000          0.123138E-03
      0.415000          0.121018E-03
      0.420000          0.118811E-03
      0.425000          0.116541E-03
      0.430000          0.114240E-03
      0.435000          0.111942E-03
      0.440000          0.109685E-03
      0.445000          0.107503E-03
      0.450000          0.105427E-03
      0.455000          0.103484E-03
      0.460000          0.101697E-03
      0.465000          0.100079E-03
      0.470000          0.986394E-04
      0.475000          0.973815E-04
      0.480000          0.963025E-04
      0.485000          0.953949E-04
      0.490000          0.946469E-04
      0.495000          0.940439E-04
      0.500000          0.935683E-04
