 I_abs(s)[cm^-1]/c[mg/ml]
       0.00000          0.144238E-01
      0.500000E-02      0.143376E-01
      0.100000E-01      0.140825E-01
      0.150000E-01      0.136689E-01
      0.200000E-01      0.131135E-01
      0.250000E-01      0.124377E-01
      0.300000E-01      0.116669E-01
      0.350000E-01      0.108283E-01
      0.400000E-01      0.994974E-02
      0.450000E-01      0.905772E-02
      0.500000E-01      0.817637E-02
      0.550000E-01      0.732628E-02
      0.600000E-01      0.652379E-02
      0.650000E-01      0.578068E-02
      0.700000E-01      0.510420E-02
      0.750000E-01      0.449741E-02
      0.800000E-01      0.395981E-02
      0.850000E-01      0.348804E-02
      0.900000E-01      0.307673E-02
      0.950000E-01      0.271935E-02
      0.100000          0.240891E-02
      0.105000          0.213857E-02
      0.110000          0.190210E-02
      0.115000          0.169413E-02
      0.120000          0.151029E-02
      0.125000          0.134713E-02
      0.130000          0.120208E-02
      0.135000          0.107319E-02
      0.140000          0.958994E-03
      0.145000          0.858273E-03
      0.150000          0.769934E-03
      0.155000          0.692890E-03
      0.160000          0.626010E-03
      0.165000          0.568115E-03
      0.170000          0.518002E-03
      0.175000          0.474502E-03
      0.180000          0.436535E-03
      0.185000          0.403159E-03
      0.190000          0.373615E-03
      0.195000          0.347333E-03
      0.200000          0.323930E-03
      0.205000          0.303182E-03
      0.210000          0.284982E-03
      0.215000          0.269293E-03
      0.220000          0.256097E-03
      0.225000          0.245352E-03
      0.230000          0.236966E-03
      0.235000          0.230769E-03
      0.240000          0.226521E-03
      0.245000          0.223911E-03
      0.250000          0.222583E-03
      0.255000          0.222157E-03
      0.260000          0.222259E-03
      0.265000          0.222543E-03
      0.270000          0.222719E-03
      0.275000          0.222562E-03
      0.280000          0.221921E-03
      0.285000          0.220718E-03
      0.290000          0.218945E-03
      0.295000          0.216647E-03
      0.300000          0.213906E-03
      0.305000          0.210833E-03
      0.310000          0.207541E-03
      0.315000          0.204140E-03
      0.320000          0.200723E-03
      0.325000          0.197361E-03
      0.330000          0.194101E-03
      0.335000          0.190966E-03
      0.340000          0.187960E-03
      0.345000          0.185073E-03
      0.350000          0.182290E-03
      0.355000          0.179594E-03
      0.360000          0.176975E-03
      0.365000          0.174427E-03
      0.370000          0.171957E-03
      0.375000          0.169575E-03
      0.380000          0.167300E-03
      0.385000          0.165147E-03
      0.390000          0.163130E-03
      0.395000          0.161252E-03
      0.400000          0.159505E-03
      0.405000          0.157865E-03
      0.410000          0.156297E-03
      0.415000          0.154750E-03
      0.420000          0.153167E-03
      0.425000          0.151487E-03
      0.430000          0.149652E-03
      0.435000          0.147610E-03
      0.440000          0.145327E-03
      0.445000          0.142783E-03
      0.450000          0.139980E-03
      0.455000          0.136941E-03
      0.460000          0.133705E-03
      0.465000          0.130330E-03
      0.470000          0.126881E-03
      0.475000          0.123430E-03
      0.480000          0.120047E-03
      0.485000          0.116792E-03
      0.490000          0.113716E-03
      0.495000          0.110853E-03
      0.500000          0.108217E-03
