 I_abs(s)[cm^-1]/c[mg/ml]
       0.00000          0.139998E-01
      0.500000E-02      0.139116E-01
      0.100000E-01      0.136510E-01
      0.150000E-01      0.132292E-01
      0.200000E-01      0.126645E-01
      0.250000E-01      0.119802E-01
      0.300000E-01      0.112037E-01
      0.350000E-01      0.103642E-01
      0.400000E-01      0.949115E-02
      0.450000E-01      0.861253E-02
      0.500000E-01      0.775319E-02
      0.550000E-01      0.693383E-02
      0.600000E-01      0.617034E-02
      0.650000E-01      0.547347E-02
      0.700000E-01      0.484899E-02
      0.750000E-01      0.429820E-02
      0.800000E-01      0.381867E-02
      0.850000E-01      0.340512E-02
      0.900000E-01      0.305043E-02
      0.950000E-01      0.274656E-02
      0.100000          0.248530E-02
      0.105000          0.225896E-02
      0.110000          0.206077E-02
      0.115000          0.188511E-02
      0.120000          0.172758E-02
      0.125000          0.158491E-02
      0.130000          0.145477E-02
      0.135000          0.133556E-02
      0.140000          0.122618E-02
      0.145000          0.112582E-02
      0.150000          0.103381E-02
      0.155000          0.949559E-03
      0.160000          0.872441E-03
      0.165000          0.801859E-03
      0.170000          0.737243E-03
      0.175000          0.678089E-03
      0.180000          0.623990E-03
      0.185000          0.574647E-03
      0.190000          0.529860E-03
      0.195000          0.489505E-03
      0.200000          0.453489E-03
      0.205000          0.421705E-03
      0.210000          0.393986E-03
      0.215000          0.370076E-03
      0.220000          0.349610E-03
      0.225000          0.332125E-03
      0.230000          0.317080E-03
      0.235000          0.303896E-03
      0.240000          0.292003E-03
      0.245000          0.280885E-03
      0.250000          0.270121E-03
      0.255000          0.259417E-03
      0.260000          0.248614E-03
      0.265000          0.237688E-03
      0.270000          0.226733E-03
      0.275000          0.215927E-03
      0.280000          0.205501E-03
      0.285000          0.195700E-03
      0.290000          0.186749E-03
      0.295000          0.178829E-03
      0.300000          0.172055E-03
      0.305000          0.166474E-03
      0.310000          0.162065E-03
      0.315000          0.158750E-03
      0.320000          0.156403E-03
      0.325000          0.154873E-03
      0.330000          0.153992E-03
      0.335000          0.153594E-03
      0.340000          0.153520E-03
      0.345000          0.153629E-03
      0.350000          0.153797E-03
      0.355000          0.153919E-03
      0.360000          0.153911E-03
      0.365000          0.153706E-03
      0.370000          0.153258E-03
      0.375000          0.152539E-03
      0.380000          0.151540E-03
      0.385000          0.150274E-03
      0.390000          0.148772E-03
      0.395000          0.147084E-03
      0.400000          0.145273E-03
      0.405000          0.143410E-03
      0.410000          0.141565E-03
      0.415000          0.139803E-03
      0.420000          0.138173E-03
      0.425000          0.136699E-03
      0.430000          0.135380E-03
      0.435000          0.134187E-03
      0.440000          0.133065E-03
      0.445000          0.131939E-03
      0.450000          0.130721E-03
      0.455000          0.129323E-03
      0.460000          0.127666E-03
      0.465000          0.125692E-03
      0.470000          0.123370E-03
      0.475000          0.120700E-03
      0.480000          0.117716E-03
      0.485000          0.114483E-03
      0.490000          0.111088E-03
      0.495000          0.107634E-03
      0.500000          0.104227E-03
