 I_abs(s)[cm^-1]/c[mg/ml]
       0.00000          0.147420E-01
      0.500000E-02      0.146893E-01
      0.100000E-01      0.145323E-01
      0.150000E-01      0.142741E-01
      0.200000E-01      0.139198E-01
      0.250000E-01      0.134765E-01
      0.300000E-01      0.129527E-01
      0.350000E-01      0.123584E-01
      0.400000E-01      0.117047E-01
      0.450000E-01      0.110035E-01
      0.500000E-01      0.102669E-01
      0.550000E-01      0.950754E-02
      0.600000E-01      0.873744E-02
      0.650000E-01      0.796833E-02
      0.700000E-01      0.721109E-02
      0.750000E-01      0.647561E-02
      0.800000E-01      0.577057E-02
      0.850000E-01      0.510329E-02
      0.900000E-01      0.447968E-02
      0.950000E-01      0.390416E-02
      0.100000          0.337968E-02
      0.105000          0.290780E-02
      0.110000          0.248874E-02
      0.115000          0.212154E-02
      0.120000          0.180422E-02
      0.125000          0.153391E-02
      0.130000          0.130708E-02
      0.135000          0.111968E-02
      0.140000          0.967384E-03
      0.145000          0.845681E-03
      0.150000          0.750092E-03
      0.155000          0.676275E-03
      0.160000          0.620146E-03
      0.165000          0.577964E-03
      0.170000          0.546390E-03
      0.175000          0.522532E-03
      0.180000          0.503955E-03
      0.185000          0.488678E-03
      0.190000          0.475155E-03
      0.195000          0.462239E-03
      0.200000          0.449138E-03
      0.205000          0.435364E-03
      0.210000          0.420677E-03
      0.215000          0.405036E-03
      0.220000          0.388543E-03
      0.225000          0.371395E-03
      0.230000          0.353849E-03
      0.235000          0.336180E-03
      0.240000          0.318661E-03
      0.245000          0.301538E-03
      0.250000          0.285020E-03
      0.255000          0.269272E-03
      0.260000          0.254412E-03
      0.265000          0.240515E-03
      0.270000          0.227617E-03
      0.275000          0.215722E-03
      0.280000          0.204808E-03
      0.285000          0.194838E-03
      0.290000          0.185765E-03
      0.295000          0.177539E-03
      0.300000          0.170107E-03
      0.305000          0.163421E-03
      0.310000          0.157436E-03
      0.315000          0.152112E-03
      0.320000          0.147411E-03
      0.325000          0.143295E-03
      0.330000          0.139727E-03
      0.335000          0.136666E-03
      0.340000          0.134066E-03
      0.345000          0.131876E-03
      0.350000          0.130039E-03
      0.355000          0.128493E-03
      0.360000          0.127169E-03
      0.365000          0.125999E-03
      0.370000          0.124913E-03
      0.375000          0.123845E-03
      0.380000          0.122735E-03
      0.385000          0.121530E-03
      0.390000          0.120191E-03
      0.395000          0.118690E-03
      0.400000          0.117016E-03
      0.405000          0.115171E-03
      0.410000          0.113172E-03
      0.415000          0.111052E-03
      0.420000          0.108854E-03
      0.425000          0.106630E-03
      0.430000          0.104438E-03
      0.435000          0.102339E-03
      0.440000          0.100393E-03
      0.445000          0.986561E-04
      0.450000          0.971756E-04
      0.455000          0.959890E-04
      0.460000          0.951209E-04
      0.465000          0.945822E-04
      0.470000          0.943686E-04
      0.475000          0.944615E-04
      0.480000          0.948281E-04
      0.485000          0.954238E-04
      0.490000          0.961937E-04
      0.495000          0.970757E-04
      0.500000          0.980031E-04
