 I_abs(s)[cm^-1]/c[mg/ml]
       0.00000          0.144951E-01
      0.500000E-02      0.143974E-01
      0.100000E-01      0.141086E-01
      0.150000E-01      0.136414E-01
      0.200000E-01      0.130161E-01
      0.250000E-01      0.122592E-01
      0.300000E-01      0.114012E-01
      0.350000E-01      0.104751E-01
      0.400000E-01      0.951406E-02
      0.450000E-01      0.854962E-02
      0.500000E-01      0.760980E-02
      0.550000E-01      0.671794E-02
      0.600000E-01      0.589182E-02
      0.650000E-01      0.514336E-02
      0.700000E-01      0.447867E-02
      0.750000E-01      0.389867E-02
      0.800000E-01      0.339987E-02
      0.850000E-01      0.297545E-02
      0.900000E-01      0.261643E-02
      0.950000E-01      0.231277E-02
      0.100000          0.205436E-02
      0.105000          0.183184E-02
      0.110000          0.163717E-02
      0.115000          0.146394E-02
      0.120000          0.130746E-02
      0.125000          0.116469E-02
      0.130000          0.103392E-02
      0.135000          0.914474E-03
      0.140000          0.806345E-03
      0.145000          0.709811E-03
      0.150000          0.625153E-03
      0.155000          0.552433E-03
      0.160000          0.491365E-03
      0.165000          0.441273E-03
      0.170000          0.401119E-03
      0.175000          0.369593E-03
      0.180000          0.345221E-03
      0.185000          0.326498E-03
      0.190000          0.311997E-03
      0.195000          0.300464E-03
      0.200000          0.290876E-03
      0.205000          0.282473E-03
      0.210000          0.274749E-03
      0.215000          0.267423E-03
      0.220000          0.260396E-03
      0.225000          0.253690E-03
      0.230000          0.247399E-03
      0.235000          0.241636E-03
      0.240000          0.236493E-03
      0.245000          0.232019E-03
      0.250000          0.228206E-03
      0.255000          0.224992E-03
      0.260000          0.222269E-03
      0.265000          0.219902E-03
      0.270000          0.217747E-03
      0.275000          0.215678E-03
      0.280000          0.213600E-03
      0.285000          0.211460E-03
      0.290000          0.209260E-03
      0.295000          0.207049E-03
      0.300000          0.204921E-03
      0.305000          0.202994E-03
      0.310000          0.201400E-03
      0.315000          0.200257E-03
      0.320000          0.199654E-03
      0.325000          0.199635E-03
      0.330000          0.200181E-03
      0.335000          0.201215E-03
      0.340000          0.202592E-03
      0.345000          0.204120E-03
      0.350000          0.205569E-03
      0.355000          0.206697E-03
      0.360000          0.207269E-03
      0.365000          0.207083E-03
      0.370000          0.205991E-03
      0.375000          0.203911E-03
      0.380000          0.200836E-03
      0.385000          0.196836E-03
      0.390000          0.192048E-03
      0.395000          0.186662E-03
      0.400000          0.180901E-03
      0.405000          0.175001E-03
      0.410000          0.169187E-03
      0.415000          0.163654E-03
      0.420000          0.158549E-03
      0.425000          0.153966E-03
      0.430000          0.149940E-03
      0.435000          0.146448E-03
      0.440000          0.143426E-03
      0.445000          0.140771E-03
      0.450000          0.138365E-03
      0.455000          0.136088E-03
      0.460000          0.133830E-03
      0.465000          0.131506E-03
      0.470000          0.129060E-03
      0.475000          0.126471E-03
      0.480000          0.123752E-03
      0.485000          0.120942E-03
      0.490000          0.118104E-03
      0.495000          0.115312E-03
      0.500000          0.112644E-03
