 I_abs(s)[cm^-1]/c[mg/ml]
       0.00000          0.144793E-01
      0.500000E-02      0.143949E-01
      0.100000E-01      0.141447E-01
      0.150000E-01      0.137378E-01
      0.200000E-01      0.131885E-01
      0.250000E-01      0.125159E-01
      0.300000E-01      0.117424E-01
      0.350000E-01      0.108930E-01
      0.400000E-01      0.999379E-02
      0.450000E-01      0.907066E-02
      0.500000E-01      0.814806E-02
      0.550000E-01      0.724810E-02
      0.600000E-01      0.638960E-02
      0.650000E-01      0.558765E-02
      0.700000E-01      0.485320E-02
      0.750000E-01      0.419314E-02
      0.800000E-01      0.361044E-02
      0.850000E-01      0.310460E-02
      0.900000E-01      0.267224E-02
      0.950000E-01      0.230775E-02
      0.100000          0.200401E-02
      0.105000          0.175306E-02
      0.110000          0.154675E-02
      0.115000          0.137721E-02
      0.120000          0.123730E-02
      0.125000          0.112084E-02
      0.130000          0.102273E-02
      0.135000          0.938977E-03
      0.140000          0.866606E-03
      0.145000          0.803496E-03
      0.150000          0.748198E-03
      0.155000          0.699726E-03
      0.160000          0.657370E-03
      0.165000          0.620533E-03
      0.170000          0.588615E-03
      0.175000          0.560945E-03
      0.180000          0.536757E-03
      0.185000          0.515209E-03
      0.190000          0.495425E-03
      0.195000          0.476565E-03
      0.200000          0.457887E-03
      0.205000          0.438813E-03
      0.210000          0.418971E-03
      0.215000          0.398220E-03
      0.220000          0.376651E-03
      0.225000          0.354563E-03
      0.230000          0.332418E-03
      0.235000          0.310789E-03
      0.240000          0.290293E-03
      0.245000          0.271527E-03
      0.250000          0.255011E-03
      0.255000          0.241142E-03
      0.260000          0.230161E-03
      0.265000          0.222138E-03
      0.270000          0.216974E-03
      0.275000          0.214415E-03
      0.280000          0.214081E-03
      0.285000          0.215498E-03
      0.290000          0.218138E-03
      0.295000          0.221459E-03
      0.300000          0.224937E-03
      0.305000          0.228101E-03
      0.310000          0.230550E-03
      0.315000          0.231972E-03
      0.320000          0.232153E-03
      0.325000          0.230972E-03
      0.330000          0.228401E-03
      0.335000          0.224492E-03
      0.340000          0.219367E-03
      0.345000          0.213202E-03
      0.350000          0.206214E-03
      0.355000          0.198644E-03
      0.360000          0.190746E-03
      0.365000          0.182773E-03
      0.370000          0.174968E-03
      0.375000          0.167548E-03
      0.380000          0.160703E-03
      0.385000          0.154583E-03
      0.390000          0.149297E-03
      0.395000          0.144905E-03
      0.400000          0.141420E-03
      0.405000          0.138807E-03
      0.410000          0.136986E-03
      0.415000          0.135837E-03
      0.420000          0.135211E-03
      0.425000          0.134936E-03
      0.430000          0.134828E-03
      0.435000          0.134706E-03
      0.440000          0.134399E-03
      0.445000          0.133762E-03
      0.450000          0.132678E-03
      0.455000          0.131072E-03
      0.460000          0.128909E-03
      0.465000          0.126196E-03
      0.470000          0.122982E-03
      0.475000          0.119347E-03
      0.480000          0.115401E-03
      0.485000          0.111269E-03
      0.490000          0.107084E-03
      0.495000          0.102977E-03
      0.500000          0.990667E-04
