 I_abs(s)[cm^-1]/c[mg/ml]
       0.00000          0.142896E-01
      0.500000E-02      0.142158E-01
      0.100000E-01      0.139969E-01
      0.150000E-01      0.136404E-01
      0.200000E-01      0.131580E-01
      0.250000E-01      0.125657E-01
      0.300000E-01      0.118821E-01
      0.350000E-01      0.111279E-01
      0.400000E-01      0.103247E-01
      0.450000E-01      0.949392E-02
      0.500000E-01      0.865608E-02
      0.550000E-01      0.782965E-02
      0.600000E-01      0.703058E-02
      0.650000E-01      0.627187E-02
      0.700000E-01      0.556332E-02
      0.750000E-01      0.491153E-02
      0.800000E-01      0.432011E-02
      0.850000E-01      0.379000E-02
      0.900000E-01      0.331987E-02
      0.950000E-01      0.290672E-02
      0.100000          0.254627E-02
      0.105000          0.223356E-02
      0.110000          0.196333E-02
      0.115000          0.173034E-02
      0.120000          0.152969E-02
      0.125000          0.135694E-02
      0.130000          0.120823E-02
      0.135000          0.108023E-02
      0.140000          0.970147E-03
      0.145000          0.875625E-03
      0.150000          0.794663E-03
      0.155000          0.725524E-03
      0.160000          0.666665E-03
      0.165000          0.616682E-03
      0.170000          0.574281E-03
      0.175000          0.538269E-03
      0.180000          0.507564E-03
      0.185000          0.481205E-03
      0.190000          0.458375E-03
      0.195000          0.438408E-03
      0.200000          0.420797E-03
      0.205000          0.405180E-03
      0.210000          0.391324E-03
      0.215000          0.379092E-03
      0.220000          0.368405E-03
      0.225000          0.359208E-03
      0.230000          0.351433E-03
      0.235000          0.344972E-03
      0.240000          0.339658E-03
      0.245000          0.335266E-03
      0.250000          0.331512E-03
      0.255000          0.328078E-03
      0.260000          0.324628E-03
      0.265000          0.320845E-03
      0.270000          0.316449E-03
      0.275000          0.311228E-03
      0.280000          0.305054E-03
      0.285000          0.297889E-03
      0.290000          0.289788E-03
      0.295000          0.280888E-03
      0.300000          0.271392E-03
      0.305000          0.261549E-03
      0.310000          0.251626E-03
      0.315000          0.241887E-03
      0.320000          0.232568E-03
      0.325000          0.223862E-03
      0.330000          0.215903E-03
      0.335000          0.208763E-03
      0.340000          0.202451E-03
      0.345000          0.196919E-03
      0.350000          0.192069E-03
      0.355000          0.187772E-03
      0.360000          0.183879E-03
      0.365000          0.180236E-03
      0.370000          0.176697E-03
      0.375000          0.173139E-03
      0.380000          0.169466E-03
      0.385000          0.165619E-03
      0.390000          0.161573E-03
      0.395000          0.157341E-03
      0.400000          0.152966E-03
      0.405000          0.148517E-03
      0.410000          0.144081E-03
      0.415000          0.139753E-03
      0.420000          0.135632E-03
      0.425000          0.131806E-03
      0.430000          0.128352E-03
      0.435000          0.125323E-03
      0.440000          0.122752E-03
      0.445000          0.120645E-03
      0.450000          0.118982E-03
      0.455000          0.117723E-03
      0.460000          0.116806E-03
      0.465000          0.116157E-03
      0.470000          0.115693E-03
      0.475000          0.115332E-03
      0.480000          0.114991E-03
      0.485000          0.114600E-03
      0.490000          0.114100E-03
      0.495000          0.113445E-03
      0.500000          0.112606E-03
