 I_abs(s)[cm^-1]/c[mg/ml]
       0.00000          0.144396E-01
      0.500000E-02      0.143675E-01
      0.100000E-01      0.141533E-01
      0.150000E-01      0.138039E-01
      0.200000E-01      0.133305E-01
      0.250000E-01      0.127478E-01
      0.300000E-01      0.120733E-01
      0.350000E-01      0.113269E-01
      0.400000E-01      0.105292E-01
      0.450000E-01      0.970135E-02
      0.500000E-01      0.886350E-02
      0.550000E-01      0.803439E-02
      0.600000E-01      0.723054E-02
      0.650000E-01      0.646577E-02
      0.700000E-01      0.575084E-02
      0.750000E-01      0.509339E-02
      0.800000E-01      0.449792E-02
      0.850000E-01      0.396605E-02
      0.900000E-01      0.349686E-02
      0.950000E-01      0.308734E-02
      0.100000          0.273287E-02
      0.105000          0.242780E-02
      0.110000          0.216587E-02
      0.115000          0.194074E-02
      0.120000          0.174635E-02
      0.125000          0.157719E-02
      0.130000          0.142853E-02
      0.135000          0.129648E-02
      0.140000          0.117805E-02
      0.145000          0.107107E-02
      0.150000          0.974043E-03
      0.155000          0.886066E-03
      0.160000          0.806606E-03
      0.165000          0.735366E-03
      0.170000          0.672136E-03
      0.175000          0.616680E-03
      0.180000          0.568654E-03
      0.185000          0.527566E-03
      0.190000          0.492762E-03
      0.195000          0.463451E-03
      0.200000          0.438745E-03
      0.205000          0.417712E-03
      0.210000          0.399440E-03
      0.215000          0.383090E-03
      0.220000          0.367942E-03
      0.225000          0.353427E-03
      0.230000          0.339148E-03
      0.235000          0.324872E-03
      0.240000          0.310521E-03
      0.245000          0.296144E-03
      0.250000          0.281885E-03
      0.255000          0.267945E-03
      0.260000          0.254548E-03
      0.265000          0.241907E-03
      0.270000          0.230206E-03
      0.275000          0.219578E-03
      0.280000          0.210099E-03
      0.285000          0.201791E-03
      0.290000          0.194624E-03
      0.295000          0.188531E-03
      0.300000          0.183417E-03
      0.305000          0.179176E-03
      0.310000          0.175699E-03
      0.315000          0.172884E-03
      0.320000          0.170641E-03
      0.325000          0.168893E-03
      0.330000          0.167574E-03
      0.335000          0.166628E-03
      0.340000          0.165998E-03
      0.345000          0.165625E-03
      0.350000          0.165445E-03
      0.355000          0.165382E-03
      0.360000          0.165351E-03
      0.365000          0.165258E-03
      0.370000          0.165008E-03
      0.375000          0.164506E-03
      0.380000          0.163669E-03
      0.385000          0.162429E-03
      0.390000          0.160743E-03
      0.395000          0.158592E-03
      0.400000          0.155991E-03
      0.405000          0.152982E-03
      0.410000          0.149634E-03
      0.415000          0.146040E-03
      0.420000          0.142308E-03
      0.425000          0.138553E-03
      0.430000          0.134889E-03
      0.435000          0.131420E-03
      0.440000          0.128235E-03
      0.445000          0.125399E-03
      0.450000          0.122952E-03
      0.455000          0.120904E-03
      0.460000          0.119240E-03
      0.465000          0.117921E-03
      0.470000          0.116886E-03
      0.475000          0.116060E-03
      0.480000          0.115362E-03
      0.485000          0.114707E-03
      0.490000          0.114015E-03
      0.495000          0.113217E-03
      0.500000          0.112259E-03
