 I_abs(s)[cm^-1]/c[mg/ml]
       0.00000          0.141796E-01
      0.500000E-02      0.141022E-01
      0.100000E-01      0.138728E-01
      0.150000E-01      0.134991E-01
      0.200000E-01      0.129939E-01
      0.250000E-01      0.123739E-01
      0.300000E-01      0.116593E-01
      0.350000E-01      0.108722E-01
      0.400000E-01      0.100360E-01
      0.450000E-01      0.917399E-02
      0.500000E-01      0.830859E-02
      0.550000E-01      0.746010E-02
      0.600000E-01      0.664614E-02
      0.650000E-01      0.588105E-02
      0.700000E-01      0.517558E-02
      0.750000E-01      0.453677E-02
      0.800000E-01      0.396812E-02
      0.850000E-01      0.346988E-02
      0.900000E-01      0.303948E-02
      0.950000E-01      0.267217E-02
      0.100000          0.236156E-02
      0.105000          0.210032E-02
      0.110000          0.188071E-02
      0.115000          0.169517E-02
      0.120000          0.153667E-02
      0.125000          0.139909E-02
      0.130000          0.127736E-02
      0.135000          0.116756E-02
      0.140000          0.106690E-02
      0.145000          0.973581E-03
      0.150000          0.886681E-03
      0.155000          0.805910E-03
      0.160000          0.731419E-03
      0.165000          0.663589E-03
      0.170000          0.602855E-03
      0.175000          0.549562E-03
      0.180000          0.503865E-03
      0.185000          0.465673E-03
      0.190000          0.434636E-03
      0.195000          0.410160E-03
      0.200000          0.391451E-03
      0.205000          0.377582E-03
      0.210000          0.367551E-03
      0.215000          0.360357E-03
      0.220000          0.355053E-03
      0.225000          0.350796E-03
      0.230000          0.346876E-03
      0.235000          0.342739E-03
      0.240000          0.337983E-03
      0.245000          0.332357E-03
      0.250000          0.325737E-03
      0.255000          0.318112E-03
      0.260000          0.309551E-03
      0.265000          0.300186E-03
      0.270000          0.290186E-03
      0.275000          0.279739E-03
      0.280000          0.269040E-03
      0.285000          0.258277E-03
      0.290000          0.247622E-03
      0.295000          0.237232E-03
      0.300000          0.227240E-03
      0.305000          0.217755E-03
      0.310000          0.208864E-03
      0.315000          0.200625E-03
      0.320000          0.193074E-03
      0.325000          0.186219E-03
      0.330000          0.180045E-03
      0.335000          0.174515E-03
      0.340000          0.169575E-03
      0.345000          0.165153E-03
      0.350000          0.161169E-03
      0.355000          0.157539E-03
      0.360000          0.154180E-03
      0.365000          0.151018E-03
      0.370000          0.147989E-03
      0.375000          0.145047E-03
      0.380000          0.142162E-03
      0.385000          0.139324E-03
      0.390000          0.136540E-03
      0.395000          0.133830E-03
      0.400000          0.131224E-03
      0.405000          0.128760E-03
      0.410000          0.126471E-03
      0.415000          0.124387E-03
      0.420000          0.122529E-03
      0.425000          0.120905E-03
      0.430000          0.119508E-03
      0.435000          0.118317E-03
      0.440000          0.117297E-03
      0.445000          0.116406E-03
      0.450000          0.115593E-03
      0.455000          0.114806E-03
      0.460000          0.113994E-03
      0.465000          0.113117E-03
      0.470000          0.112140E-03
      0.475000          0.111047E-03
      0.480000          0.109830E-03
      0.485000          0.108500E-03
      0.490000          0.107078E-03
      0.495000          0.105593E-03
      0.500000          0.104084E-03
