 I_abs(s)[cm^-1]/c[mg/ml]
       0.00000          0.147260E-01
      0.500000E-02      0.146675E-01
      0.100000E-01      0.144932E-01
      0.150000E-01      0.142071E-01
      0.200000E-01      0.138155E-01
      0.250000E-01      0.133270E-01
      0.300000E-01      0.127520E-01
      0.350000E-01      0.121027E-01
      0.400000E-01      0.113926E-01
      0.450000E-01      0.106356E-01
      0.500000E-01      0.984646E-02
      0.550000E-01      0.903955E-02
      0.600000E-01      0.822890E-02
      0.650000E-01      0.742768E-02
      0.700000E-01      0.664789E-02
      0.750000E-01      0.590009E-02
      0.800000E-01      0.519320E-02
      0.850000E-01      0.453437E-02
      0.900000E-01      0.392887E-02
      0.950000E-01      0.338019E-02
      0.100000          0.288999E-02
      0.105000          0.245832E-02
      0.110000          0.208376E-02
      0.115000          0.176360E-02
      0.120000          0.149412E-02
      0.125000          0.127083E-02
      0.130000          0.108869E-02
      0.135000          0.942380E-03
      0.140000          0.826526E-03
      0.145000          0.735883E-03
      0.150000          0.665513E-03
      0.155000          0.610916E-03
      0.160000          0.568124E-03
      0.165000          0.533762E-03
      0.170000          0.505071E-03
      0.175000          0.479901E-03
      0.180000          0.456680E-03
      0.185000          0.434354E-03
      0.190000          0.412319E-03
      0.195000          0.390339E-03
      0.200000          0.368460E-03
      0.205000          0.346927E-03
      0.210000          0.326103E-03
      0.215000          0.306401E-03
      0.220000          0.288224E-03
      0.225000          0.271918E-03
      0.230000          0.257741E-03
      0.235000          0.245844E-03
      0.240000          0.236265E-03
      0.245000          0.228928E-03
      0.250000          0.223662E-03
      0.255000          0.220215E-03
      0.260000          0.218279E-03
      0.265000          0.217511E-03
      0.270000          0.217560E-03
      0.275000          0.218088E-03
      0.280000          0.218788E-03
      0.285000          0.219396E-03
      0.290000          0.219706E-03
      0.295000          0.219570E-03
      0.300000          0.218897E-03
      0.305000          0.217654E-03
      0.310000          0.215855E-03
      0.315000          0.213553E-03
      0.320000          0.210829E-03
      0.325000          0.207782E-03
      0.330000          0.204515E-03
      0.335000          0.201129E-03
      0.340000          0.197714E-03
      0.345000          0.194342E-03
      0.350000          0.191063E-03
      0.355000          0.187908E-03
      0.360000          0.184882E-03
      0.365000          0.181973E-03
      0.370000          0.179152E-03
      0.375000          0.176378E-03
      0.380000          0.173604E-03
      0.385000          0.170782E-03
      0.390000          0.167866E-03
      0.395000          0.164816E-03
      0.400000          0.161605E-03
      0.405000          0.158215E-03
      0.410000          0.154645E-03
      0.415000          0.150903E-03
      0.420000          0.147013E-03
      0.425000          0.143006E-03
      0.430000          0.138923E-03
      0.435000          0.134810E-03
      0.440000          0.130712E-03
      0.445000          0.126678E-03
      0.450000          0.122749E-03
      0.455000          0.118964E-03
      0.460000          0.115352E-03
      0.465000          0.111936E-03
      0.470000          0.108727E-03
      0.475000          0.105730E-03
      0.480000          0.102941E-03
      0.485000          0.100349E-03
      0.490000          0.979376E-04
      0.495000          0.956865E-04
      0.500000          0.935734E-04
