 I_abs(s)[cm^-1]/c[mg/ml]
       0.00000          0.144001E-01
      0.500000E-02      0.143217E-01
      0.100000E-01      0.140891E-01
      0.150000E-01      0.137103E-01
      0.200000E-01      0.131980E-01
      0.250000E-01      0.125691E-01
      0.300000E-01      0.118435E-01
      0.350000E-01      0.110437E-01
      0.400000E-01      0.101931E-01
      0.450000E-01      0.931522E-02
      0.500000E-01      0.843242E-02
      0.550000E-01      0.756524E-02
      0.600000E-01      0.673152E-02
      0.650000E-01      0.594587E-02
      0.700000E-01      0.521936E-02
      0.750000E-01      0.455946E-02
      0.800000E-01      0.397010E-02
      0.850000E-01      0.345206E-02
      0.900000E-01      0.300333E-02
      0.950000E-01      0.261972E-02
      0.100000          0.229538E-02
      0.105000          0.202346E-02
      0.110000          0.179662E-02
      0.115000          0.160757E-02
      0.120000          0.144939E-02
      0.125000          0.131588E-02
      0.130000          0.120173E-02
      0.135000          0.110261E-02
      0.140000          0.101512E-02
      0.145000          0.936761E-03
      0.150000          0.865809E-03
      0.155000          0.801130E-03
      0.160000          0.742045E-03
      0.165000          0.688163E-03
      0.170000          0.639258E-03
      0.175000          0.595156E-03
      0.180000          0.555666E-03
      0.185000          0.520535E-03
      0.190000          0.489437E-03
      0.195000          0.461972E-03
      0.200000          0.437694E-03
      0.205000          0.416138E-03
      0.210000          0.396846E-03
      0.215000          0.379400E-03
      0.220000          0.363437E-03
      0.225000          0.348665E-03
      0.230000          0.334862E-03
      0.235000          0.321874E-03
      0.240000          0.309604E-03
      0.245000          0.298000E-03
      0.250000          0.287036E-03
      0.255000          0.276703E-03
      0.260000          0.266995E-03
      0.265000          0.257901E-03
      0.270000          0.249401E-03
      0.275000          0.241466E-03
      0.280000          0.234057E-03
      0.285000          0.227129E-03
      0.290000          0.220639E-03
      0.295000          0.214542E-03
      0.300000          0.208804E-03
      0.305000          0.203395E-03
      0.310000          0.198295E-03
      0.315000          0.193491E-03
      0.320000          0.188979E-03
      0.325000          0.184755E-03
      0.330000          0.180817E-03
      0.335000          0.177162E-03
      0.340000          0.173784E-03
      0.345000          0.170669E-03
      0.350000          0.167801E-03
      0.355000          0.165154E-03
      0.360000          0.162701E-03
      0.365000          0.160408E-03
      0.370000          0.158241E-03
      0.375000          0.156162E-03
      0.380000          0.154138E-03
      0.385000          0.152135E-03
      0.390000          0.150122E-03
      0.395000          0.148075E-03
      0.400000          0.145974E-03
      0.405000          0.143803E-03
      0.410000          0.141554E-03
      0.415000          0.139226E-03
      0.420000          0.136821E-03
      0.425000          0.134348E-03
      0.430000          0.131822E-03
      0.435000          0.129261E-03
      0.440000          0.126686E-03
      0.445000          0.124122E-03
      0.450000          0.121593E-03
      0.455000          0.119125E-03
      0.460000          0.116739E-03
      0.465000          0.114458E-03
      0.470000          0.112300E-03
      0.475000          0.110280E-03
      0.480000          0.108409E-03
      0.485000          0.106694E-03
      0.490000          0.105142E-03
      0.495000          0.103752E-03
      0.500000          0.102526E-03
