 I_abs(s)[cm^-1]/c[mg/ml]
       0.00000          0.144476E-01
      0.500000E-02      0.143786E-01
      0.100000E-01      0.141736E-01
      0.150000E-01      0.138385E-01
      0.200000E-01      0.133825E-01
      0.250000E-01      0.128183E-01
      0.300000E-01      0.121610E-01
      0.350000E-01      0.114279E-01
      0.400000E-01      0.106374E-01
      0.450000E-01      0.980858E-02
      0.500000E-01      0.896034E-02
      0.550000E-01      0.811072E-02
      0.600000E-01      0.727633E-02
      0.650000E-01      0.647187E-02
      0.700000E-01      0.570973E-02
      0.750000E-01      0.499974E-02
      0.800000E-01      0.434908E-02
      0.850000E-01      0.376232E-02
      0.900000E-01      0.324148E-02
      0.950000E-01      0.278634E-02
      0.100000          0.239470E-02
      0.105000          0.206276E-02
      0.110000          0.178548E-02
      0.115000          0.155699E-02
      0.120000          0.137095E-02
      0.125000          0.122089E-02
      0.130000          0.110052E-02
      0.135000          0.100392E-02
      0.140000          0.925762E-03
      0.145000          0.861410E-03
      0.150000          0.806976E-03
      0.155000          0.759338E-03
      0.160000          0.716109E-03
      0.165000          0.675577E-03
      0.170000          0.636618E-03
      0.175000          0.598600E-03
      0.180000          0.561284E-03
      0.185000          0.524714E-03
      0.190000          0.489134E-03
      0.195000          0.454898E-03
      0.200000          0.422401E-03
      0.205000          0.392030E-03
      0.210000          0.364118E-03
      0.215000          0.338916E-03
      0.220000          0.316586E-03
      0.225000          0.297185E-03
      0.230000          0.280679E-03
      0.235000          0.266944E-03
      0.240000          0.255784E-03
      0.245000          0.246946E-03
      0.250000          0.240135E-03
      0.255000          0.235036E-03
      0.260000          0.231324E-03
      0.265000          0.228685E-03
      0.270000          0.226820E-03
      0.275000          0.225462E-03
      0.280000          0.224379E-03
      0.285000          0.223377E-03
      0.290000          0.222305E-03
      0.295000          0.221053E-03
      0.300000          0.219546E-03
      0.305000          0.217743E-03
      0.310000          0.215632E-03
      0.315000          0.213221E-03
      0.320000          0.210534E-03
      0.325000          0.207604E-03
      0.330000          0.204467E-03
      0.335000          0.201161E-03
      0.340000          0.197720E-03
      0.345000          0.194172E-03
      0.350000          0.190539E-03
      0.355000          0.186836E-03
      0.360000          0.183077E-03
      0.365000          0.179267E-03
      0.370000          0.175415E-03
      0.375000          0.171528E-03
      0.380000          0.167616E-03
      0.385000          0.163691E-03
      0.390000          0.159773E-03
      0.395000          0.155883E-03
      0.400000          0.152047E-03
      0.405000          0.148295E-03
      0.410000          0.144658E-03
      0.415000          0.141167E-03
      0.420000          0.137851E-03
      0.425000          0.134735E-03
      0.430000          0.131839E-03
      0.435000          0.129177E-03
      0.440000          0.126757E-03
      0.445000          0.124577E-03
      0.450000          0.122631E-03
      0.455000          0.120903E-03
      0.460000          0.119375E-03
      0.465000          0.118022E-03
      0.470000          0.116817E-03
      0.475000          0.115731E-03
      0.480000          0.114735E-03
      0.485000          0.113801E-03
      0.490000          0.112903E-03
      0.495000          0.112017E-03
      0.500000          0.111123E-03
