 I_abs(s)[cm^-1]/c[mg/ml]
       0.00000          0.142739E-01
      0.500000E-02      0.142077E-01
      0.100000E-01      0.140112E-01
      0.150000E-01      0.136897E-01
      0.200000E-01      0.132524E-01
      0.250000E-01      0.127113E-01
      0.300000E-01      0.120808E-01
      0.350000E-01      0.113774E-01
      0.400000E-01      0.106186E-01
      0.450000E-01      0.982239E-02
      0.500000E-01      0.900663E-02
      0.550000E-01      0.818823E-02
      0.600000E-01      0.738271E-02
      0.650000E-01      0.660372E-02
      0.700000E-01      0.586272E-02
      0.750000E-01      0.516879E-02
      0.800000E-01      0.452855E-02
      0.850000E-01      0.394623E-02
      0.900000E-01      0.342381E-02
      0.950000E-01      0.296127E-02
      0.100000          0.255690E-02
      0.105000          0.220762E-02
      0.110000          0.190933E-02
      0.115000          0.165726E-02
      0.120000          0.144626E-02
      0.125000          0.127111E-02
      0.130000          0.112668E-02
      0.135000          0.100817E-02
      0.140000          0.911174E-03
      0.145000          0.831757E-03
      0.150000          0.766501E-03
      0.155000          0.712483E-03
      0.160000          0.667249E-03
      0.165000          0.628769E-03
      0.170000          0.595386E-03
      0.175000          0.565763E-03
      0.180000          0.538837E-03
      0.185000          0.513776E-03
      0.190000          0.489947E-03
      0.195000          0.466889E-03
      0.200000          0.444297E-03
      0.205000          0.422000E-03
      0.210000          0.399949E-03
      0.215000          0.378203E-03
      0.220000          0.356909E-03
      0.225000          0.336284E-03
      0.230000          0.316590E-03
      0.235000          0.298111E-03
      0.240000          0.281124E-03
      0.245000          0.265878E-03
      0.250000          0.252570E-03
      0.255000          0.241325E-03
      0.260000          0.232188E-03
      0.265000          0.225116E-03
      0.270000          0.219979E-03
      0.275000          0.216569E-03
      0.280000          0.214617E-03
      0.285000          0.213805E-03
      0.290000          0.213793E-03
      0.295000          0.214235E-03
      0.300000          0.214805E-03
      0.305000          0.215212E-03
      0.310000          0.215216E-03
      0.315000          0.214634E-03
      0.320000          0.213351E-03
      0.325000          0.211311E-03
      0.330000          0.208518E-03
      0.335000          0.205027E-03
      0.340000          0.200927E-03
      0.345000          0.196337E-03
      0.350000          0.191384E-03
      0.355000          0.186201E-03
      0.360000          0.180907E-03
      0.365000          0.175609E-03
      0.370000          0.170389E-03
      0.375000          0.165309E-03
      0.380000          0.160406E-03
      0.385000          0.155697E-03
      0.390000          0.151184E-03
      0.395000          0.146856E-03
      0.400000          0.142698E-03
      0.405000          0.138691E-03
      0.410000          0.134818E-03
      0.415000          0.131067E-03
      0.420000          0.127433E-03
      0.425000          0.123916E-03
      0.430000          0.120523E-03
      0.435000          0.117265E-03
      0.440000          0.114154E-03
      0.445000          0.111205E-03
      0.450000          0.108431E-03
      0.455000          0.105840E-03
      0.460000          0.103440E-03
      0.465000          0.101230E-03
      0.470000          0.992092E-04
      0.475000          0.973701E-04
      0.480000          0.957030E-04
      0.485000          0.941959E-04
      0.490000          0.928353E-04
      0.495000          0.916072E-04
      0.500000          0.904974E-04
