 I_abs(s)[cm^-1]/c[mg/ml]
       0.00000          0.147420E-01
      0.500000E-02      0.146742E-01
      0.100000E-01      0.144723E-01
      0.150000E-01      0.141417E-01
      0.200000E-01      0.136906E-01
      0.250000E-01      0.131304E-01
      0.300000E-01      0.124749E-01
      0.350000E-01      0.117399E-01
      0.400000E-01      0.109424E-01
      0.450000E-01      0.101006E-01
      0.500000E-01      0.923251E-02
      0.550000E-01      0.835596E-02
      0.600000E-01      0.748774E-02
      0.650000E-01      0.664321E-02
      0.700000E-01      0.583587E-02
      0.750000E-01      0.507704E-02
      0.800000E-01      0.437571E-02
      0.850000E-01      0.373837E-02
      0.900000E-01      0.316904E-02
      0.950000E-01      0.266942E-02
      0.100000          0.223899E-02
      0.105000          0.187532E-02
      0.110000          0.157438E-02
      0.115000          0.133085E-02
      0.120000          0.113848E-02
      0.125000          0.990474E-03
      0.130000          0.879797E-03
      0.135000          0.799481E-03
      0.140000          0.742890E-03
      0.145000          0.703928E-03
      0.150000          0.677197E-03
      0.155000          0.658098E-03
      0.160000          0.642883E-03
      0.165000          0.628658E-03
      0.170000          0.613344E-03
      0.175000          0.595607E-03
      0.180000          0.574764E-03
      0.185000          0.550670E-03
      0.190000          0.523607E-03
      0.195000          0.494157E-03
      0.200000          0.463102E-03
      0.205000          0.431315E-03
      0.210000          0.399684E-03
      0.215000          0.369039E-03
      0.220000          0.340108E-03
      0.225000          0.313479E-03
      0.230000          0.289585E-03
      0.235000          0.268704E-03
      0.240000          0.250960E-03
      0.245000          0.236345E-03
      0.250000          0.224733E-03
      0.255000          0.215909E-03
      0.260000          0.209589E-03
      0.265000          0.205446E-03
      0.270000          0.203129E-03
      0.275000          0.202280E-03
      0.280000          0.202551E-03
      0.285000          0.203613E-03
      0.290000          0.205162E-03
      0.295000          0.206928E-03
      0.300000          0.208675E-03
      0.305000          0.210204E-03
      0.310000          0.211349E-03
      0.315000          0.211981E-03
      0.320000          0.212005E-03
      0.325000          0.211355E-03
      0.330000          0.209998E-03
      0.335000          0.207927E-03
      0.340000          0.205162E-03
      0.345000          0.201745E-03
      0.350000          0.197739E-03
      0.355000          0.193224E-03
      0.360000          0.188293E-03
      0.365000          0.183048E-03
      0.370000          0.177598E-03
      0.375000          0.172051E-03
      0.380000          0.166514E-03
      0.385000          0.161085E-03
      0.390000          0.155854E-03
      0.395000          0.150896E-03
      0.400000          0.146270E-03
      0.405000          0.142021E-03
      0.410000          0.138175E-03
      0.415000          0.134742E-03
      0.420000          0.131717E-03
      0.425000          0.129081E-03
      0.430000          0.126801E-03
      0.435000          0.124837E-03
      0.440000          0.123144E-03
      0.445000          0.121669E-03
      0.450000          0.120363E-03
      0.455000          0.119173E-03
      0.460000          0.118054E-03
      0.465000          0.116963E-03
      0.470000          0.115865E-03
      0.475000          0.114729E-03
      0.480000          0.113537E-03
      0.485000          0.112273E-03
      0.490000          0.110934E-03
      0.495000          0.109519E-03
      0.500000          0.108037E-03
