 I_abs(s)[cm^-1]/c[mg/ml]
       0.00000          0.148381E-01
      0.500000E-02      0.147746E-01
      0.100000E-01      0.145855E-01
      0.150000E-01      0.142758E-01
      0.200000E-01      0.138531E-01
      0.250000E-01      0.133280E-01
      0.300000E-01      0.127131E-01
      0.350000E-01      0.120230E-01
      0.400000E-01      0.112736E-01
      0.450000E-01      0.104812E-01
      0.500000E-01      0.966238E-02
      0.550000E-01      0.883339E-02
      0.600000E-01      0.800936E-02
      0.650000E-01      0.720412E-02
      0.700000E-01      0.642976E-02
      0.750000E-01      0.569637E-02
      0.800000E-01      0.501190E-02
      0.850000E-01      0.438212E-02
      0.900000E-01      0.381059E-02
      0.950000E-01      0.329886E-02
      0.100000          0.284663E-02
      0.105000          0.245197E-02
      0.110000          0.211169E-02
      0.115000          0.182155E-02
      0.120000          0.157666E-02
      0.125000          0.137172E-02
      0.130000          0.120133E-02
      0.135000          0.106019E-02
      0.140000          0.943335E-03
      0.145000          0.846252E-03
      0.150000          0.764982E-03
      0.155000          0.696173E-03
      0.160000          0.637087E-03
      0.165000          0.585578E-03
      0.170000          0.540032E-03
      0.175000          0.499300E-03
      0.180000          0.462611E-03
      0.185000          0.429483E-03
      0.190000          0.399642E-03
      0.195000          0.372943E-03
      0.200000          0.349304E-03
      0.205000          0.328658E-03
      0.210000          0.310913E-03
      0.215000          0.295932E-03
      0.220000          0.283526E-03
      0.225000          0.273452E-03
      0.230000          0.265424E-03
      0.235000          0.259130E-03
      0.240000          0.254246E-03
      0.245000          0.250455E-03
      0.250000          0.247466E-03
      0.255000          0.245022E-03
      0.260000          0.242908E-03
      0.265000          0.240960E-03
      0.270000          0.239062E-03
      0.275000          0.237142E-03
      0.280000          0.235163E-03
      0.285000          0.233121E-03
      0.290000          0.231031E-03
      0.295000          0.228916E-03
      0.300000          0.226803E-03
      0.305000          0.224716E-03
      0.310000          0.222666E-03
      0.315000          0.220653E-03
      0.320000          0.218664E-03
      0.325000          0.216673E-03
      0.330000          0.214642E-03
      0.335000          0.212528E-03
      0.340000          0.210285E-03
      0.345000          0.207865E-03
      0.350000          0.205228E-03
      0.355000          0.202341E-03
      0.360000          0.199181E-03
      0.365000          0.195739E-03
      0.370000          0.192017E-03
      0.375000          0.188033E-03
      0.380000          0.183812E-03
      0.385000          0.179395E-03
      0.390000          0.174826E-03
      0.395000          0.170158E-03
      0.400000          0.165445E-03
      0.405000          0.160744E-03
      0.410000          0.156109E-03
      0.415000          0.151588E-03
      0.420000          0.147227E-03
      0.425000          0.143062E-03
      0.430000          0.139122E-03
      0.435000          0.135428E-03
      0.440000          0.131990E-03
      0.445000          0.128810E-03
      0.450000          0.125882E-03
      0.455000          0.123194E-03
      0.460000          0.120724E-03
      0.465000          0.118447E-03
      0.470000          0.116335E-03
      0.475000          0.114354E-03
      0.480000          0.112472E-03
      0.485000          0.110656E-03
      0.490000          0.108875E-03
      0.495000          0.107100E-03
      0.500000          0.105308E-03
