 I_abs(s)[cm^-1]/c[mg/ml]
       0.00000          0.139453E-01
      0.500000E-02      0.138452E-01
      0.100000E-01      0.135493E-01
      0.150000E-01      0.130701E-01
      0.200000E-01      0.124280E-01
      0.250000E-01      0.116493E-01
      0.300000E-01      0.107651E-01
      0.350000E-01      0.980918E-02
      0.400000E-01      0.881625E-02
      0.450000E-01      0.781979E-02
      0.500000E-01      0.685041E-02
      0.550000E-01      0.593445E-02
      0.600000E-01      0.509285E-02
      0.650000E-01      0.434059E-02
      0.700000E-01      0.368645E-02
      0.750000E-01      0.313330E-02
      0.800000E-01      0.267865E-02
      0.850000E-01      0.231560E-02
      0.900000E-01      0.203385E-02
      0.950000E-01      0.182089E-02
      0.100000          0.166316E-02
      0.105000          0.154709E-02
      0.110000          0.146000E-02
      0.115000          0.139076E-02
      0.120000          0.133026E-02
      0.125000          0.127165E-02
      0.130000          0.121029E-02
      0.135000          0.114364E-02
      0.140000          0.107094E-02
      0.145000          0.992851E-03
      0.150000          0.911029E-03
      0.155000          0.827729E-03
      0.160000          0.745448E-03
      0.165000          0.666621E-03
      0.170000          0.593399E-03
      0.175000          0.527503E-03
      0.180000          0.470144E-03
      0.185000          0.422010E-03
      0.190000          0.383292E-03
      0.195000          0.353745E-03
      0.200000          0.332758E-03
      0.205000          0.319444E-03
      0.210000          0.312710E-03
      0.215000          0.311335E-03
      0.220000          0.314032E-03
      0.225000          0.319501E-03
      0.230000          0.326485E-03
      0.235000          0.333807E-03
      0.240000          0.340410E-03
      0.245000          0.345399E-03
      0.250000          0.348064E-03
      0.255000          0.347911E-03
      0.260000          0.344672E-03
      0.265000          0.338311E-03
      0.270000          0.329016E-03
      0.275000          0.317176E-03
      0.280000          0.303343E-03
      0.285000          0.288191E-03
      0.290000          0.272453E-03
      0.295000          0.256875E-03
      0.300000          0.242149E-03
      0.305000          0.228872E-03
      0.310000          0.217501E-03
      0.315000          0.208330E-03
      0.320000          0.201476E-03
      0.325000          0.196886E-03
      0.330000          0.194353E-03
      0.335000          0.193544E-03
      0.340000          0.194040E-03
      0.345000          0.195374E-03
      0.350000          0.197076E-03
      0.355000          0.198705E-03
      0.360000          0.199884E-03
      0.365000          0.200321E-03
      0.370000          0.199820E-03
      0.375000          0.198286E-03
      0.380000          0.195719E-03
      0.385000          0.192200E-03
      0.390000          0.187875E-03
      0.395000          0.182935E-03
      0.400000          0.177591E-03
      0.405000          0.172062E-03
      0.410000          0.166548E-03
      0.415000          0.161225E-03
      0.420000          0.156233E-03
      0.425000          0.151669E-03
      0.430000          0.147587E-03
      0.435000          0.144002E-03
      0.440000          0.140894E-03
      0.445000          0.138212E-03
      0.450000          0.135887E-03
      0.455000          0.133833E-03
      0.460000          0.131960E-03
      0.465000          0.130179E-03
      0.470000          0.128409E-03
      0.475000          0.126580E-03
      0.480000          0.124638E-03
      0.485000          0.122546E-03
      0.490000          0.120285E-03
      0.495000          0.117857E-03
      0.500000          0.115276E-03
