 I_abs(s)[cm^-1]/c[mg/ml]
       0.00000          0.149507E-01
      0.500000E-02      0.148989E-01
      0.100000E-01      0.147447E-01
      0.150000E-01      0.144912E-01
      0.200000E-01      0.141435E-01
      0.250000E-01      0.137087E-01
      0.300000E-01      0.131952E-01
      0.350000E-01      0.126131E-01
      0.400000E-01      0.119733E-01
      0.450000E-01      0.112873E-01
      0.500000E-01      0.105672E-01
      0.550000E-01      0.982486E-02
      0.600000E-01      0.907207E-02
      0.650000E-01      0.831988E-02
      0.700000E-01      0.757851E-02
      0.750000E-01      0.685714E-02
      0.800000E-01      0.616369E-02
      0.850000E-01      0.550477E-02
      0.900000E-01      0.488561E-02
      0.950000E-01      0.431005E-02
      0.100000          0.378056E-02
      0.105000          0.329839E-02
      0.110000          0.286361E-02
      0.115000          0.247534E-02
      0.120000          0.213181E-02
      0.125000          0.183063E-02
      0.130000          0.156887E-02
      0.135000          0.134330E-02
      0.140000          0.115049E-02
      0.145000          0.986939E-03
      0.150000          0.849226E-03
      0.155000          0.734069E-03
      0.160000          0.638398E-03
      0.165000          0.559403E-03
      0.170000          0.494561E-03
      0.175000          0.441636E-03
      0.180000          0.398682E-03
      0.185000          0.364018E-03
      0.190000          0.336210E-03
      0.195000          0.314037E-03
      0.200000          0.296465E-03
      0.205000          0.282612E-03
      0.210000          0.271730E-03
      0.215000          0.263174E-03
      0.220000          0.256389E-03
      0.225000          0.250895E-03
      0.230000          0.246275E-03
      0.235000          0.242174E-03
      0.240000          0.238289E-03
      0.245000          0.234374E-03
      0.250000          0.230237E-03
      0.255000          0.225735E-03
      0.260000          0.220781E-03
      0.265000          0.215331E-03
      0.270000          0.209391E-03
      0.275000          0.203002E-03
      0.280000          0.196238E-03
      0.285000          0.189199E-03
      0.290000          0.182000E-03
      0.295000          0.174764E-03
      0.300000          0.167614E-03
      0.305000          0.160668E-03
      0.310000          0.154028E-03
      0.315000          0.147783E-03
      0.320000          0.142000E-03
      0.325000          0.136726E-03
      0.330000          0.131987E-03
      0.335000          0.127791E-03
      0.340000          0.124130E-03
      0.345000          0.120980E-03
      0.350000          0.118310E-03
      0.355000          0.116083E-03
      0.360000          0.114257E-03
      0.365000          0.112792E-03
      0.370000          0.111648E-03
      0.375000          0.110787E-03
      0.380000          0.110179E-03
      0.385000          0.109794E-03
      0.390000          0.109606E-03
      0.395000          0.109592E-03
      0.400000          0.109731E-03
      0.405000          0.110001E-03
      0.410000          0.110379E-03
      0.415000          0.110842E-03
      0.420000          0.111363E-03
      0.425000          0.111914E-03
      0.430000          0.112467E-03
      0.435000          0.112989E-03
      0.440000          0.113451E-03
      0.445000          0.113823E-03
      0.450000          0.114078E-03
      0.455000          0.114194E-03
      0.460000          0.114151E-03
      0.465000          0.113937E-03
      0.470000          0.113545E-03
      0.475000          0.112975E-03
      0.480000          0.112234E-03
      0.485000          0.111332E-03
      0.490000          0.110287E-03
      0.495000          0.109119E-03
      0.500000          0.107854E-03
