 I_abs(s)[cm^-1]/c[mg/ml]
       0.00000          0.143606E-01
      0.500000E-02      0.142904E-01
      0.100000E-01      0.140819E-01
      0.150000E-01      0.137414E-01
      0.200000E-01      0.132788E-01
      0.250000E-01      0.127076E-01
      0.300000E-01      0.120439E-01
      0.350000E-01      0.113059E-01
      0.400000E-01      0.105130E-01
      0.450000E-01      0.968492E-02
      0.500000E-01      0.884109E-02
      0.550000E-01      0.799982E-02
      0.600000E-01      0.717768E-02
      0.650000E-01      0.638904E-02
      0.700000E-01      0.564568E-02
      0.750000E-01      0.495664E-02
      0.800000E-01      0.432812E-02
      0.850000E-01      0.376364E-02
      0.900000E-01      0.326422E-02
      0.950000E-01      0.282867E-02
      0.100000          0.245399E-02
      0.105000          0.213581E-02
      0.110000          0.186874E-02
      0.115000          0.164682E-02
      0.120000          0.146388E-02
      0.125000          0.131385E-02
      0.130000          0.119099E-02
      0.135000          0.109010E-02
      0.140000          0.100660E-02
      0.145000          0.936610E-03
      0.150000          0.876939E-03
      0.155000          0.825051E-03
      0.160000          0.778998E-03
      0.165000          0.737331E-03
      0.170000          0.699011E-03
      0.175000          0.663319E-03
      0.180000          0.629773E-03
      0.185000          0.598056E-03
      0.190000          0.567967E-03
      0.195000          0.539371E-03
      0.200000          0.512180E-03
      0.205000          0.486330E-03
      0.210000          0.461770E-03
      0.215000          0.438467E-03
      0.220000          0.416396E-03
      0.225000          0.395544E-03
      0.230000          0.375908E-03
      0.235000          0.357493E-03
      0.240000          0.340308E-03
      0.245000          0.324360E-03
      0.250000          0.309650E-03
      0.255000          0.296170E-03
      0.260000          0.283893E-03
      0.265000          0.272774E-03
      0.270000          0.262751E-03
      0.275000          0.253742E-03
      0.280000          0.245651E-03
      0.285000          0.238369E-03
      0.290000          0.231783E-03
      0.295000          0.225779E-03
      0.300000          0.220246E-03
      0.305000          0.215084E-03
      0.310000          0.210201E-03
      0.315000          0.205523E-03
      0.320000          0.200987E-03
      0.325000          0.196547E-03
      0.330000          0.192170E-03
      0.335000          0.187833E-03
      0.340000          0.183526E-03
      0.345000          0.179246E-03
      0.350000          0.174995E-03
      0.355000          0.170783E-03
      0.360000          0.166622E-03
      0.365000          0.162529E-03
      0.370000          0.158525E-03
      0.375000          0.154630E-03
      0.380000          0.150869E-03
      0.385000          0.147268E-03
      0.390000          0.143855E-03
      0.395000          0.140655E-03
      0.400000          0.137694E-03
      0.405000          0.134994E-03
      0.410000          0.132573E-03
      0.415000          0.130442E-03
      0.420000          0.128608E-03
      0.425000          0.127068E-03
      0.430000          0.125810E-03
      0.435000          0.124818E-03
      0.440000          0.124065E-03
      0.445000          0.123518E-03
      0.450000          0.123141E-03
      0.455000          0.122891E-03
      0.460000          0.122726E-03
      0.465000          0.122603E-03
      0.470000          0.122480E-03
      0.475000          0.122318E-03
      0.480000          0.122082E-03
      0.485000          0.121742E-03
      0.490000          0.121274E-03
      0.495000          0.120659E-03
      0.500000          0.119882E-03
