 I_abs(s)[cm^-1]/c[mg/ml]
       0.00000          0.143764E-01
      0.500000E-02      0.143000E-01
      0.100000E-01      0.140731E-01
      0.150000E-01      0.137029E-01
      0.200000E-01      0.132009E-01
      0.250000E-01      0.125825E-01
      0.300000E-01      0.118662E-01
      0.350000E-01      0.110727E-01
      0.400000E-01      0.102242E-01
      0.450000E-01      0.934313E-02
      0.500000E-01      0.845143E-02
      0.550000E-01      0.756967E-02
      0.600000E-01      0.671625E-02
      0.650000E-01      0.590687E-02
      0.700000E-01      0.515408E-02
      0.750000E-01      0.446710E-02
      0.800000E-01      0.385173E-02
      0.850000E-01      0.331054E-02
      0.900000E-01      0.284310E-02
      0.950000E-01      0.244642E-02
      0.100000          0.211543E-02
      0.105000          0.184352E-02
      0.110000          0.162310E-02
      0.115000          0.144612E-02
      0.120000          0.130456E-02
      0.125000          0.119085E-02
      0.130000          0.109814E-02
      0.135000          0.102057E-02
      0.140000          0.953371E-03
      0.145000          0.892907E-03
      0.150000          0.836616E-03
      0.155000          0.782910E-03
      0.160000          0.731015E-03
      0.165000          0.680793E-03
      0.170000          0.632547E-03
      0.175000          0.586844E-03
      0.180000          0.544346E-03
      0.185000          0.505677E-03
      0.190000          0.471325E-03
      0.195000          0.441579E-03
      0.200000          0.416498E-03
      0.205000          0.395913E-03
      0.210000          0.379454E-03
      0.215000          0.366595E-03
      0.220000          0.356705E-03
      0.225000          0.349103E-03
      0.230000          0.343117E-03
      0.235000          0.338124E-03
      0.240000          0.333586E-03
      0.245000          0.329075E-03
      0.250000          0.324279E-03
      0.255000          0.319004E-03
      0.260000          0.313162E-03
      0.265000          0.306752E-03
      0.270000          0.299844E-03
      0.275000          0.292549E-03
      0.280000          0.285006E-03
      0.285000          0.277356E-03
      0.290000          0.269733E-03
      0.295000          0.262251E-03
      0.300000          0.254998E-03
      0.305000          0.248039E-03
      0.310000          0.241409E-03
      0.315000          0.235125E-03
      0.320000          0.229187E-03
      0.325000          0.223582E-03
      0.330000          0.218292E-03
      0.335000          0.213292E-03
      0.340000          0.208561E-03
      0.345000          0.204073E-03
      0.350000          0.199806E-03
      0.355000          0.195734E-03
      0.360000          0.191832E-03
      0.365000          0.188071E-03
      0.370000          0.184419E-03
      0.375000          0.180842E-03
      0.380000          0.177303E-03
      0.385000          0.173763E-03
      0.390000          0.170187E-03
      0.395000          0.166542E-03
      0.400000          0.162803E-03
      0.405000          0.158952E-03
      0.410000          0.154985E-03
      0.415000          0.150909E-03
      0.420000          0.146745E-03
      0.425000          0.142525E-03
      0.430000          0.138293E-03
      0.435000          0.134103E-03
      0.440000          0.130011E-03
      0.445000          0.126080E-03
      0.450000          0.122366E-03
      0.455000          0.118924E-03
      0.460000          0.115798E-03
      0.465000          0.113020E-03
      0.470000          0.110610E-03
      0.475000          0.108573E-03
      0.480000          0.106898E-03
      0.485000          0.105561E-03
      0.490000          0.104524E-03
      0.495000          0.103740E-03
      0.500000          0.103151E-03
