 I_abs(s)[cm^-1]/c[mg/ml]
       0.00000          0.145586E-01
      0.500000E-02      0.145041E-01
      0.100000E-01      0.143415E-01
      0.150000E-01      0.140744E-01
      0.200000E-01      0.137082E-01
      0.250000E-01      0.132506E-01
      0.300000E-01      0.127107E-01
      0.350000E-01      0.120993E-01
      0.400000E-01      0.114283E-01
      0.450000E-01      0.107104E-01
      0.500000E-01      0.995858E-02
      0.550000E-01      0.918611E-02
      0.600000E-01      0.840583E-02
      0.650000E-01      0.763000E-02
      0.700000E-01      0.686994E-02
      0.750000E-01      0.613585E-02
      0.800000E-01      0.543654E-02
      0.850000E-01      0.477932E-02
      0.900000E-01      0.416990E-02
      0.950000E-01      0.361238E-02
      0.100000          0.310924E-02
      0.105000          0.266147E-02
      0.110000          0.226863E-02
      0.115000          0.192903E-02
      0.120000          0.163994E-02
      0.125000          0.139774E-02
      0.130000          0.119818E-02
      0.135000          0.103656E-02
      0.140000          0.907950E-03
      0.145000          0.807376E-03
      0.150000          0.729988E-03
      0.155000          0.671204E-03
      0.160000          0.626824E-03
      0.165000          0.593116E-03
      0.170000          0.566872E-03
      0.175000          0.545433E-03
      0.180000          0.526691E-03
      0.185000          0.509064E-03
      0.190000          0.491458E-03
      0.195000          0.473208E-03
      0.200000          0.454011E-03
      0.205000          0.433860E-03
      0.210000          0.412965E-03
      0.215000          0.391686E-03
      0.220000          0.370466E-03
      0.225000          0.349776E-03
      0.230000          0.330067E-03
      0.235000          0.311732E-03
      0.240000          0.295080E-03
      0.245000          0.280323E-03
      0.250000          0.267566E-03
      0.255000          0.256815E-03
      0.260000          0.247979E-03
      0.265000          0.240893E-03
      0.270000          0.235330E-03
      0.275000          0.231022E-03
      0.280000          0.227682E-03
      0.285000          0.225018E-03
      0.290000          0.222755E-03
      0.295000          0.220646E-03
      0.300000          0.218480E-03
      0.305000          0.216092E-03
      0.310000          0.213363E-03
      0.315000          0.210224E-03
      0.320000          0.206646E-03
      0.325000          0.202641E-03
      0.330000          0.198251E-03
      0.335000          0.193544E-03
      0.340000          0.188601E-03
      0.345000          0.183513E-03
      0.350000          0.178368E-03
      0.355000          0.173252E-03
      0.360000          0.168238E-03
      0.365000          0.163386E-03
      0.370000          0.158740E-03
      0.375000          0.154328E-03
      0.380000          0.150162E-03
      0.385000          0.146238E-03
      0.390000          0.142545E-03
      0.395000          0.139059E-03
      0.400000          0.135753E-03
      0.405000          0.132596E-03
      0.410000          0.129558E-03
      0.415000          0.126611E-03
      0.420000          0.123733E-03
      0.425000          0.120906E-03
      0.430000          0.118120E-03
      0.435000          0.115372E-03
      0.440000          0.112662E-03
      0.445000          0.109999E-03
      0.450000          0.107395E-03
      0.455000          0.104864E-03
      0.460000          0.102421E-03
      0.465000          0.100083E-03
      0.470000          0.978639E-04
      0.475000          0.957758E-04
      0.480000          0.938276E-04
      0.485000          0.920244E-04
      0.490000          0.903675E-04
      0.495000          0.888545E-04
      0.500000          0.874797E-04
