 I_abs(s)[cm^-1]/c[mg/ml]
       0.00000          0.136974E-01
      0.500000E-02      0.135844E-01
      0.100000E-01      0.132521E-01
      0.150000E-01      0.127206E-01
      0.200000E-01      0.120210E-01
      0.250000E-01      0.111927E-01
      0.300000E-01      0.102794E-01
      0.350000E-01      0.932567E-02
      0.400000E-01      0.837282E-02
      0.450000E-01      0.745633E-02
      0.500000E-01      0.660358E-02
      0.550000E-01      0.583288E-02
      0.600000E-01      0.515352E-02
      0.650000E-01      0.456669E-02
      0.700000E-01      0.406708E-02
      0.750000E-01      0.364492E-02
      0.800000E-01      0.328794E-02
      0.850000E-01      0.298329E-02
      0.900000E-01      0.271899E-02
      0.950000E-01      0.248489E-02
      0.100000          0.227321E-02
      0.105000          0.207854E-02
      0.110000          0.189757E-02
      0.115000          0.172867E-02
      0.120000          0.157126E-02
      0.125000          0.142539E-02
      0.130000          0.129131E-02
      0.135000          0.116919E-02
      0.140000          0.105901E-02
      0.145000          0.960483E-03
      0.150000          0.873113E-03
      0.155000          0.796205E-03
      0.160000          0.728929E-03
      0.165000          0.670353E-03
      0.170000          0.619470E-03
      0.175000          0.575221E-03
      0.180000          0.536527E-03
      0.185000          0.502335E-03
      0.190000          0.471678E-03
      0.195000          0.443740E-03
      0.200000          0.417915E-03
      0.205000          0.393843E-03
      0.210000          0.371419E-03
      0.215000          0.350754E-03
      0.220000          0.332110E-03
      0.225000          0.315809E-03
      0.230000          0.302126E-03
      0.235000          0.291207E-03
      0.240000          0.283009E-03
      0.245000          0.277274E-03
      0.250000          0.273555E-03
      0.255000          0.271268E-03
      0.260000          0.269777E-03
      0.265000          0.268473E-03
      0.270000          0.266854E-03
      0.275000          0.264578E-03
      0.280000          0.261483E-03
      0.285000          0.257574E-03
      0.290000          0.252989E-03
      0.295000          0.247947E-03
      0.300000          0.242684E-03
      0.305000          0.237409E-03
      0.310000          0.232268E-03
      0.315000          0.227324E-03
      0.320000          0.222570E-03
      0.325000          0.217940E-03
      0.330000          0.213339E-03
      0.335000          0.208674E-03
      0.340000          0.203870E-03
      0.345000          0.198893E-03
      0.350000          0.193743E-03
      0.355000          0.188458E-03
      0.360000          0.183098E-03
      0.365000          0.177731E-03
      0.370000          0.172425E-03
      0.375000          0.167237E-03
      0.380000          0.162209E-03
      0.385000          0.157368E-03
      0.390000          0.152735E-03
      0.395000          0.148321E-03
      0.400000          0.144138E-03
      0.405000          0.140196E-03
      0.410000          0.136504E-03
      0.415000          0.133070E-03
      0.420000          0.129897E-03
      0.425000          0.126980E-03
      0.430000          0.124305E-03
      0.435000          0.121850E-03
      0.440000          0.119589E-03
      0.445000          0.117489E-03
      0.450000          0.115519E-03
      0.455000          0.113648E-03
      0.460000          0.111850E-03
      0.465000          0.110100E-03
      0.470000          0.108381E-03
      0.475000          0.106675E-03
      0.480000          0.104970E-03
      0.485000          0.103257E-03
      0.490000          0.101531E-03
      0.495000          0.997963E-04
      0.500000          0.980657E-04
