 I_abs(s)[cm^-1]/c[mg/ml]
       0.00000          0.146064E-01
      0.500000E-02      0.145285E-01
      0.100000E-01      0.142976E-01
      0.150000E-01      0.139218E-01
      0.200000E-01      0.134138E-01
      0.250000E-01      0.127906E-01
      0.300000E-01      0.120723E-01
      0.350000E-01      0.112811E-01
      0.400000E-01      0.104401E-01
      0.450000E-01      0.957221E-02
      0.500000E-01      0.869915E-02
      0.550000E-01      0.784046E-02
      0.600000E-01      0.701288E-02
      0.650000E-01      0.622991E-02
      0.700000E-01      0.550154E-02
      0.750000E-01      0.483436E-02
      0.800000E-01      0.423169E-02
      0.850000E-01      0.369401E-02
      0.900000E-01      0.321946E-02
      0.950000E-01      0.280436E-02
      0.100000          0.244383E-02
      0.105000          0.213227E-02
      0.110000          0.186389E-02
      0.115000          0.163302E-02
      0.120000          0.143443E-02
      0.125000          0.126349E-02
      0.130000          0.111625E-02
      0.135000          0.989396E-03
      0.140000          0.880248E-03
      0.145000          0.786608E-03
      0.150000          0.706665E-03
      0.155000          0.638874E-03
      0.160000          0.581861E-03
      0.165000          0.534338E-03
      0.170000          0.495065E-03
      0.175000          0.462826E-03
      0.180000          0.436433E-03
      0.185000          0.414743E-03
      0.190000          0.396693E-03
      0.195000          0.381328E-03
      0.200000          0.367832E-03
      0.205000          0.355541E-03
      0.210000          0.343957E-03
      0.215000          0.332739E-03
      0.220000          0.321692E-03
      0.225000          0.310739E-03
      0.230000          0.299893E-03
      0.235000          0.289230E-03
      0.240000          0.278853E-03
      0.245000          0.268870E-03
      0.250000          0.259372E-03
      0.255000          0.250423E-03
      0.260000          0.242048E-03
      0.265000          0.234242E-03
      0.270000          0.226965E-03
      0.275000          0.220159E-03
      0.280000          0.213757E-03
      0.285000          0.207693E-03
      0.290000          0.201911E-03
      0.295000          0.196376E-03
      0.300000          0.191072E-03
      0.305000          0.186009E-03
      0.310000          0.181215E-03
      0.315000          0.176732E-03
      0.320000          0.172609E-03
      0.325000          0.168891E-03
      0.330000          0.165610E-03
      0.335000          0.162782E-03
      0.340000          0.160395E-03
      0.345000          0.158414E-03
      0.350000          0.156777E-03
      0.355000          0.155401E-03
      0.360000          0.154187E-03
      0.365000          0.153035E-03
      0.370000          0.151844E-03
      0.375000          0.150530E-03
      0.380000          0.149029E-03
      0.385000          0.147306E-03
      0.390000          0.145351E-03
      0.395000          0.143189E-03
      0.400000          0.140865E-03
      0.405000          0.138444E-03
      0.410000          0.136001E-03
      0.415000          0.133611E-03
      0.420000          0.131339E-03
      0.425000          0.129237E-03
      0.430000          0.127332E-03
      0.435000          0.125629E-03
      0.440000          0.124111E-03
      0.445000          0.122741E-03
      0.450000          0.121468E-03
      0.455000          0.120235E-03
      0.460000          0.118987E-03
      0.465000          0.117676E-03
      0.470000          0.116268E-03
      0.475000          0.114746E-03
      0.480000          0.113113E-03
      0.485000          0.111384E-03
      0.490000          0.109591E-03
      0.495000          0.107770E-03
      0.500000          0.105963E-03
