 I_abs(s)[cm^-1]/c[mg/ml]
       0.00000          0.142424E-01
      0.500000E-02      0.141667E-01
      0.100000E-01      0.139421E-01
      0.150000E-01      0.135765E-01
      0.200000E-01      0.130824E-01
      0.250000E-01      0.124763E-01
      0.300000E-01      0.117778E-01
      0.350000E-01      0.110087E-01
      0.400000E-01      0.101917E-01
      0.450000E-01      0.934924E-02
      0.500000E-01      0.850282E-02
      0.550000E-01      0.767175E-02
      0.600000E-01      0.687265E-02
      0.650000E-01      0.611890E-02
      0.700000E-01      0.542045E-02
      0.750000E-01      0.478377E-02
      0.800000E-01      0.421203E-02
      0.850000E-01      0.370550E-02
      0.900000E-01      0.326199E-02
      0.950000E-01      0.287742E-02
      0.100000          0.254642E-02
      0.105000          0.226288E-02
      0.110000          0.202042E-02
      0.115000          0.181289E-02
      0.120000          0.163459E-02
      0.125000          0.148055E-02
      0.130000          0.134659E-02
      0.135000          0.122933E-02
      0.140000          0.112616E-02
      0.145000          0.103510E-02
      0.150000          0.954667E-03
      0.155000          0.883721E-03
      0.160000          0.821347E-03
      0.165000          0.766729E-03
      0.170000          0.719073E-03
      0.175000          0.677559E-03
      0.180000          0.641325E-03
      0.185000          0.609474E-03
      0.190000          0.581109E-03
      0.195000          0.555364E-03
      0.200000          0.531451E-03
      0.205000          0.508694E-03
      0.210000          0.486553E-03
      0.215000          0.464643E-03
      0.220000          0.442731E-03
      0.225000          0.420728E-03
      0.230000          0.398663E-03
      0.235000          0.376661E-03
      0.240000          0.354910E-03
      0.245000          0.333633E-03
      0.250000          0.313057E-03
      0.255000          0.293398E-03
      0.260000          0.274837E-03
      0.265000          0.257519E-03
      0.270000          0.241539E-03
      0.275000          0.226950E-03
      0.280000          0.213760E-03
      0.285000          0.201940E-03
      0.290000          0.191429E-03
      0.295000          0.182141E-03
      0.300000          0.173970E-03
      0.305000          0.166795E-03
      0.310000          0.160486E-03
      0.315000          0.154910E-03
      0.320000          0.149934E-03
      0.325000          0.145432E-03
      0.330000          0.141289E-03
      0.335000          0.137406E-03
      0.340000          0.133704E-03
      0.345000          0.130130E-03
      0.350000          0.126655E-03
      0.355000          0.123275E-03
      0.360000          0.120014E-03
      0.365000          0.116911E-03
      0.370000          0.114024E-03
      0.375000          0.111416E-03
      0.380000          0.109151E-03
      0.385000          0.107285E-03
      0.390000          0.105861E-03
      0.395000          0.104900E-03
      0.400000          0.104400E-03
      0.405000          0.104335E-03
      0.410000          0.104654E-03
      0.415000          0.105286E-03
      0.420000          0.106143E-03
      0.425000          0.107129E-03
      0.430000          0.108146E-03
      0.435000          0.109100E-03
      0.440000          0.109910E-03
      0.445000          0.110510E-03
      0.450000          0.110856E-03
      0.455000          0.110927E-03
      0.460000          0.110720E-03
      0.465000          0.110257E-03
      0.470000          0.109572E-03
      0.475000          0.108713E-03
      0.480000          0.107736E-03
      0.485000          0.106694E-03
      0.490000          0.105641E-03
      0.495000          0.104619E-03
      0.500000          0.103661E-03
