 I_abs(s)[cm^-1]/c[mg/ml]
       0.00000          0.145745E-01
      0.500000E-02      0.145203E-01
      0.100000E-01      0.143587E-01
      0.150000E-01      0.140932E-01
      0.200000E-01      0.137293E-01
      0.250000E-01      0.132743E-01
      0.300000E-01      0.127376E-01
      0.350000E-01      0.121298E-01
      0.400000E-01      0.114626E-01
      0.450000E-01      0.107485E-01
      0.500000E-01      0.100005E-01
      0.550000E-01      0.923169E-02
      0.600000E-01      0.845463E-02
      0.650000E-01      0.768144E-02
      0.700000E-01      0.692330E-02
      0.750000E-01      0.619021E-02
      0.800000E-01      0.549084E-02
      0.850000E-01      0.483239E-02
      0.900000E-01      0.422049E-02
      0.950000E-01      0.365917E-02
      0.100000          0.315093E-02
      0.105000          0.269679E-02
      0.110000          0.229642E-02
      0.115000          0.194827E-02
      0.120000          0.164978E-02
      0.125000          0.139758E-02
      0.130000          0.118766E-02
      0.135000          0.101560E-02
      0.140000          0.876741E-03
      0.145000          0.766395E-03
      0.150000          0.679971E-03
      0.155000          0.613119E-03
      0.160000          0.561837E-03
      0.165000          0.522547E-03
      0.170000          0.492142E-03
      0.175000          0.468016E-03
      0.180000          0.448054E-03
      0.185000          0.430624E-03
      0.190000          0.414529E-03
      0.195000          0.398966E-03
      0.200000          0.383467E-03
      0.205000          0.367833E-03
      0.210000          0.352077E-03
      0.215000          0.336360E-03
      0.220000          0.320938E-03
      0.225000          0.306108E-03
      0.230000          0.292174E-03
      0.235000          0.279408E-03
      0.240000          0.268029E-03
      0.245000          0.258188E-03
      0.250000          0.249957E-03
      0.255000          0.243333E-03
      0.260000          0.238238E-03
      0.265000          0.234530E-03
      0.270000          0.232012E-03
      0.275000          0.230450E-03
      0.280000          0.229585E-03
      0.285000          0.229146E-03
      0.290000          0.228867E-03
      0.295000          0.228493E-03
      0.300000          0.227798E-03
      0.305000          0.226585E-03
      0.310000          0.224699E-03
      0.315000          0.222025E-03
      0.320000          0.218491E-03
      0.325000          0.214070E-03
      0.330000          0.208776E-03
      0.335000          0.202661E-03
      0.340000          0.195810E-03
      0.345000          0.188339E-03
      0.350000          0.180382E-03
      0.355000          0.172094E-03
      0.360000          0.163637E-03
      0.365000          0.155176E-03
      0.370000          0.146876E-03
      0.375000          0.138890E-03
      0.380000          0.131360E-03
      0.385000          0.124408E-03
      0.390000          0.118136E-03
      0.395000          0.112622E-03
      0.400000          0.107917E-03
      0.405000          0.104045E-03
      0.410000          0.101005E-03
      0.415000          0.987707E-04
      0.420000          0.972942E-04
      0.425000          0.965070E-04
      0.430000          0.963251E-04
      0.435000          0.966524E-04
      0.440000          0.973854E-04
      0.445000          0.984174E-04
      0.450000          0.996426E-04
      0.455000          0.100960E-03
      0.460000          0.102277E-03
      0.465000          0.103513E-03
      0.470000          0.104600E-03
      0.475000          0.105483E-03
      0.480000          0.106125E-03
      0.485000          0.106503E-03
      0.490000          0.106608E-03
      0.495000          0.106443E-03
      0.500000          0.106023E-03
