 I_abs(s)[cm^-1]/c[mg/ml]
       0.00000          0.142032E-01
      0.500000E-02      0.141316E-01
      0.100000E-01      0.139189E-01
      0.150000E-01      0.135713E-01
      0.200000E-01      0.130985E-01
      0.250000E-01      0.125140E-01
      0.300000E-01      0.118338E-01
      0.350000E-01      0.110760E-01
      0.400000E-01      0.102602E-01
      0.450000E-01      0.940679E-02
      0.500000E-01      0.853574E-02
      0.550000E-01      0.766630E-02
      0.600000E-01      0.681617E-02
      0.650000E-01      0.600099E-02
      0.700000E-01      0.523392E-02
      0.750000E-01      0.452532E-02
      0.800000E-01      0.388267E-02
      0.850000E-01      0.331052E-02
      0.900000E-01      0.281064E-02
      0.950000E-01      0.238225E-02
      0.100000          0.202239E-02
      0.105000          0.172625E-02
      0.110000          0.148769E-02
      0.115000          0.129962E-02
      0.120000          0.115449E-02
      0.125000          0.104466E-02
      0.130000          0.962783E-03
      0.135000          0.902050E-03
      0.140000          0.856443E-03
      0.145000          0.820859E-03
      0.150000          0.791179E-03
      0.155000          0.764271E-03
      0.160000          0.737935E-03
      0.165000          0.710808E-03
      0.170000          0.682228E-03
      0.175000          0.652094E-03
      0.180000          0.620707E-03
      0.185000          0.588628E-03
      0.190000          0.556544E-03
      0.195000          0.525156E-03
      0.200000          0.495095E-03
      0.205000          0.466864E-03
      0.210000          0.440801E-03
      0.215000          0.417077E-03
      0.220000          0.395697E-03
      0.225000          0.376536E-03
      0.230000          0.359366E-03
      0.235000          0.343897E-03
      0.240000          0.329819E-03
      0.245000          0.316834E-03
      0.250000          0.304687E-03
      0.255000          0.293184E-03
      0.260000          0.282200E-03
      0.265000          0.271685E-03
      0.270000          0.261654E-03
      0.275000          0.252174E-03
      0.280000          0.243345E-03
      0.285000          0.235283E-03
      0.290000          0.228100E-03
      0.295000          0.221882E-03
      0.300000          0.216682E-03
      0.305000          0.212503E-03
      0.310000          0.209299E-03
      0.315000          0.206974E-03
      0.320000          0.205384E-03
      0.325000          0.204351E-03
      0.330000          0.203672E-03
      0.335000          0.203134E-03
      0.340000          0.202528E-03
      0.345000          0.201661E-03
      0.350000          0.200370E-03
      0.355000          0.198528E-03
      0.360000          0.196054E-03
      0.365000          0.192911E-03
      0.370000          0.189110E-03
      0.375000          0.184703E-03
      0.380000          0.179778E-03
      0.385000          0.174449E-03
      0.390000          0.168852E-03
      0.395000          0.163129E-03
      0.400000          0.157422E-03
      0.405000          0.151863E-03
      0.410000          0.146568E-03
      0.415000          0.141631E-03
      0.420000          0.137120E-03
      0.425000          0.133076E-03
      0.430000          0.129514E-03
      0.435000          0.126425E-03
      0.440000          0.123777E-03
      0.445000          0.121524E-03
      0.450000          0.119608E-03
      0.455000          0.117963E-03
      0.460000          0.116523E-03
      0.465000          0.115226E-03
      0.470000          0.114015E-03
      0.475000          0.112842E-03
      0.480000          0.111672E-03
      0.485000          0.110480E-03
      0.490000          0.109254E-03
      0.495000          0.107990E-03
      0.500000          0.106696E-03
