 I_abs(s)[cm^-1]/c[mg/ml]
       0.00000          0.147100E-01
      0.500000E-02      0.146421E-01
      0.100000E-01      0.144402E-01
      0.150000E-01      0.141096E-01
      0.200000E-01      0.136593E-01
      0.250000E-01      0.131010E-01
      0.300000E-01      0.124490E-01
      0.350000E-01      0.117197E-01
      0.400000E-01      0.109307E-01
      0.450000E-01      0.101001E-01
      0.500000E-01      0.924643E-02
      0.550000E-01      0.838715E-02
      0.600000E-01      0.753875E-02
      0.650000E-01      0.671597E-02
      0.700000E-01      0.593150E-02
      0.750000E-01      0.519568E-02
      0.800000E-01      0.451641E-02
      0.850000E-01      0.389905E-02
      0.900000E-01      0.334655E-02
      0.950000E-01      0.285962E-02
      0.100000          0.243695E-02
      0.105000          0.207558E-02
      0.110000          0.177119E-02
      0.115000          0.151850E-02
      0.120000          0.131160E-02
      0.125000          0.114432E-02
      0.130000          0.101046E-02
      0.135000          0.904118E-03
      0.140000          0.819831E-03
      0.145000          0.752732E-03
      0.150000          0.698632E-03
      0.155000          0.654052E-03
      0.160000          0.616219E-03
      0.165000          0.583012E-03
      0.170000          0.552900E-03
      0.175000          0.524850E-03
      0.180000          0.498231E-03
      0.185000          0.472722E-03
      0.190000          0.448222E-03
      0.195000          0.424769E-03
      0.200000          0.402479E-03
      0.205000          0.381491E-03
      0.210000          0.361937E-03
      0.215000          0.343912E-03
      0.220000          0.327471E-03
      0.225000          0.312620E-03
      0.230000          0.299327E-03
      0.235000          0.287524E-03
      0.240000          0.277117E-03
      0.245000          0.268001E-03
      0.250000          0.260060E-03
      0.255000          0.253179E-03
      0.260000          0.247246E-03
      0.265000          0.242151E-03
      0.270000          0.237791E-03
      0.275000          0.234063E-03
      0.280000          0.230871E-03
      0.285000          0.228115E-03
      0.290000          0.225698E-03
      0.295000          0.223522E-03
      0.300000          0.221493E-03
      0.305000          0.219518E-03
      0.310000          0.217510E-03
      0.315000          0.215393E-03
      0.320000          0.213099E-03
      0.325000          0.210575E-03
      0.330000          0.207784E-03
      0.335000          0.204701E-03
      0.340000          0.201320E-03
      0.345000          0.197645E-03
      0.350000          0.193694E-03
      0.355000          0.189495E-03
      0.360000          0.185082E-03
      0.365000          0.180491E-03
      0.370000          0.175762E-03
      0.375000          0.170934E-03
      0.380000          0.166045E-03
      0.385000          0.161130E-03
      0.390000          0.156221E-03
      0.395000          0.151349E-03
      0.400000          0.146543E-03
      0.405000          0.141832E-03
      0.410000          0.137247E-03
      0.415000          0.132817E-03
      0.420000          0.128576E-03
      0.425000          0.124557E-03
      0.430000          0.120796E-03
      0.435000          0.117325E-03
      0.440000          0.114178E-03
      0.445000          0.111382E-03
      0.450000          0.108959E-03
      0.455000          0.106924E-03
      0.460000          0.105283E-03
      0.465000          0.104028E-03
      0.470000          0.103145E-03
      0.475000          0.102604E-03
      0.480000          0.102369E-03
      0.485000          0.102390E-03
      0.490000          0.102615E-03
      0.495000          0.102982E-03
      0.500000          0.103431E-03
