 I_abs(s)[cm^-1]/c[mg/ml]
       0.00000          0.144872E-01
      0.500000E-02      0.144249E-01
      0.100000E-01      0.142397E-01
      0.150000E-01      0.139366E-01
      0.200000E-01      0.135234E-01
      0.250000E-01      0.130108E-01
      0.300000E-01      0.124118E-01
      0.350000E-01      0.117408E-01
      0.400000E-01      0.110136E-01
      0.450000E-01      0.102465E-01
      0.500000E-01      0.945561E-02
      0.550000E-01      0.865651E-02
      0.600000E-01      0.786359E-02
      0.650000E-01      0.708973E-02
      0.700000E-01      0.634597E-02
      0.750000E-01      0.564132E-02
      0.800000E-01      0.498266E-02
      0.850000E-01      0.437478E-02
      0.900000E-01      0.382046E-02
      0.950000E-01      0.332066E-02
      0.100000          0.287476E-02
      0.105000          0.248086E-02
      0.110000          0.213603E-02
      0.115000          0.183665E-02
      0.120000          0.157865E-02
      0.125000          0.135776E-02
      0.130000          0.116973E-02
      0.135000          0.101051E-02
      0.140000          0.876301E-03
      0.145000          0.763701E-03
      0.150000          0.669693E-03
      0.155000          0.591664E-03
      0.160000          0.527374E-03
      0.165000          0.474917E-03
      0.170000          0.432669E-03
      0.175000          0.399234E-03
      0.180000          0.373393E-03
      0.185000          0.354059E-03
      0.190000          0.340243E-03
      0.195000          0.331027E-03
      0.200000          0.325552E-03
      0.205000          0.323010E-03
      0.210000          0.322647E-03
      0.215000          0.323769E-03
      0.220000          0.325750E-03
      0.225000          0.328045E-03
      0.230000          0.330193E-03
      0.235000          0.331824E-03
      0.240000          0.332664E-03
      0.245000          0.332528E-03
      0.250000          0.331316E-03
      0.255000          0.329005E-03
      0.260000          0.325634E-03
      0.265000          0.321290E-03
      0.270000          0.316098E-03
      0.275000          0.310201E-03
      0.280000          0.303752E-03
      0.285000          0.296896E-03
      0.290000          0.289768E-03
      0.295000          0.282480E-03
      0.300000          0.275119E-03
      0.305000          0.267748E-03
      0.310000          0.260403E-03
      0.315000          0.253097E-03
      0.320000          0.245824E-03
      0.325000          0.238568E-03
      0.330000          0.231304E-03
      0.335000          0.224008E-03
      0.340000          0.216661E-03
      0.345000          0.209252E-03
      0.350000          0.201788E-03
      0.355000          0.194289E-03
      0.360000          0.186791E-03
      0.365000          0.179348E-03
      0.370000          0.172026E-03
      0.375000          0.164898E-03
      0.380000          0.158046E-03
      0.385000          0.151548E-03
      0.390000          0.145479E-03
      0.395000          0.139902E-03
      0.400000          0.134868E-03
      0.405000          0.130407E-03
      0.410000          0.126534E-03
      0.415000          0.123240E-03
      0.420000          0.120499E-03
      0.425000          0.118269E-03
      0.430000          0.116491E-03
      0.435000          0.115098E-03
      0.440000          0.114018E-03
      0.445000          0.113175E-03
      0.450000          0.112499E-03
      0.455000          0.111925E-03
      0.460000          0.111396E-03
      0.465000          0.110867E-03
      0.470000          0.110307E-03
      0.475000          0.109694E-03
      0.480000          0.109019E-03
      0.485000          0.108281E-03
      0.490000          0.107487E-03
      0.495000          0.106649E-03
      0.500000          0.105780E-03
