 I_abs(s)[cm^-1]/c[mg/ml]
       0.00000          0.136820E-01
      0.500000E-02      0.136203E-01
      0.100000E-01      0.134370E-01
      0.150000E-01      0.131379E-01
      0.200000E-01      0.127321E-01
      0.250000E-01      0.122319E-01
      0.300000E-01      0.116519E-01
      0.350000E-01      0.110084E-01
      0.400000E-01      0.103187E-01
      0.450000E-01      0.960032E-02
      0.500000E-01      0.887020E-02
      0.550000E-01      0.814407E-02
      0.600000E-01      0.743587E-02
      0.650000E-01      0.675737E-02
      0.700000E-01      0.611786E-02
      0.750000E-01      0.552409E-02
      0.800000E-01      0.498025E-02
      0.850000E-01      0.448817E-02
      0.900000E-01      0.404756E-02
      0.950000E-01      0.365640E-02
      0.100000          0.331132E-02
      0.105000          0.300803E-02
      0.110000          0.274168E-02
      0.115000          0.250729E-02
      0.120000          0.230001E-02
      0.125000          0.211538E-02
      0.130000          0.194951E-02
      0.135000          0.179911E-02
      0.140000          0.166159E-02
      0.145000          0.153498E-02
      0.150000          0.141786E-02
      0.155000          0.130926E-02
      0.160000          0.120855E-02
      0.165000          0.111532E-02
      0.170000          0.102926E-02
      0.175000          0.950109E-03
      0.180000          0.877569E-03
      0.185000          0.811279E-03
      0.190000          0.750803E-03
      0.195000          0.695641E-03
      0.200000          0.645247E-03
      0.205000          0.599065E-03
      0.210000          0.556559E-03
      0.215000          0.517247E-03
      0.220000          0.480720E-03
      0.225000          0.446660E-03
      0.230000          0.414843E-03
      0.235000          0.385132E-03
      0.240000          0.357464E-03
      0.245000          0.331828E-03
      0.250000          0.308247E-03
      0.255000          0.286749E-03
      0.260000          0.267351E-03
      0.265000          0.250042E-03
      0.270000          0.234774E-03
      0.275000          0.221455E-03
      0.280000          0.209958E-03
      0.285000          0.200118E-03
      0.290000          0.191751E-03
      0.295000          0.184659E-03
      0.300000          0.178648E-03
      0.305000          0.173531E-03
      0.310000          0.169143E-03
      0.315000          0.165341E-03
      0.320000          0.162011E-03
      0.325000          0.159061E-03
      0.330000          0.156421E-03
      0.335000          0.154039E-03
      0.340000          0.151872E-03
      0.345000          0.149884E-03
      0.350000          0.148040E-03
      0.355000          0.146301E-03
      0.360000          0.144629E-03
      0.365000          0.142980E-03
      0.370000          0.141312E-03
      0.375000          0.139582E-03
      0.380000          0.137755E-03
      0.385000          0.135807E-03
      0.390000          0.133721E-03
      0.395000          0.131497E-03
      0.400000          0.129148E-03
      0.405000          0.126698E-03
      0.410000          0.124184E-03
      0.415000          0.121647E-03
      0.420000          0.119133E-03
      0.425000          0.116686E-03
      0.430000          0.114345E-03
      0.435000          0.112141E-03
      0.440000          0.110094E-03
      0.445000          0.108212E-03
      0.450000          0.106492E-03
      0.455000          0.104920E-03
      0.460000          0.103473E-03
      0.465000          0.102124E-03
      0.470000          0.100843E-03
      0.475000          0.996013E-04
      0.480000          0.983735E-04
      0.485000          0.971412E-04
      0.490000          0.958938E-04
      0.495000          0.946286E-04
      0.500000          0.933515E-04
