 I_abs(s)[cm^-1]/c[mg/ml]
       0.00000          0.137206E-01
      0.500000E-02      0.136605E-01
      0.100000E-01      0.134817E-01
      0.150000E-01      0.131892E-01
      0.200000E-01      0.127908E-01
      0.250000E-01      0.122970E-01
      0.300000E-01      0.117205E-01
      0.350000E-01      0.110761E-01
      0.400000E-01      0.103793E-01
      0.450000E-01      0.964659E-02
      0.500000E-01      0.889435E-02
      0.550000E-01      0.813838E-02
      0.600000E-01      0.739341E-02
      0.650000E-01      0.667264E-02
      0.700000E-01      0.598736E-02
      0.750000E-01      0.534674E-02
      0.800000E-01      0.475760E-02
      0.850000E-01      0.422445E-02
      0.900000E-01      0.374950E-02
      0.950000E-01      0.333282E-02
      0.100000          0.297261E-02
      0.105000          0.266544E-02
      0.110000          0.240664E-02
      0.115000          0.219063E-02
      0.120000          0.201129E-02
      0.125000          0.186232E-02
      0.130000          0.173753E-02
      0.135000          0.163113E-02
      0.140000          0.153792E-02
      0.145000          0.145348E-02
      0.150000          0.137423E-02
      0.155000          0.129749E-02
      0.160000          0.122143E-02
      0.165000          0.114504E-02
      0.170000          0.106801E-02
      0.175000          0.990589E-03
      0.180000          0.913482E-03
      0.185000          0.837665E-03
      0.190000          0.764262E-03
      0.195000          0.694417E-03
      0.200000          0.629182E-03
      0.205000          0.569434E-03
      0.210000          0.515819E-03
      0.215000          0.468715E-03
      0.220000          0.428227E-03
      0.225000          0.394199E-03
      0.230000          0.366242E-03
      0.235000          0.343782E-03
      0.240000          0.326107E-03
      0.245000          0.312423E-03
      0.250000          0.301903E-03
      0.255000          0.293743E-03
      0.260000          0.287194E-03
      0.265000          0.281599E-03
      0.270000          0.276413E-03
      0.275000          0.271210E-03
      0.280000          0.265692E-03
      0.285000          0.259675E-03
      0.290000          0.253080E-03
      0.295000          0.245914E-03
      0.300000          0.238250E-03
      0.305000          0.230205E-03
      0.310000          0.221921E-03
      0.315000          0.213551E-03
      0.320000          0.205235E-03
      0.325000          0.197099E-03
      0.330000          0.189243E-03
      0.335000          0.181740E-03
      0.340000          0.174633E-03
      0.345000          0.167940E-03
      0.350000          0.161659E-03
      0.355000          0.155771E-03
      0.360000          0.150248E-03
      0.365000          0.145057E-03
      0.370000          0.140166E-03
      0.375000          0.135547E-03
      0.380000          0.131179E-03
      0.385000          0.127048E-03
      0.390000          0.123148E-03
      0.395000          0.119479E-03
      0.400000          0.116047E-03
      0.405000          0.112859E-03
      0.410000          0.109921E-03
      0.415000          0.107239E-03
      0.420000          0.104815E-03
      0.425000          0.102642E-03
      0.430000          0.100712E-03
      0.435000          0.990087E-04
      0.440000          0.975099E-04
      0.445000          0.961905E-04
      0.450000          0.950226E-04
      0.455000          0.939776E-04
      0.460000          0.930276E-04
      0.465000          0.921475E-04
      0.470000          0.913163E-04
      0.475000          0.905177E-04
      0.480000          0.897415E-04
      0.485000          0.889828E-04
      0.490000          0.882425E-04
      0.495000          0.875263E-04
      0.500000          0.868436E-04
