 I_abs(s)[cm^-1]/c[mg/ml]
       0.00000          0.138831E-01
      0.500000E-02      0.138202E-01
      0.100000E-01      0.136336E-01
      0.150000E-01      0.133291E-01
      0.200000E-01      0.129162E-01
      0.250000E-01      0.124075E-01
      0.300000E-01      0.118181E-01
      0.350000E-01      0.111647E-01
      0.400000E-01      0.104648E-01
      0.450000E-01      0.973615E-02
      0.500000E-01      0.899568E-02
      0.550000E-01      0.825906E-02
      0.600000E-01      0.754007E-02
      0.650000E-01      0.685022E-02
      0.700000E-01      0.619858E-02
      0.750000E-01      0.559166E-02
      0.800000E-01      0.503356E-02
      0.850000E-01      0.452612E-02
      0.900000E-01      0.406926E-02
      0.950000E-01      0.366133E-02
      0.100000          0.329950E-02
      0.105000          0.298012E-02
      0.110000          0.269908E-02
      0.115000          0.245211E-02
      0.120000          0.223502E-02
      0.125000          0.204388E-02
      0.130000          0.187508E-02
      0.135000          0.172543E-02
      0.140000          0.159215E-02
      0.145000          0.147284E-02
      0.150000          0.136544E-02
      0.155000          0.126816E-02
      0.160000          0.117947E-02
      0.165000          0.109804E-02
      0.170000          0.102270E-02
      0.175000          0.952451E-03
      0.180000          0.886465E-03
      0.185000          0.824064E-03
      0.190000          0.764740E-03
      0.195000          0.708154E-03
      0.200000          0.654129E-03
      0.205000          0.602634E-03
      0.210000          0.553762E-03
      0.215000          0.507693E-03
      0.220000          0.464659E-03
      0.225000          0.424902E-03
      0.230000          0.388634E-03
      0.235000          0.356002E-03
      0.240000          0.327067E-03
      0.245000          0.301782E-03
      0.250000          0.279995E-03
      0.255000          0.261456E-03
      0.260000          0.245829E-03
      0.265000          0.232720E-03
      0.270000          0.221706E-03
      0.275000          0.212359E-03
      0.280000          0.204279E-03
      0.285000          0.197107E-03
      0.290000          0.190551E-03
      0.295000          0.184384E-03
      0.300000          0.178456E-03
      0.305000          0.172681E-03
      0.310000          0.167030E-03
      0.315000          0.161521E-03
      0.320000          0.156200E-03
      0.325000          0.151130E-03
      0.330000          0.146379E-03
      0.335000          0.142008E-03
      0.340000          0.138063E-03
      0.345000          0.134578E-03
      0.350000          0.131565E-03
      0.355000          0.129020E-03
      0.360000          0.126927E-03
      0.365000          0.125257E-03
      0.370000          0.123973E-03
      0.375000          0.123035E-03
      0.380000          0.122398E-03
      0.385000          0.122017E-03
      0.390000          0.121845E-03
      0.395000          0.121834E-03
      0.400000          0.121938E-03
      0.405000          0.122106E-03
      0.410000          0.122291E-03
      0.415000          0.122445E-03
      0.420000          0.122524E-03
      0.425000          0.122488E-03
      0.430000          0.122303E-03
      0.435000          0.121947E-03
      0.440000          0.121406E-03
      0.445000          0.120679E-03
      0.450000          0.119778E-03
      0.455000          0.118725E-03
      0.460000          0.117551E-03
      0.465000          0.116295E-03
      0.470000          0.114999E-03
      0.475000          0.113706E-03
      0.480000          0.112455E-03
      0.485000          0.111277E-03
      0.490000          0.110196E-03
      0.495000          0.109225E-03
      0.500000          0.108365E-03
