 I_abs(s)[cm^-1]/c[mg/ml]
       0.00000          0.140544E-01
      0.500000E-02      0.140061E-01
      0.100000E-01      0.138625E-01
      0.150000E-01      0.136267E-01
      0.200000E-01      0.133039E-01
      0.250000E-01      0.129013E-01
      0.300000E-01      0.124274E-01
      0.350000E-01      0.118921E-01
      0.400000E-01      0.113062E-01
      0.450000E-01      0.106810E-01
      0.500000E-01      0.100281E-01
      0.550000E-01      0.935874E-02
      0.600000E-01      0.868378E-02
      0.650000E-01      0.801324E-02
      0.700000E-01      0.735611E-02
      0.750000E-01      0.672017E-02
      0.800000E-01      0.611188E-02
      0.850000E-01      0.553631E-02
      0.900000E-01      0.499716E-02
      0.950000E-01      0.449678E-02
      0.100000          0.403634E-02
      0.105000          0.361590E-02
      0.110000          0.323460E-02
      0.115000          0.289085E-02
      0.120000          0.258249E-02
      0.125000          0.230699E-02
      0.130000          0.206160E-02
      0.135000          0.184347E-02
      0.140000          0.164982E-02
      0.145000          0.147798E-02
      0.150000          0.132550E-02
      0.155000          0.119016E-02
      0.160000          0.107000E-02
      0.165000          0.963316E-03
      0.170000          0.868637E-03
      0.175000          0.784705E-03
      0.180000          0.710436E-03
      0.185000          0.644888E-03
      0.190000          0.587225E-03
      0.195000          0.536687E-03
      0.200000          0.492569E-03
      0.205000          0.454200E-03
      0.210000          0.420935E-03
      0.215000          0.392152E-03
      0.220000          0.367253E-03
      0.225000          0.345671E-03
      0.230000          0.326875E-03
      0.235000          0.310378E-03
      0.240000          0.295751E-03
      0.245000          0.282621E-03
      0.250000          0.270679E-03
      0.255000          0.259678E-03
      0.260000          0.249434E-03
      0.265000          0.239814E-03
      0.270000          0.230734E-03
      0.275000          0.222148E-03
      0.280000          0.214036E-03
      0.285000          0.206396E-03
      0.290000          0.199235E-03
      0.295000          0.192558E-03
      0.300000          0.186367E-03
      0.305000          0.180651E-03
      0.310000          0.175389E-03
      0.315000          0.170547E-03
      0.320000          0.166080E-03
      0.325000          0.161936E-03
      0.330000          0.158058E-03
      0.335000          0.154388E-03
      0.340000          0.150872E-03
      0.345000          0.147461E-03
      0.350000          0.144118E-03
      0.355000          0.140812E-03
      0.360000          0.137530E-03
      0.365000          0.134264E-03
      0.370000          0.131019E-03
      0.375000          0.127810E-03
      0.380000          0.124655E-03
      0.385000          0.121576E-03
      0.390000          0.118598E-03
      0.395000          0.115744E-03
      0.400000          0.113033E-03
      0.405000          0.110479E-03
      0.410000          0.108093E-03
      0.415000          0.105878E-03
      0.420000          0.103831E-03
      0.425000          0.101946E-03
      0.430000          0.100210E-03
      0.435000          0.986096E-04
      0.440000          0.971281E-04
      0.445000          0.957493E-04
      0.450000          0.944575E-04
      0.455000          0.932391E-04
      0.460000          0.920829E-04
      0.465000          0.909808E-04
      0.470000          0.899279E-04
      0.475000          0.889221E-04
      0.480000          0.879640E-04
      0.485000          0.870561E-04
      0.490000          0.862020E-04
      0.495000          0.854059E-04
      0.500000          0.846715E-04
