 I_abs(s)[cm^-1]/c[mg/ml]
       0.00000          0.138366E-01
      0.500000E-02      0.137819E-01
      0.100000E-01      0.136191E-01
      0.150000E-01      0.133523E-01
      0.200000E-01      0.129879E-01
      0.250000E-01      0.125345E-01
      0.300000E-01      0.120029E-01
      0.350000E-01      0.114051E-01
      0.400000E-01      0.107545E-01
      0.450000E-01      0.100649E-01
      0.500000E-01      0.935048E-02
      0.550000E-01      0.862495E-02
      0.600000E-01      0.790145E-02
      0.650000E-01      0.719202E-02
      0.700000E-01      0.650730E-02
      0.750000E-01      0.585632E-02
      0.800000E-01      0.524632E-02
      0.850000E-01      0.468270E-02
      0.900000E-01      0.416899E-02
      0.950000E-01      0.370694E-02
      0.100000          0.329664E-02
      0.105000          0.293674E-02
      0.110000          0.262465E-02
      0.115000          0.235680E-02
      0.120000          0.212891E-02
      0.125000          0.193624E-02
      0.130000          0.177386E-02
      0.135000          0.163686E-02
      0.140000          0.152053E-02
      0.145000          0.142055E-02
      0.150000          0.133307E-02
      0.155000          0.125479E-02
      0.160000          0.118302E-02
      0.165000          0.111566E-02
      0.170000          0.105117E-02
      0.175000          0.988526E-03
      0.180000          0.927142E-03
      0.185000          0.866800E-03
      0.190000          0.807563E-03
      0.195000          0.749687E-03
      0.200000          0.693548E-03
      0.205000          0.639577E-03
      0.210000          0.588197E-03
      0.215000          0.539791E-03
      0.220000          0.494660E-03
      0.225000          0.453018E-03
      0.230000          0.414974E-03
      0.235000          0.380543E-03
      0.240000          0.349653E-03
      0.245000          0.322155E-03
      0.250000          0.297846E-03
      0.255000          0.276479E-03
      0.260000          0.257787E-03
      0.265000          0.241491E-03
      0.270000          0.227314E-03
      0.275000          0.214991E-03
      0.280000          0.204274E-03
      0.285000          0.194936E-03
      0.290000          0.186772E-03
      0.295000          0.179600E-03
      0.300000          0.173257E-03
      0.305000          0.167601E-03
      0.310000          0.162507E-03
      0.315000          0.157868E-03
      0.320000          0.153590E-03
      0.325000          0.149595E-03
      0.330000          0.145821E-03
      0.335000          0.142216E-03
      0.340000          0.138747E-03
      0.345000          0.135391E-03
      0.350000          0.132141E-03
      0.355000          0.128999E-03
      0.360000          0.125981E-03
      0.365000          0.123107E-03
      0.370000          0.120404E-03
      0.375000          0.117900E-03
      0.380000          0.115624E-03
      0.385000          0.113598E-03
      0.390000          0.111840E-03
      0.395000          0.110359E-03
      0.400000          0.109152E-03
      0.405000          0.108209E-03
      0.410000          0.107507E-03
      0.415000          0.107017E-03
      0.420000          0.106701E-03
      0.425000          0.106517E-03
      0.430000          0.106421E-03
      0.435000          0.106369E-03
      0.440000          0.106322E-03
      0.445000          0.106245E-03
      0.450000          0.106110E-03
      0.455000          0.105899E-03
      0.460000          0.105602E-03
      0.465000          0.105220E-03
      0.470000          0.104759E-03
      0.475000          0.104235E-03
      0.480000          0.103666E-03
      0.485000          0.103078E-03
      0.490000          0.102493E-03
      0.495000          0.101935E-03
      0.500000          0.101425E-03
