 I_abs(s)[cm^-1]/c[mg/ml]
       0.00000          0.141013E-01
      0.500000E-02      0.140493E-01
      0.100000E-01      0.138948E-01
      0.150000E-01      0.136414E-01
      0.200000E-01      0.132953E-01
      0.250000E-01      0.128647E-01
      0.300000E-01      0.123595E-01
      0.350000E-01      0.117911E-01
      0.400000E-01      0.111719E-01
      0.450000E-01      0.105146E-01
      0.500000E-01      0.983206E-02
      0.550000E-01      0.913682E-02
      0.600000E-01      0.844062E-02
      0.650000E-01      0.775414E-02
      0.700000E-01      0.708672E-02
      0.750000E-01      0.644623E-02
      0.800000E-01      0.583895E-02
      0.850000E-01      0.526954E-02
      0.900000E-01      0.474108E-02
      0.950000E-01      0.425523E-02
      0.100000          0.381231E-02
      0.105000          0.341157E-02
      0.110000          0.305134E-02
      0.115000          0.272926E-02
      0.120000          0.244250E-02
      0.125000          0.218796E-02
      0.130000          0.196242E-02
      0.135000          0.176271E-02
      0.140000          0.158579E-02
      0.145000          0.142886E-02
      0.150000          0.128938E-02
      0.155000          0.116512E-02
      0.160000          0.105415E-02
      0.165000          0.954834E-03
      0.170000          0.865777E-03
      0.175000          0.785826E-03
      0.180000          0.714012E-03
      0.185000          0.649519E-03
      0.190000          0.591655E-03
      0.195000          0.539821E-03
      0.200000          0.493488E-03
      0.205000          0.452184E-03
      0.210000          0.415477E-03
      0.215000          0.382969E-03
      0.220000          0.354293E-03
      0.225000          0.329105E-03
      0.230000          0.307086E-03
      0.235000          0.287935E-03
      0.240000          0.271374E-03
      0.245000          0.257139E-03
      0.250000          0.244982E-03
      0.255000          0.234667E-03
      0.260000          0.225969E-03
      0.265000          0.218672E-03
      0.270000          0.212568E-03
      0.275000          0.207462E-03
      0.280000          0.203166E-03
      0.285000          0.199506E-03
      0.290000          0.196324E-03
      0.295000          0.193481E-03
      0.300000          0.190857E-03
      0.305000          0.188357E-03
      0.310000          0.185908E-03
      0.315000          0.183462E-03
      0.320000          0.180993E-03
      0.325000          0.178493E-03
      0.330000          0.175974E-03
      0.335000          0.173457E-03
      0.340000          0.170973E-03
      0.345000          0.168551E-03
      0.350000          0.166223E-03
      0.355000          0.164010E-03
      0.360000          0.161929E-03
      0.365000          0.159982E-03
      0.370000          0.158161E-03
      0.375000          0.156448E-03
      0.380000          0.154814E-03
      0.385000          0.153225E-03
      0.390000          0.151642E-03
      0.395000          0.150026E-03
      0.400000          0.148341E-03
      0.405000          0.146554E-03
      0.410000          0.144644E-03
      0.415000          0.142596E-03
      0.420000          0.140406E-03
      0.425000          0.138081E-03
      0.430000          0.135636E-03
      0.435000          0.133093E-03
      0.440000          0.130481E-03
      0.445000          0.127833E-03
      0.450000          0.125181E-03
      0.455000          0.122557E-03
      0.460000          0.119992E-03
      0.465000          0.117509E-03
      0.470000          0.115130E-03
      0.475000          0.112869E-03
      0.480000          0.110737E-03
      0.485000          0.108736E-03
      0.490000          0.106869E-03
      0.495000          0.105133E-03
      0.500000          0.103523E-03
