 I_abs(s)[cm^-1]/c[mg/ml]
       0.00000          0.137129E-01
      0.500000E-02      0.136533E-01
      0.100000E-01      0.134766E-01
      0.150000E-01      0.131882E-01
      0.200000E-01      0.127971E-01
      0.250000E-01      0.123152E-01
      0.300000E-01      0.117566E-01
      0.350000E-01      0.111371E-01
      0.400000E-01      0.104733E-01
      0.450000E-01      0.978178E-02
      0.500000E-01      0.907870E-02
      0.550000E-01      0.837877E-02
      0.600000E-01      0.769500E-02
      0.650000E-01      0.703823E-02
      0.700000E-01      0.641697E-02
      0.750000E-01      0.583729E-02
      0.800000E-01      0.530293E-02
      0.850000E-01      0.481549E-02
      0.900000E-01      0.437469E-02
      0.950000E-01      0.397875E-02
      0.100000          0.362475E-02
      0.105000          0.330900E-02
      0.110000          0.302742E-02
      0.115000          0.277580E-02
      0.120000          0.255009E-02
      0.125000          0.234653E-02
      0.130000          0.216184E-02
      0.135000          0.199321E-02
      0.140000          0.183835E-02
      0.145000          0.169543E-02
      0.150000          0.156305E-02
      0.155000          0.144015E-02
      0.160000          0.132593E-02
      0.165000          0.121980E-02
      0.170000          0.112130E-02
      0.175000          0.103006E-02
      0.180000          0.945763E-03
      0.185000          0.868099E-03
      0.190000          0.796784E-03
      0.195000          0.731531E-03
      0.200000          0.672049E-03
      0.205000          0.618044E-03
      0.210000          0.569214E-03
      0.215000          0.525247E-03
      0.220000          0.485820E-03
      0.225000          0.450593E-03
      0.230000          0.419207E-03
      0.235000          0.391289E-03
      0.240000          0.366451E-03
      0.245000          0.344297E-03
      0.250000          0.324436E-03
      0.255000          0.306490E-03
      0.260000          0.290107E-03
      0.265000          0.274977E-03
      0.270000          0.260840E-03
      0.275000          0.247493E-03
      0.280000          0.234799E-03
      0.285000          0.222679E-03
      0.290000          0.211112E-03
      0.295000          0.200124E-03
      0.300000          0.189773E-03
      0.305000          0.180139E-03
      0.310000          0.171303E-03
      0.315000          0.163339E-03
      0.320000          0.156299E-03
      0.325000          0.150207E-03
      0.330000          0.145050E-03
      0.335000          0.140785E-03
      0.340000          0.137335E-03
      0.345000          0.134596E-03
      0.350000          0.132451E-03
      0.355000          0.130770E-03
      0.360000          0.129428E-03
      0.365000          0.128305E-03
      0.370000          0.127298E-03
      0.375000          0.126323E-03
      0.380000          0.125317E-03
      0.385000          0.124237E-03
      0.390000          0.123063E-03
      0.395000          0.121787E-03
      0.400000          0.120415E-03
      0.405000          0.118963E-03
      0.410000          0.117450E-03
      0.415000          0.115895E-03
      0.420000          0.114321E-03
      0.425000          0.112745E-03
      0.430000          0.111186E-03
      0.435000          0.109658E-03
      0.440000          0.108178E-03
      0.445000          0.106759E-03
      0.450000          0.105419E-03
      0.455000          0.104172E-03
      0.460000          0.103035E-03
      0.465000          0.102022E-03
      0.470000          0.101148E-03
      0.475000          0.100419E-03
      0.480000          0.998408E-04
      0.485000          0.994089E-04
      0.490000          0.991132E-04
      0.495000          0.989355E-04
      0.500000          0.988509E-04
