 I_abs(s)[cm^-1]/c[mg/ml]
       0.00000          0.136666E-01
      0.500000E-02      0.136043E-01
      0.100000E-01      0.134195E-01
      0.150000E-01      0.131185E-01
      0.200000E-01      0.127118E-01
      0.250000E-01      0.122127E-01
      0.300000E-01      0.116372E-01
      0.350000E-01      0.110031E-01
      0.400000E-01      0.103284E-01
      0.450000E-01      0.963113E-02
      0.500000E-01      0.892830E-02
      0.550000E-01      0.823499E-02
      0.600000E-01      0.756402E-02
      0.650000E-01      0.692557E-02
      0.700000E-01      0.632704E-02
      0.750000E-01      0.577310E-02
      0.800000E-01      0.526592E-02
      0.850000E-01      0.480550E-02
      0.900000E-01      0.439007E-02
      0.950000E-01      0.401659E-02
      0.100000          0.368122E-02
      0.105000          0.337969E-02
      0.110000          0.310771E-02
      0.115000          0.286121E-02
      0.120000          0.263657E-02
      0.125000          0.243070E-02
      0.130000          0.224108E-02
      0.135000          0.206572E-02
      0.140000          0.190311E-02
      0.145000          0.175209E-02
      0.150000          0.161180E-02
      0.155000          0.148157E-02
      0.160000          0.136081E-02
      0.165000          0.124901E-02
      0.170000          0.114569E-02
      0.175000          0.105037E-02
      0.180000          0.962586E-03
      0.185000          0.881899E-03
      0.190000          0.807900E-03
      0.195000          0.740217E-03
      0.200000          0.678515E-03
      0.205000          0.622490E-03
      0.210000          0.571856E-03
      0.215000          0.526329E-03
      0.220000          0.485609E-03
      0.225000          0.449367E-03
      0.230000          0.417234E-03
      0.235000          0.388802E-03
      0.240000          0.363627E-03
      0.245000          0.341250E-03
      0.250000          0.321206E-03
      0.255000          0.303058E-03
      0.260000          0.286408E-03
      0.265000          0.270926E-03
      0.270000          0.256355E-03
      0.275000          0.242522E-03
      0.280000          0.229332E-03
      0.285000          0.216764E-03
      0.290000          0.204849E-03
      0.295000          0.193655E-03
      0.300000          0.183265E-03
      0.305000          0.173755E-03
      0.310000          0.165183E-03
      0.315000          0.157574E-03
      0.320000          0.150916E-03
      0.325000          0.145157E-03
      0.330000          0.140217E-03
      0.335000          0.135992E-03
      0.340000          0.132365E-03
      0.345000          0.129220E-03
      0.350000          0.126453E-03
      0.355000          0.123974E-03
      0.360000          0.121718E-03
      0.365000          0.119640E-03
      0.370000          0.117717E-03
      0.375000          0.115940E-03
      0.380000          0.114311E-03
      0.385000          0.112833E-03
      0.390000          0.111507E-03
      0.395000          0.110327E-03
      0.400000          0.109279E-03
      0.405000          0.108340E-03
      0.410000          0.107482E-03
      0.415000          0.106673E-03
      0.420000          0.105884E-03
      0.425000          0.105090E-03
      0.430000          0.104278E-03
      0.435000          0.103444E-03
      0.440000          0.102595E-03
      0.445000          0.101751E-03
      0.450000          0.100934E-03
      0.455000          0.100172E-03
      0.460000          0.994905E-04
      0.465000          0.989108E-04
      0.470000          0.984440E-04
      0.475000          0.980914E-04
      0.480000          0.978429E-04
      0.485000          0.976784E-04
      0.490000          0.975701E-04
      0.495000          0.974858E-04
      0.500000          0.973924E-04
