 I_abs(s)[cm^-1]/c[mg/ml]
       0.00000          0.139608E-01
      0.500000E-02      0.139116E-01
      0.100000E-01      0.137651E-01
      0.150000E-01      0.135245E-01
      0.200000E-01      0.131950E-01
      0.250000E-01      0.127836E-01
      0.300000E-01      0.122990E-01
      0.350000E-01      0.117512E-01
      0.400000E-01      0.111512E-01
      0.450000E-01      0.105104E-01
      0.500000E-01      0.984072E-02
      0.550000E-01      0.915400E-02
      0.600000E-01      0.846157E-02
      0.650000E-01      0.777412E-02
      0.700000E-01      0.710132E-02
      0.750000E-01      0.645171E-02
      0.800000E-01      0.583248E-02
      0.850000E-01      0.524940E-02
      0.900000E-01      0.470680E-02
      0.950000E-01      0.420754E-02
      0.100000          0.375313E-02
      0.105000          0.334380E-02
      0.110000          0.297869E-02
      0.115000          0.265596E-02
      0.120000          0.237304E-02
      0.125000          0.212678E-02
      0.130000          0.191365E-02
      0.135000          0.172993E-02
      0.140000          0.157185E-02
      0.145000          0.143573E-02
      0.150000          0.131813E-02
      0.155000          0.121587E-02
      0.160000          0.112616E-02
      0.165000          0.104656E-02
      0.170000          0.975049E-03
      0.175000          0.909983E-03
      0.180000          0.850073E-03
      0.185000          0.794347E-03
      0.190000          0.742107E-03
      0.195000          0.692874E-03
      0.200000          0.646345E-03
      0.205000          0.602338E-03
      0.210000          0.560758E-03
      0.215000          0.521558E-03
      0.220000          0.484715E-03
      0.225000          0.450206E-03
      0.230000          0.417998E-03
      0.235000          0.388041E-03
      0.240000          0.360266E-03
      0.245000          0.334585E-03
      0.250000          0.310902E-03
      0.255000          0.289109E-03
      0.260000          0.269101E-03
      0.265000          0.250774E-03
      0.270000          0.234033E-03
      0.275000          0.218791E-03
      0.280000          0.204972E-03
      0.285000          0.192506E-03
      0.290000          0.181331E-03
      0.295000          0.171386E-03
      0.300000          0.162610E-03
      0.305000          0.154937E-03
      0.310000          0.148294E-03
      0.315000          0.142600E-03
      0.320000          0.137765E-03
      0.325000          0.133689E-03
      0.330000          0.130268E-03
      0.335000          0.127390E-03
      0.340000          0.124946E-03
      0.345000          0.122829E-03
      0.350000          0.120938E-03
      0.355000          0.119185E-03
      0.360000          0.117495E-03
      0.365000          0.115812E-03
      0.370000          0.114094E-03
      0.375000          0.112321E-03
      0.380000          0.110487E-03
      0.385000          0.108606E-03
      0.390000          0.106702E-03
      0.395000          0.104809E-03
      0.400000          0.102970E-03
      0.405000          0.101229E-03
      0.410000          0.996301E-04
      0.415000          0.982120E-04
      0.420000          0.970082E-04
      0.425000          0.960431E-04
      0.430000          0.953309E-04
      0.435000          0.948757E-04
      0.440000          0.946711E-04
      0.445000          0.947011E-04
      0.450000          0.949419E-04
      0.455000          0.953632E-04
      0.460000          0.959305E-04
      0.465000          0.966069E-04
      0.470000          0.973553E-04
      0.475000          0.981400E-04
      0.480000          0.989284E-04
      0.485000          0.996919E-04
      0.490000          0.100407E-03
      0.495000          0.101054E-03
      0.500000          0.101620E-03
