 I_abs(s)[cm^-1]/c[mg/ml]
       0.00000          0.141718E-01
      0.500000E-02      0.141233E-01
      0.100000E-01      0.139791E-01
      0.150000E-01      0.137424E-01
      0.200000E-01      0.134185E-01
      0.250000E-01      0.130145E-01
      0.300000E-01      0.125393E-01
      0.350000E-01      0.120028E-01
      0.400000E-01      0.114158E-01
      0.450000E-01      0.107898E-01
      0.500000E-01      0.101363E-01
      0.550000E-01      0.946655E-02
      0.600000E-01      0.879135E-02
      0.650000E-01      0.812061E-02
      0.700000E-01      0.746317E-02
      0.750000E-01      0.682664E-02
      0.800000E-01      0.621728E-02
      0.850000E-01      0.563998E-02
      0.900000E-01      0.509825E-02
      0.950000E-01      0.459434E-02
      0.100000          0.412930E-02
      0.105000          0.370315E-02
      0.110000          0.331507E-02
      0.115000          0.296354E-02
      0.120000          0.264655E-02
      0.125000          0.236175E-02
      0.130000          0.210663E-02
      0.135000          0.187860E-02
      0.140000          0.167514E-02
      0.145000          0.149385E-02
      0.150000          0.133251E-02
      0.155000          0.118911E-02
      0.160000          0.106185E-02
      0.165000          0.949129E-03
      0.170000          0.849531E-03
      0.175000          0.761793E-03
      0.180000          0.684777E-03
      0.185000          0.617445E-03
      0.190000          0.558831E-03
      0.195000          0.508025E-03
      0.200000          0.464159E-03
      0.205000          0.426407E-03
      0.210000          0.393979E-03
      0.215000          0.366129E-03
      0.220000          0.342163E-03
      0.225000          0.321447E-03
      0.230000          0.303416E-03
      0.235000          0.287578E-03
      0.240000          0.273523E-03
      0.245000          0.260917E-03
      0.250000          0.249502E-03
      0.255000          0.239090E-03
      0.260000          0.229548E-03
      0.265000          0.220795E-03
      0.270000          0.212782E-03
      0.275000          0.205482E-03
      0.280000          0.198878E-03
      0.285000          0.192954E-03
      0.290000          0.187686E-03
      0.295000          0.183038E-03
      0.300000          0.178955E-03
      0.305000          0.175371E-03
      0.310000          0.172205E-03
      0.315000          0.169366E-03
      0.320000          0.166760E-03
      0.325000          0.164293E-03
      0.330000          0.161879E-03
      0.335000          0.159443E-03
      0.340000          0.156924E-03
      0.345000          0.154279E-03
      0.350000          0.151486E-03
      0.355000          0.148538E-03
      0.360000          0.145446E-03
      0.365000          0.142238E-03
      0.370000          0.138948E-03
      0.375000          0.135621E-03
      0.380000          0.132304E-03
      0.385000          0.129045E-03
      0.390000          0.125885E-03
      0.395000          0.122862E-03
      0.400000          0.120005E-03
      0.405000          0.117335E-03
      0.410000          0.114861E-03
      0.415000          0.112586E-03
      0.420000          0.110502E-03
      0.425000          0.108597E-03
      0.430000          0.106850E-03
      0.435000          0.105239E-03
      0.440000          0.103741E-03
      0.445000          0.102331E-03
      0.450000          0.100985E-03
      0.455000          0.996828E-04
      0.460000          0.984069E-04
      0.465000          0.971435E-04
      0.470000          0.958832E-04
      0.475000          0.946207E-04
      0.480000          0.933549E-04
      0.485000          0.920885E-04
      0.490000          0.908271E-04
      0.495000          0.895793E-04
      0.500000          0.883556E-04
