 I_abs(s)[cm^-1]/c[mg/ml]
       0.00000          0.138211E-01
      0.500000E-02      0.137644E-01
      0.100000E-01      0.135961E-01
      0.150000E-01      0.133204E-01
      0.200000E-01      0.129447E-01
      0.250000E-01      0.124786E-01
      0.300000E-01      0.119341E-01
      0.350000E-01      0.113244E-01
      0.400000E-01      0.106641E-01
      0.450000E-01      0.996810E-02
      0.500000E-01      0.925143E-02
      0.550000E-01      0.852847E-02
      0.600000E-01      0.781264E-02
      0.650000E-01      0.711592E-02
      0.700000E-01      0.644856E-02
      0.750000E-01      0.581891E-02
      0.800000E-01      0.523324E-02
      0.850000E-01      0.469578E-02
      0.900000E-01      0.420875E-02
      0.950000E-01      0.377259E-02
      0.100000          0.338609E-02
      0.105000          0.304676E-02
      0.110000          0.275102E-02
      0.115000          0.249460E-02
      0.120000          0.227278E-02
      0.125000          0.208073E-02
      0.130000          0.191366E-02
      0.135000          0.176711E-02
      0.140000          0.163705E-02
      0.145000          0.152000E-02
      0.150000          0.141310E-02
      0.155000          0.131406E-02
      0.160000          0.122120E-02
      0.165000          0.113337E-02
      0.170000          0.104983E-02
      0.175000          0.970232E-03
      0.180000          0.894477E-03
      0.185000          0.822639E-03
      0.190000          0.754887E-03
      0.195000          0.691411E-03
      0.200000          0.632379E-03
      0.205000          0.577891E-03
      0.210000          0.527967E-03
      0.215000          0.482538E-03
      0.220000          0.441450E-03
      0.225000          0.404479E-03
      0.230000          0.371346E-03
      0.235000          0.341743E-03
      0.240000          0.315348E-03
      0.245000          0.291846E-03
      0.250000          0.270939E-03
      0.255000          0.252358E-03
      0.260000          0.235866E-03
      0.265000          0.221260E-03
      0.270000          0.208363E-03
      0.275000          0.197027E-03
      0.280000          0.187116E-03
      0.285000          0.178507E-03
      0.290000          0.171083E-03
      0.295000          0.164723E-03
      0.300000          0.159306E-03
      0.305000          0.154707E-03
      0.310000          0.150798E-03
      0.315000          0.147453E-03
      0.320000          0.144548E-03
      0.325000          0.141970E-03
      0.330000          0.139616E-03
      0.335000          0.137401E-03
      0.340000          0.135256E-03
      0.345000          0.133134E-03
      0.350000          0.131004E-03
      0.355000          0.128855E-03
      0.360000          0.126689E-03
      0.365000          0.124520E-03
      0.370000          0.122369E-03
      0.375000          0.120260E-03
      0.380000          0.118218E-03
      0.385000          0.116265E-03
      0.390000          0.114414E-03
      0.395000          0.112674E-03
      0.400000          0.111048E-03
      0.405000          0.109527E-03
      0.410000          0.108103E-03
      0.415000          0.106759E-03
      0.420000          0.105479E-03
      0.425000          0.104246E-03
      0.430000          0.103048E-03
      0.435000          0.101873E-03
      0.440000          0.100718E-03
      0.445000          0.995825E-04
      0.450000          0.984721E-04
      0.455000          0.973972E-04
      0.460000          0.963719E-04
      0.465000          0.954121E-04
      0.470000          0.945344E-04
      0.475000          0.937545E-04
      0.480000          0.930856E-04
      0.485000          0.925375E-04
      0.490000          0.921157E-04
      0.495000          0.918209E-04
      0.500000          0.916490E-04
