 I_abs(s)[cm^-1]/c[mg/ml]
       0.00000          0.142975E-01
      0.500000E-02      0.142537E-01
      0.100000E-01      0.141231E-01
      0.150000E-01      0.139082E-01
      0.200000E-01      0.136130E-01
      0.250000E-01      0.132430E-01
      0.300000E-01      0.128048E-01
      0.350000E-01      0.123064E-01
      0.400000E-01      0.117562E-01
      0.450000E-01      0.111637E-01
      0.500000E-01      0.105383E-01
      0.550000E-01      0.988966E-02
      0.600000E-01      0.922737E-02
      0.650000E-01      0.856053E-02
      0.700000E-01      0.789768E-02
      0.750000E-01      0.724662E-02
      0.800000E-01      0.661425E-02
      0.850000E-01      0.600650E-02
      0.900000E-01      0.542824E-02
      0.950000E-01      0.488332E-02
      0.100000          0.437451E-02
      0.105000          0.390359E-02
      0.110000          0.347141E-02
      0.115000          0.307798E-02
      0.120000          0.272261E-02
      0.125000          0.240398E-02
      0.130000          0.212027E-02
      0.135000          0.186932E-02
      0.140000          0.164869E-02
      0.145000          0.145582E-02
      0.150000          0.128806E-02
      0.155000          0.114279E-02
      0.160000          0.101749E-02
      0.165000          0.909763E-03
      0.170000          0.817364E-03
      0.175000          0.738253E-03
      0.180000          0.670580E-03
      0.185000          0.612695E-03
      0.190000          0.563142E-03
      0.195000          0.520643E-03
      0.200000          0.484089E-03
      0.205000          0.452520E-03
      0.210000          0.425107E-03
      0.215000          0.401142E-03
      0.220000          0.380017E-03
      0.225000          0.361214E-03
      0.230000          0.344294E-03
      0.235000          0.328889E-03
      0.240000          0.314692E-03
      0.245000          0.301452E-03
      0.250000          0.288969E-03
      0.255000          0.277087E-03
      0.260000          0.265693E-03
      0.265000          0.254709E-03
      0.270000          0.244088E-03
      0.275000          0.233808E-03
      0.280000          0.223868E-03
      0.285000          0.214283E-03
      0.290000          0.205076E-03
      0.295000          0.196275E-03
      0.300000          0.187910E-03
      0.305000          0.180003E-03
      0.310000          0.172574E-03
      0.315000          0.165630E-03
      0.320000          0.159172E-03
      0.325000          0.153188E-03
      0.330000          0.147656E-03
      0.335000          0.142548E-03
      0.340000          0.137828E-03
      0.345000          0.133455E-03
      0.350000          0.129389E-03
      0.355000          0.125586E-03
      0.360000          0.122008E-03
      0.365000          0.118621E-03
      0.370000          0.115396E-03
      0.375000          0.112310E-03
      0.380000          0.109348E-03
      0.385000          0.106503E-03
      0.390000          0.103774E-03
      0.395000          0.101164E-03
      0.400000          0.986825E-04
      0.405000          0.963419E-04
      0.410000          0.941558E-04
      0.415000          0.921385E-04
      0.420000          0.903034E-04
      0.425000          0.886620E-04
      0.430000          0.872229E-04
      0.435000          0.859914E-04
      0.440000          0.849689E-04
      0.445000          0.841531E-04
      0.450000          0.835378E-04
      0.455000          0.831136E-04
      0.460000          0.828684E-04
      0.465000          0.827875E-04
      0.470000          0.828551E-04
      0.475000          0.830544E-04
      0.480000          0.833683E-04
      0.485000          0.837802E-04
      0.490000          0.842743E-04
      0.495000          0.848358E-04
      0.500000          0.854515E-04
