 I_abs(s)[cm^-1]/c[mg/ml]
       0.00000          0.138443E-01
      0.500000E-02      0.137865E-01
      0.100000E-01      0.136146E-01
      0.150000E-01      0.133333E-01
      0.200000E-01      0.129498E-01
      0.250000E-01      0.124741E-01
      0.300000E-01      0.119183E-01
      0.350000E-01      0.112960E-01
      0.400000E-01      0.106221E-01
      0.450000E-01      0.991185E-02
      0.500000E-01      0.918054E-02
      0.550000E-01      0.844295E-02
      0.600000E-01      0.771279E-02
      0.650000E-01      0.700234E-02
      0.700000E-01      0.632215E-02
      0.750000E-01      0.568075E-02
      0.800000E-01      0.508463E-02
      0.850000E-01      0.453815E-02
      0.900000E-01      0.404365E-02
      0.950000E-01      0.360161E-02
      0.100000          0.321085E-02
      0.105000          0.286885E-02
      0.110000          0.257201E-02
      0.115000          0.231599E-02
      0.120000          0.209599E-02
      0.125000          0.190708E-02
      0.130000          0.174440E-02
      0.135000          0.160337E-02
      0.140000          0.147988E-02
      0.145000          0.137035E-02
      0.150000          0.127181E-02
      0.155000          0.118190E-02
      0.160000          0.109882E-02
      0.165000          0.102131E-02
      0.170000          0.948540E-03
      0.175000          0.880020E-03
      0.180000          0.815519E-03
      0.185000          0.754972E-03
      0.190000          0.698395E-03
      0.195000          0.645827E-03
      0.200000          0.597280E-03
      0.205000          0.552712E-03
      0.210000          0.512007E-03
      0.215000          0.474984E-03
      0.220000          0.441397E-03
      0.225000          0.410960E-03
      0.230000          0.383368E-03
      0.235000          0.358314E-03
      0.240000          0.335513E-03
      0.245000          0.314715E-03
      0.250000          0.295712E-03
      0.255000          0.278344E-03
      0.260000          0.262496E-03
      0.265000          0.248089E-03
      0.270000          0.235070E-03
      0.275000          0.223399E-03
      0.280000          0.213040E-03
      0.285000          0.203946E-03
      0.290000          0.196051E-03
      0.295000          0.189267E-03
      0.300000          0.183484E-03
      0.305000          0.178566E-03
      0.310000          0.174367E-03
      0.315000          0.170729E-03
      0.320000          0.167498E-03
      0.325000          0.164530E-03
      0.330000          0.161703E-03
      0.335000          0.158919E-03
      0.340000          0.156115E-03
      0.345000          0.153261E-03
      0.350000          0.150358E-03
      0.355000          0.147435E-03
      0.360000          0.144545E-03
      0.365000          0.141754E-03
      0.370000          0.139132E-03
      0.375000          0.136748E-03
      0.380000          0.134658E-03
      0.385000          0.132902E-03
      0.390000          0.131496E-03
      0.395000          0.130435E-03
      0.400000          0.129686E-03
      0.405000          0.129198E-03
      0.410000          0.128902E-03
      0.415000          0.128720E-03
      0.420000          0.128567E-03
      0.425000          0.128361E-03
      0.430000          0.128030E-03
      0.435000          0.127516E-03
      0.440000          0.126777E-03
      0.445000          0.125793E-03
      0.450000          0.124563E-03
      0.455000          0.123106E-03
      0.460000          0.121456E-03
      0.465000          0.119661E-03
      0.470000          0.117773E-03
      0.475000          0.115848E-03
      0.480000          0.113940E-03
      0.485000          0.112096E-03
      0.490000          0.110349E-03
      0.495000          0.108725E-03
      0.500000          0.107232E-03
