 I_abs(s)[cm^-1]/c[mg/ml]
       0.00000          0.139297E-01
      0.500000E-02      0.138716E-01
      0.100000E-01      0.136989E-01
      0.150000E-01      0.134164E-01
      0.200000E-01      0.130316E-01
      0.250000E-01      0.125550E-01
      0.300000E-01      0.119989E-01
      0.350000E-01      0.113773E-01
      0.400000E-01      0.107055E-01
      0.450000E-01      0.999904E-02
      0.500000E-01      0.927332E-02
      0.550000E-01      0.854316E-02
      0.600000E-01      0.782216E-02
      0.650000E-01      0.712235E-02
      0.700000E-01      0.645388E-02
      0.750000E-01      0.582481E-02
      0.800000E-01      0.524107E-02
      0.850000E-01      0.470643E-02
      0.900000E-01      0.422264E-02
      0.950000E-01      0.378964E-02
      0.100000          0.340581E-02
      0.105000          0.306826E-02
      0.110000          0.277320E-02
      0.115000          0.251620E-02
      0.120000          0.229256E-02
      0.125000          0.209753E-02
      0.130000          0.192657E-02
      0.135000          0.177550E-02
      0.140000          0.164067E-02
      0.145000          0.151896E-02
      0.150000          0.140788E-02
      0.155000          0.130547E-02
      0.160000          0.121031E-02
      0.165000          0.112141E-02
      0.170000          0.103813E-02
      0.175000          0.960108E-03
      0.180000          0.887127E-03
      0.185000          0.819077E-03
      0.190000          0.755879E-03
      0.195000          0.697441E-03
      0.200000          0.643625E-03
      0.205000          0.594243E-03
      0.210000          0.549047E-03
      0.215000          0.507750E-03
      0.220000          0.470035E-03
      0.225000          0.435578E-03
      0.230000          0.404064E-03
      0.235000          0.375208E-03
      0.240000          0.348758E-03
      0.245000          0.324507E-03
      0.250000          0.302290E-03
      0.255000          0.281976E-03
      0.260000          0.263464E-03
      0.265000          0.246669E-03
      0.270000          0.231512E-03
      0.275000          0.217907E-03
      0.280000          0.205757E-03
      0.285000          0.194948E-03
      0.290000          0.185348E-03
      0.295000          0.176808E-03
      0.300000          0.169171E-03
      0.305000          0.162278E-03
      0.310000          0.155978E-03
      0.315000          0.150136E-03
      0.320000          0.144639E-03
      0.325000          0.139408E-03
      0.330000          0.134393E-03
      0.335000          0.129580E-03
      0.340000          0.124985E-03
      0.345000          0.120649E-03
      0.350000          0.116627E-03
      0.355000          0.112987E-03
      0.360000          0.109791E-03
      0.365000          0.107094E-03
      0.370000          0.104931E-03
      0.375000          0.103315E-03
      0.380000          0.102231E-03
      0.385000          0.101638E-03
      0.390000          0.101469E-03
      0.395000          0.101637E-03
      0.400000          0.102040E-03
      0.405000          0.102570E-03
      0.410000          0.103118E-03
      0.415000          0.103585E-03
      0.420000          0.103886E-03
      0.425000          0.103958E-03
      0.430000          0.103759E-03
      0.435000          0.103276E-03
      0.440000          0.102517E-03
      0.445000          0.101515E-03
      0.450000          0.100319E-03
      0.455000          0.989914E-04
      0.460000          0.976025E-04
      0.465000          0.962232E-04
      0.470000          0.949201E-04
      0.475000          0.937510E-04
      0.480000          0.927611E-04
      0.485000          0.919811E-04
      0.490000          0.914258E-04
      0.495000          0.910950E-04
      0.500000          0.909749E-04
