 I_abs(s)[cm^-1]/c[mg/ml]
       0.00000          0.140154E-01
      0.500000E-02      0.139541E-01
      0.100000E-01      0.137722E-01
      0.150000E-01      0.134751E-01
      0.200000E-01      0.130719E-01
      0.250000E-01      0.125745E-01
      0.300000E-01      0.119970E-01
      0.350000E-01      0.113553E-01
      0.400000E-01      0.106662E-01
      0.450000E-01      0.994659E-02
      0.500000E-01      0.921282E-02
      0.550000E-01      0.848006E-02
      0.600000E-01      0.776173E-02
      0.650000E-01      0.706919E-02
      0.700000E-01      0.641145E-02
      0.750000E-01      0.579510E-02
      0.800000E-01      0.522439E-02
      0.850000E-01      0.470138E-02
      0.900000E-01      0.422623E-02
      0.950000E-01      0.379756E-02
      0.100000          0.341278E-02
      0.105000          0.306850E-02
      0.110000          0.276089E-02
      0.115000          0.248600E-02
      0.120000          0.223999E-02
      0.125000          0.201932E-02
      0.130000          0.182092E-02
      0.135000          0.164216E-02
      0.140000          0.148091E-02
      0.145000          0.133548E-02
      0.150000          0.120452E-02
      0.155000          0.108698E-02
      0.160000          0.981950E-03
      0.165000          0.888639E-03
      0.170000          0.806271E-03
      0.175000          0.734052E-03
      0.180000          0.671142E-03
      0.185000          0.616655E-03
      0.190000          0.569667E-03
      0.195000          0.529243E-03
      0.200000          0.494471E-03
      0.205000          0.464488E-03
      0.210000          0.438512E-03
      0.215000          0.415861E-03
      0.220000          0.395964E-03
      0.225000          0.378363E-03
      0.230000          0.362706E-03
      0.235000          0.348732E-03
      0.240000          0.336249E-03
      0.245000          0.325116E-03
      0.250000          0.315220E-03
      0.255000          0.306458E-03
      0.260000          0.298725E-03
      0.265000          0.291901E-03
      0.270000          0.285849E-03
      0.275000          0.280417E-03
      0.280000          0.275442E-03
      0.285000          0.270756E-03
      0.290000          0.266196E-03
      0.295000          0.261612E-03
      0.300000          0.256872E-03
      0.305000          0.251872E-03
      0.310000          0.246534E-03
      0.315000          0.240814E-03
      0.320000          0.234694E-03
      0.325000          0.228186E-03
      0.330000          0.221323E-03
      0.335000          0.214162E-03
      0.340000          0.206770E-03
      0.345000          0.199231E-03
      0.350000          0.191631E-03
      0.355000          0.184063E-03
      0.360000          0.176618E-03
      0.365000          0.169384E-03
      0.370000          0.162441E-03
      0.375000          0.155862E-03
      0.380000          0.149707E-03
      0.385000          0.144022E-03
      0.390000          0.138835E-03
      0.395000          0.134159E-03
      0.400000          0.129990E-03
      0.405000          0.126304E-03
      0.410000          0.123064E-03
      0.415000          0.120221E-03
      0.420000          0.117714E-03
      0.425000          0.115480E-03
      0.430000          0.113453E-03
      0.435000          0.111572E-03
      0.440000          0.109781E-03
      0.445000          0.108039E-03
      0.450000          0.106312E-03
      0.455000          0.104583E-03
      0.460000          0.102846E-03
      0.465000          0.101109E-03
      0.470000          0.993854E-04
      0.475000          0.976970E-04
      0.480000          0.960675E-04
      0.485000          0.945204E-04
      0.490000          0.930757E-04
      0.495000          0.917485E-04
      0.500000          0.905470E-04
