 I_abs(s)[cm^-1]/c[mg/ml]
       0.00000          0.137592E-01
      0.500000E-02      0.137051E-01
      0.100000E-01      0.135444E-01
      0.150000E-01      0.132814E-01
      0.200000E-01      0.129230E-01
      0.250000E-01      0.124787E-01
      0.300000E-01      0.119598E-01
      0.350000E-01      0.113792E-01
      0.400000E-01      0.107506E-01
      0.450000E-01      0.100883E-01
      0.500000E-01      0.940626E-02
      0.550000E-01      0.871800E-02
      0.600000E-01      0.803587E-02
      0.650000E-01      0.737080E-02
      0.700000E-01      0.673202E-02
      0.750000E-01      0.612689E-02
      0.800000E-01      0.556080E-02
      0.850000E-01      0.503727E-02
      0.900000E-01      0.455798E-02
      0.950000E-01      0.412302E-02
      0.100000          0.373113E-02
      0.105000          0.337994E-02
      0.110000          0.306630E-02
      0.115000          0.278655E-02
      0.120000          0.253681E-02
      0.125000          0.231320E-02
      0.130000          0.211204E-02
      0.135000          0.192999E-02
      0.140000          0.176419E-02
      0.145000          0.161225E-02
      0.150000          0.147227E-02
      0.155000          0.134285E-02
      0.160000          0.122299E-02
      0.165000          0.111201E-02
      0.170000          0.100950E-02
      0.175000          0.915198E-03
      0.180000          0.828932E-03
      0.185000          0.750547E-03
      0.190000          0.679849E-03
      0.195000          0.616577E-03
      0.200000          0.560378E-03
      0.205000          0.510815E-03
      0.210000          0.467366E-03
      0.215000          0.429454E-03
      0.220000          0.396465E-03
      0.225000          0.367779E-03
      0.230000          0.342796E-03
      0.235000          0.320957E-03
      0.240000          0.301762E-03
      0.245000          0.284778E-03
      0.250000          0.269648E-03
      0.255000          0.256084E-03
      0.260000          0.243863E-03
      0.265000          0.232816E-03
      0.270000          0.222815E-03
      0.275000          0.213763E-03
      0.280000          0.205580E-03
      0.285000          0.198192E-03
      0.290000          0.191528E-03
      0.295000          0.185512E-03
      0.300000          0.180064E-03
      0.305000          0.175099E-03
      0.310000          0.170530E-03
      0.315000          0.166273E-03
      0.320000          0.162250E-03
      0.325000          0.158394E-03
      0.330000          0.154650E-03
      0.335000          0.150981E-03
      0.340000          0.147364E-03
      0.345000          0.143793E-03
      0.350000          0.140274E-03
      0.355000          0.136826E-03
      0.360000          0.133471E-03
      0.365000          0.130238E-03
      0.370000          0.127153E-03
      0.375000          0.124238E-03
      0.380000          0.121512E-03
      0.385000          0.118983E-03
      0.390000          0.116653E-03
      0.395000          0.114517E-03
      0.400000          0.112560E-03
      0.405000          0.110765E-03
      0.410000          0.109111E-03
      0.415000          0.107576E-03
      0.420000          0.106138E-03
      0.425000          0.104780E-03
      0.430000          0.103485E-03
      0.435000          0.102244E-03
      0.440000          0.101049E-03
      0.445000          0.999004E-04
      0.450000          0.987990E-04
      0.455000          0.977499E-04
      0.460000          0.967593E-04
      0.465000          0.958341E-04
      0.470000          0.949804E-04
      0.475000          0.942027E-04
      0.480000          0.935031E-04
      0.485000          0.928811E-04
      0.490000          0.923333E-04
      0.495000          0.918535E-04
      0.500000          0.914333E-04
