 I_abs(s)[cm^-1]/c[mg/ml]
       0.00000          0.141091E-01
      0.500000E-02      0.140548E-01
      0.100000E-01      0.138934E-01
      0.150000E-01      0.136285E-01
      0.200000E-01      0.132667E-01
      0.250000E-01      0.128163E-01
      0.300000E-01      0.122877E-01
      0.350000E-01      0.116927E-01
      0.400000E-01      0.110441E-01
      0.450000E-01      0.103554E-01
      0.500000E-01      0.964020E-02
      0.550000E-01      0.891167E-02
      0.600000E-01      0.818241E-02
      0.650000E-01      0.746394E-02
      0.700000E-01      0.676645E-02
      0.750000E-01      0.609863E-02
      0.800000E-01      0.546750E-02
      0.850000E-01      0.487836E-02
      0.900000E-01      0.433487E-02
      0.950000E-01      0.383906E-02
      0.100000          0.339152E-02
      0.105000          0.299157E-02
      0.110000          0.263746E-02
      0.115000          0.232658E-02
      0.120000          0.205573E-02
      0.125000          0.182127E-02
      0.130000          0.161939E-02
      0.135000          0.144621E-02
      0.140000          0.129797E-02
      0.145000          0.117113E-02
      0.150000          0.106243E-02
      0.155000          0.968966E-03
      0.160000          0.888201E-03
      0.165000          0.817960E-03
      0.170000          0.756420E-03
      0.175000          0.702083E-03
      0.180000          0.653734E-03
      0.185000          0.610405E-03
      0.190000          0.571332E-03
      0.195000          0.535919E-03
      0.200000          0.503700E-03
      0.205000          0.474314E-03
      0.210000          0.447479E-03
      0.215000          0.422969E-03
      0.220000          0.400607E-03
      0.225000          0.380243E-03
      0.230000          0.361754E-03
      0.235000          0.345033E-03
      0.240000          0.329980E-03
      0.245000          0.316505E-03
      0.250000          0.304516E-03
      0.255000          0.293919E-03
      0.260000          0.284614E-03
      0.265000          0.276493E-03
      0.270000          0.269439E-03
      0.275000          0.263323E-03
      0.280000          0.258012E-03
      0.285000          0.253364E-03
      0.290000          0.249234E-03
      0.295000          0.245478E-03
      0.300000          0.241960E-03
      0.305000          0.238551E-03
      0.310000          0.235139E-03
      0.315000          0.231628E-03
      0.320000          0.227943E-03
      0.325000          0.224030E-03
      0.330000          0.219860E-03
      0.335000          0.215420E-03
      0.340000          0.210718E-03
      0.345000          0.205779E-03
      0.350000          0.200636E-03
      0.355000          0.195334E-03
      0.360000          0.189919E-03
      0.365000          0.184439E-03
      0.370000          0.178938E-03
      0.375000          0.173456E-03
      0.380000          0.168027E-03
      0.385000          0.162677E-03
      0.390000          0.157427E-03
      0.395000          0.152290E-03
      0.400000          0.147276E-03
      0.405000          0.142391E-03
      0.410000          0.137641E-03
      0.415000          0.133030E-03
      0.420000          0.128566E-03
      0.425000          0.124257E-03
      0.430000          0.120115E-03
      0.435000          0.116154E-03
      0.440000          0.112391E-03
      0.445000          0.108843E-03
      0.450000          0.105528E-03
      0.455000          0.102461E-03
      0.460000          0.996554E-04
      0.465000          0.971213E-04
      0.470000          0.948631E-04
      0.475000          0.928799E-04
      0.480000          0.911653E-04
      0.485000          0.897072E-04
      0.490000          0.884884E-04
      0.495000          0.874876E-04
      0.500000          0.866802E-04
