 I_abs(s)[cm^-1]/c[mg/ml]
       0.00000          0.137437E-01
      0.500000E-02      0.136860E-01
      0.100000E-01      0.135143E-01
      0.150000E-01      0.132332E-01
      0.200000E-01      0.128501E-01
      0.250000E-01      0.123751E-01
      0.300000E-01      0.118201E-01
      0.350000E-01      0.111992E-01
      0.400000E-01      0.105270E-01
      0.450000E-01      0.981921E-02
      0.500000E-01      0.909128E-02
      0.550000E-01      0.835819E-02
      0.600000E-01      0.763394E-02
      0.650000E-01      0.693104E-02
      0.700000E-01      0.626028E-02
      0.750000E-01      0.563039E-02
      0.800000E-01      0.504799E-02
      0.850000E-01      0.451748E-02
      0.900000E-01      0.404116E-02
      0.950000E-01      0.361933E-02
      0.100000          0.325055E-02
      0.105000          0.293188E-02
      0.110000          0.265920E-02
      0.115000          0.242757E-02
      0.120000          0.223153E-02
      0.125000          0.206542E-02
      0.130000          0.192368E-02
      0.135000          0.180107E-02
      0.140000          0.169286E-02
      0.145000          0.159500E-02
      0.150000          0.150415E-02
      0.155000          0.141776E-02
      0.160000          0.133402E-02
      0.165000          0.125178E-02
      0.170000          0.117053E-02
      0.175000          0.109024E-02
      0.180000          0.101124E-02
      0.185000          0.934110E-03
      0.190000          0.859581E-03
      0.195000          0.788398E-03
      0.200000          0.721258E-03
      0.205000          0.658735E-03
      0.210000          0.601241E-03
      0.215000          0.549003E-03
      0.220000          0.502056E-03
      0.225000          0.460265E-03
      0.230000          0.423339E-03
      0.235000          0.390877E-03
      0.240000          0.362395E-03
      0.245000          0.337376E-03
      0.250000          0.315297E-03
      0.255000          0.295667E-03
      0.260000          0.278044E-03
      0.265000          0.262062E-03
      0.270000          0.247427E-03
      0.275000          0.233928E-03
      0.280000          0.221425E-03
      0.285000          0.209843E-03
      0.290000          0.199153E-03
      0.295000          0.189362E-03
      0.300000          0.180493E-03
      0.305000          0.172572E-03
      0.310000          0.165614E-03
      0.315000          0.159617E-03
      0.320000          0.154552E-03
      0.325000          0.150365E-03
      0.330000          0.146973E-03
      0.335000          0.144269E-03
      0.340000          0.142130E-03
      0.345000          0.140418E-03
      0.350000          0.138995E-03
      0.355000          0.137724E-03
      0.360000          0.136478E-03
      0.365000          0.135146E-03
      0.370000          0.133638E-03
      0.375000          0.131887E-03
      0.380000          0.129849E-03
      0.385000          0.127506E-03
      0.390000          0.124861E-03
      0.395000          0.121938E-03
      0.400000          0.118777E-03
      0.405000          0.115433E-03
      0.410000          0.111966E-03
      0.415000          0.108445E-03
      0.420000          0.104939E-03
      0.425000          0.101515E-03
      0.430000          0.982341E-04
      0.435000          0.951523E-04
      0.440000          0.923155E-04
      0.445000          0.897596E-04
      0.450000          0.875100E-04
      0.455000          0.855810E-04
      0.460000          0.839762E-04
      0.465000          0.826888E-04
      0.470000          0.817029E-04
      0.475000          0.809943E-04
      0.480000          0.805318E-04
      0.485000          0.802789E-04
      0.490000          0.801955E-04
      0.495000          0.802392E-04
      0.500000          0.803672E-04
