 I_abs(s)[cm^-1]/c[mg/ml]
       0.00000          0.138211E-01
      0.500000E-02      0.137607E-01
      0.100000E-01      0.135813E-01
      0.150000E-01      0.132878E-01
      0.200000E-01      0.128886E-01
      0.250000E-01      0.123944E-01
      0.300000E-01      0.118187E-01
      0.350000E-01      0.111763E-01
      0.400000E-01      0.104835E-01
      0.450000E-01      0.975679E-02
      0.500000E-01      0.901281E-02
      0.550000E-01      0.826729E-02
      0.600000E-01      0.753473E-02
      0.650000E-01      0.682792E-02
      0.700000E-01      0.615759E-02
      0.750000E-01      0.553218E-02
      0.800000E-01      0.495775E-02
      0.850000E-01      0.443796E-02
      0.900000E-01      0.397425E-02
      0.950000E-01      0.356599E-02
      0.100000          0.321079E-02
      0.105000          0.290484E-02
      0.110000          0.264330E-02
      0.115000          0.242062E-02
      0.120000          0.223095E-02
      0.125000          0.206847E-02
      0.130000          0.192763E-02
      0.135000          0.180339E-02
      0.140000          0.169143E-02
      0.145000          0.158816E-02
      0.150000          0.149084E-02
      0.155000          0.139750E-02
      0.160000          0.130692E-02
      0.165000          0.121849E-02
      0.170000          0.113213E-02
      0.175000          0.104813E-02
      0.180000          0.967004E-03
      0.185000          0.889417E-03
      0.190000          0.816022E-03
      0.195000          0.747401E-03
      0.200000          0.683997E-03
      0.205000          0.626075E-03
      0.210000          0.573708E-03
      0.215000          0.526786E-03
      0.220000          0.485034E-03
      0.225000          0.448050E-03
      0.230000          0.415343E-03
      0.235000          0.386378E-03
      0.240000          0.360613E-03
      0.245000          0.337536E-03
      0.250000          0.316692E-03
      0.255000          0.297698E-03
      0.260000          0.280254E-03
      0.265000          0.264141E-03
      0.270000          0.249215E-03
      0.275000          0.235393E-03
      0.280000          0.222637E-03
      0.285000          0.210938E-03
      0.290000          0.200294E-03
      0.295000          0.190704E-03
      0.300000          0.182149E-03
      0.305000          0.174587E-03
      0.310000          0.167955E-03
      0.315000          0.162161E-03
      0.320000          0.157097E-03
      0.325000          0.152640E-03
      0.330000          0.148663E-03
      0.335000          0.145041E-03
      0.340000          0.141661E-03
      0.345000          0.138428E-03
      0.350000          0.135269E-03
      0.355000          0.132135E-03
      0.360000          0.129001E-03
      0.365000          0.125865E-03
      0.370000          0.122742E-03
      0.375000          0.119660E-03
      0.380000          0.116656E-03
      0.385000          0.113765E-03
      0.390000          0.111022E-03
      0.395000          0.108452E-03
      0.400000          0.106069E-03
      0.405000          0.103878E-03
      0.410000          0.101869E-03
      0.415000          0.100022E-03
      0.420000          0.983120E-04
      0.425000          0.967062E-04
      0.430000          0.951726E-04
      0.435000          0.936815E-04
      0.440000          0.922092E-04
      0.445000          0.907400E-04
      0.450000          0.892681E-04
      0.455000          0.877977E-04
      0.460000          0.863428E-04
      0.465000          0.849251E-04
      0.470000          0.835723E-04
      0.475000          0.823150E-04
      0.480000          0.811834E-04
      0.485000          0.802051E-04
      0.490000          0.794015E-04
      0.495000          0.787865E-04
      0.500000          0.783646E-04
