 I_abs(s)[cm^-1]/c[mg/ml]
       0.00000          0.137747E-01
      0.500000E-02      0.137061E-01
      0.100000E-01      0.135031E-01
      0.150000E-01      0.131727E-01
      0.200000E-01      0.127267E-01
      0.250000E-01      0.121804E-01
      0.300000E-01      0.115520E-01
      0.350000E-01      0.108613E-01
      0.400000E-01      0.101290E-01
      0.450000E-01      0.937557E-02
      0.500000E-01      0.862005E-02
      0.550000E-01      0.787947E-02
      0.600000E-01      0.716813E-02
      0.650000E-01      0.649727E-02
      0.700000E-01      0.587487E-02
      0.750000E-01      0.530569E-02
      0.800000E-01      0.479159E-02
      0.850000E-01      0.433186E-02
      0.900000E-01      0.392375E-02
      0.950000E-01      0.356305E-02
      0.100000          0.324466E-02
      0.105000          0.296306E-02
      0.110000          0.271282E-02
      0.115000          0.248894E-02
      0.120000          0.228706E-02
      0.125000          0.210362E-02
      0.130000          0.193588E-02
      0.135000          0.178185E-02
      0.140000          0.164021E-02
      0.145000          0.151009E-02
      0.150000          0.139099E-02
      0.155000          0.128255E-02
      0.160000          0.118443E-02
      0.165000          0.109624E-02
      0.170000          0.101744E-02
      0.175000          0.947315E-03
      0.180000          0.885036E-03
      0.185000          0.829638E-03
      0.190000          0.780108E-03
      0.195000          0.735433E-03
      0.200000          0.694663E-03
      0.205000          0.656959E-03
      0.210000          0.621627E-03
      0.215000          0.588137E-03
      0.220000          0.556123E-03
      0.225000          0.525370E-03
      0.230000          0.495788E-03
      0.235000          0.467381E-03
      0.240000          0.440212E-03
      0.245000          0.414369E-03
      0.250000          0.389936E-03
      0.255000          0.366974E-03
      0.260000          0.345502E-03
      0.265000          0.325499E-03
      0.270000          0.306899E-03
      0.275000          0.289603E-03
      0.280000          0.273487E-03
      0.285000          0.258418E-03
      0.290000          0.244264E-03
      0.295000          0.230909E-03
      0.300000          0.218257E-03
      0.305000          0.206240E-03
      0.310000          0.194818E-03
      0.315000          0.183979E-03
      0.320000          0.173731E-03
      0.325000          0.164100E-03
      0.330000          0.155119E-03
      0.335000          0.146823E-03
      0.340000          0.139244E-03
      0.345000          0.132400E-03
      0.350000          0.126299E-03
      0.355000          0.120934E-03
      0.360000          0.116281E-03
      0.365000          0.112307E-03
      0.370000          0.108963E-03
      0.375000          0.106199E-03
      0.380000          0.103957E-03
      0.385000          0.102180E-03
      0.390000          0.100813E-03
      0.395000          0.998061E-04
      0.400000          0.991125E-04
      0.405000          0.986910E-04
      0.410000          0.985045E-04
      0.415000          0.985185E-04
      0.420000          0.986997E-04
      0.425000          0.990144E-04
      0.430000          0.994274E-04
      0.435000          0.999015E-04
      0.440000          0.100397E-03
      0.445000          0.100873E-03
      0.450000          0.101287E-03
      0.455000          0.101600E-03
      0.460000          0.101775E-03
      0.465000          0.101784E-03
      0.470000          0.101604E-03
      0.475000          0.101224E-03
      0.480000          0.100645E-03
      0.485000          0.998758E-04
      0.490000          0.989407E-04
      0.495000          0.978713E-04
      0.500000          0.967075E-04
