 I_abs(s)[cm^-1]/c[mg/ml]
       0.00000          0.141953E-01
      0.500000E-02      0.141439E-01
      0.100000E-01      0.139907E-01
      0.150000E-01      0.137392E-01
      0.200000E-01      0.133948E-01
      0.250000E-01      0.129650E-01
      0.300000E-01      0.124587E-01
      0.350000E-01      0.118864E-01
      0.400000E-01      0.112595E-01
      0.450000E-01      0.105901E-01
      0.500000E-01      0.989042E-02
      0.550000E-01      0.917270E-02
      0.600000E-01      0.844867E-02
      0.650000E-01      0.772933E-02
      0.700000E-01      0.702466E-02
      0.750000E-01      0.634343E-02
      0.800000E-01      0.569307E-02
      0.850000E-01      0.507955E-02
      0.900000E-01      0.450741E-02
      0.950000E-01      0.397975E-02
      0.100000          0.349832E-02
      0.105000          0.306365E-02
      0.110000          0.267518E-02
      0.115000          0.233142E-02
      0.120000          0.203015E-02
      0.125000          0.176858E-02
      0.130000          0.154352E-02
      0.135000          0.135154E-02
      0.140000          0.118912E-02
      0.145000          0.105274E-02
      0.150000          0.939020E-03
      0.155000          0.844756E-03
      0.160000          0.766990E-03
      0.165000          0.703039E-03
      0.170000          0.650512E-03
      0.175000          0.607312E-03
      0.180000          0.571626E-03
      0.185000          0.541912E-03
      0.190000          0.516874E-03
      0.195000          0.495443E-03
      0.200000          0.476745E-03
      0.205000          0.460085E-03
      0.210000          0.444916E-03
      0.215000          0.430823E-03
      0.220000          0.417500E-03
      0.225000          0.404733E-03
      0.230000          0.392383E-03
      0.235000          0.380375E-03
      0.240000          0.368679E-03
      0.245000          0.357301E-03
      0.250000          0.346271E-03
      0.255000          0.335632E-03
      0.260000          0.325433E-03
      0.265000          0.315716E-03
      0.270000          0.306519E-03
      0.275000          0.297862E-03
      0.280000          0.289749E-03
      0.285000          0.282166E-03
      0.290000          0.275079E-03
      0.295000          0.268442E-03
      0.300000          0.262190E-03
      0.305000          0.256254E-03
      0.310000          0.250555E-03
      0.315000          0.245016E-03
      0.320000          0.239564E-03
      0.325000          0.234132E-03
      0.330000          0.228666E-03
      0.335000          0.223124E-03
      0.340000          0.217479E-03
      0.345000          0.211718E-03
      0.350000          0.205845E-03
      0.355000          0.199876E-03
      0.360000          0.193838E-03
      0.365000          0.187766E-03
      0.370000          0.181705E-03
      0.375000          0.175698E-03
      0.380000          0.169794E-03
      0.385000          0.164036E-03
      0.390000          0.158467E-03
      0.395000          0.153122E-03
      0.400000          0.148034E-03
      0.405000          0.143224E-03
      0.410000          0.138712E-03
      0.415000          0.134506E-03
      0.420000          0.130614E-03
      0.425000          0.127033E-03
      0.430000          0.123759E-03
      0.435000          0.120785E-03
      0.440000          0.118101E-03
      0.445000          0.115692E-03
      0.450000          0.113547E-03
      0.455000          0.111652E-03
      0.460000          0.109991E-03
      0.465000          0.108552E-03
      0.470000          0.107318E-03
      0.475000          0.106275E-03
      0.480000          0.105408E-03
      0.485000          0.104700E-03
      0.490000          0.104137E-03
      0.495000          0.103699E-03
      0.500000          0.103368E-03
