 I_abs(s)[cm^-1]/c[mg/ml]
       0.00000          0.137052E-01
      0.500000E-02      0.136447E-01
      0.100000E-01      0.134651E-01
      0.150000E-01      0.131725E-01
      0.200000E-01      0.127763E-01
      0.250000E-01      0.122891E-01
      0.300000E-01      0.117257E-01
      0.350000E-01      0.111028E-01
      0.400000E-01      0.104375E-01
      0.450000E-01      0.974711E-02
      0.500000E-01      0.904803E-02
      0.550000E-01      0.835515E-02
      0.600000E-01      0.768133E-02
      0.650000E-01      0.703710E-02
      0.700000E-01      0.643040E-02
      0.750000E-01      0.586662E-02
      0.800000E-01      0.534868E-02
      0.850000E-01      0.487734E-02
      0.900000E-01      0.445153E-02
      0.950000E-01      0.406873E-02
      0.100000          0.372542E-02
      0.105000          0.341748E-02
      0.110000          0.314056E-02
      0.115000          0.289037E-02
      0.120000          0.266296E-02
      0.125000          0.245483E-02
      0.130000          0.226305E-02
      0.135000          0.208525E-02
      0.140000          0.191965E-02
      0.145000          0.176494E-02
      0.150000          0.162021E-02
      0.155000          0.148487E-02
      0.160000          0.135854E-02
      0.165000          0.124096E-02
      0.170000          0.113197E-02
      0.175000          0.103137E-02
      0.180000          0.938976E-03
      0.185000          0.854550E-03
      0.190000          0.777805E-03
      0.195000          0.708404E-03
      0.200000          0.645967E-03
      0.205000          0.590075E-03
      0.210000          0.540279E-03
      0.215000          0.496107E-03
      0.220000          0.457070E-03
      0.225000          0.422670E-03
      0.230000          0.392405E-03
      0.235000          0.365781E-03
      0.240000          0.342313E-03
      0.245000          0.321542E-03
      0.250000          0.303041E-03
      0.255000          0.286425E-03
      0.260000          0.271360E-03
      0.265000          0.257565E-03
      0.270000          0.244821E-03
      0.275000          0.232962E-03
      0.280000          0.221877E-03
      0.285000          0.211499E-03
      0.290000          0.201796E-03
      0.295000          0.192759E-03
      0.300000          0.184390E-03
      0.305000          0.176697E-03
      0.310000          0.169676E-03
      0.315000          0.163314E-03
      0.320000          0.157581E-03
      0.325000          0.152434E-03
      0.330000          0.147812E-03
      0.335000          0.143652E-03
      0.340000          0.139881E-03
      0.345000          0.136431E-03
      0.350000          0.133239E-03
      0.355000          0.130254E-03
      0.360000          0.127434E-03
      0.365000          0.124751E-03
      0.370000          0.122188E-03
      0.375000          0.119736E-03
      0.380000          0.117395E-03
      0.385000          0.115167E-03
      0.390000          0.113055E-03
      0.395000          0.111060E-03
      0.400000          0.109185E-03
      0.405000          0.107425E-03
      0.410000          0.105778E-03
      0.415000          0.104238E-03
      0.420000          0.102801E-03
      0.425000          0.101464E-03
      0.430000          0.100227E-03
      0.435000          0.990920E-04
      0.440000          0.980631E-04
      0.445000          0.971460E-04
      0.450000          0.963463E-04
      0.455000          0.956676E-04
      0.460000          0.951106E-04
      0.465000          0.946713E-04
      0.470000          0.943405E-04
      0.475000          0.941039E-04
      0.480000          0.939428E-04
      0.485000          0.938351E-04
      0.490000          0.937573E-04
      0.495000          0.936866E-04
      0.500000          0.936027E-04
