 I_abs(s)[cm^-1]/c[mg/ml]
       0.00000          0.134824E-01
      0.500000E-02      0.134193E-01
      0.100000E-01      0.132319E-01
      0.150000E-01      0.129265E-01
      0.200000E-01      0.125132E-01
      0.250000E-01      0.120051E-01
      0.300000E-01      0.114180E-01
      0.350000E-01      0.107693E-01
      0.400000E-01      0.100773E-01
      0.450000E-01      0.936035E-02
      0.500000E-01      0.863575E-02
      0.550000E-01      0.791940E-02
      0.600000E-01      0.722506E-02
      0.650000E-01      0.656403E-02
      0.700000E-01      0.594489E-02
      0.750000E-01      0.537350E-02
      0.800000E-01      0.485311E-02
      0.850000E-01      0.438463E-02
      0.900000E-01      0.396698E-02
      0.950000E-01      0.359746E-02
      0.100000          0.327228E-02
      0.105000          0.298688E-02
      0.110000          0.273641E-02
      0.115000          0.251600E-02
      0.120000          0.232106E-02
      0.125000          0.214741E-02
      0.130000          0.199145E-02
      0.135000          0.185017E-02
      0.140000          0.172114E-02
      0.145000          0.160243E-02
      0.150000          0.149261E-02
      0.155000          0.139057E-02
      0.160000          0.129551E-02
      0.165000          0.120680E-02
      0.170000          0.112397E-02
      0.175000          0.104661E-02
      0.180000          0.974381E-03
      0.185000          0.906951E-03
      0.190000          0.844023E-03
      0.195000          0.785312E-03
      0.200000          0.730554E-03
      0.205000          0.679501E-03
      0.210000          0.631928E-03
      0.215000          0.587633E-03
      0.220000          0.546431E-03
      0.225000          0.508154E-03
      0.230000          0.472650E-03
      0.235000          0.439776E-03
      0.240000          0.409396E-03
      0.245000          0.381383E-03
      0.250000          0.355619E-03
      0.255000          0.331992E-03
      0.260000          0.310397E-03
      0.265000          0.290740E-03
      0.270000          0.272930E-03
      0.275000          0.256883E-03
      0.280000          0.242514E-03
      0.285000          0.229733E-03
      0.290000          0.218443E-03
      0.295000          0.208533E-03
      0.300000          0.199877E-03
      0.305000          0.192331E-03
      0.310000          0.185740E-03
      0.315000          0.179935E-03
      0.320000          0.174746E-03
      0.325000          0.170003E-03
      0.330000          0.165552E-03
      0.335000          0.161256E-03
      0.340000          0.157006E-03
      0.345000          0.152725E-03
      0.350000          0.148368E-03
      0.355000          0.143924E-03
      0.360000          0.139411E-03
      0.365000          0.134869E-03
      0.370000          0.130355E-03
      0.375000          0.125933E-03
      0.380000          0.121664E-03
      0.385000          0.117603E-03
      0.390000          0.113789E-03
      0.395000          0.110246E-03
      0.400000          0.106979E-03
      0.405000          0.103977E-03
      0.410000          0.101217E-03
      0.415000          0.986653E-04
      0.420000          0.962853E-04
      0.425000          0.940424E-04
      0.430000          0.919072E-04
      0.435000          0.898598E-04
      0.440000          0.878903E-04
      0.445000          0.860001E-04
      0.450000          0.841995E-04
      0.455000          0.825062E-04
      0.460000          0.809417E-04
      0.465000          0.795279E-04
      0.470000          0.782843E-04
      0.475000          0.772248E-04
      0.480000          0.763567E-04
      0.485000          0.756793E-04
      0.490000          0.751845E-04
      0.495000          0.748578E-04
      0.500000          0.746797E-04
