 I_abs(s)[cm^-1]/c[mg/ml]
       0.00000          0.139686E-01
      0.500000E-02      0.138990E-01
      0.100000E-01      0.136927E-01
      0.150000E-01      0.133575E-01
      0.200000E-01      0.129055E-01
      0.250000E-01      0.123529E-01
      0.300000E-01      0.117185E-01
      0.350000E-01      0.110228E-01
      0.400000E-01      0.102868E-01
      0.450000E-01      0.953095E-02
      0.500000E-01      0.877397E-02
      0.550000E-01      0.803232E-02
      0.600000E-01      0.731948E-02
      0.650000E-01      0.664576E-02
      0.700000E-01      0.601821E-02
      0.750000E-01      0.544082E-02
      0.800000E-01      0.491493E-02
      0.850000E-01      0.443970E-02
      0.900000E-01      0.401263E-02
      0.950000E-01      0.363016E-02
      0.100000          0.328815E-02
      0.105000          0.298233E-02
      0.110000          0.270859E-02
      0.115000          0.246319E-02
      0.120000          0.224288E-02
      0.125000          0.204491E-02
      0.130000          0.186696E-02
      0.135000          0.170705E-02
      0.140000          0.156345E-02
      0.145000          0.143459E-02
      0.150000          0.131897E-02
      0.155000          0.121512E-02
      0.160000          0.112161E-02
      0.165000          0.103707E-02
      0.170000          0.960196E-03
      0.175000          0.889841E-03
      0.180000          0.825018E-03
      0.185000          0.764946E-03
      0.190000          0.709057E-03
      0.195000          0.656982E-03
      0.200000          0.608526E-03
      0.205000          0.563618E-03
      0.210000          0.522267E-03
      0.215000          0.484502E-03
      0.220000          0.450331E-03
      0.225000          0.419701E-03
      0.230000          0.392482E-03
      0.235000          0.368458E-03
      0.240000          0.347336E-03
      0.245000          0.328766E-03
      0.250000          0.312366E-03
      0.255000          0.297754E-03
      0.260000          0.284566E-03
      0.265000          0.272488E-03
      0.270000          0.261258E-03
      0.275000          0.250682E-03
      0.280000          0.240623E-03
      0.285000          0.231000E-03
      0.290000          0.221773E-03
      0.295000          0.212929E-03
      0.300000          0.204473E-03
      0.305000          0.196414E-03
      0.310000          0.188759E-03
      0.315000          0.181512E-03
      0.320000          0.174670E-03
      0.325000          0.168226E-03
      0.330000          0.162172E-03
      0.335000          0.156502E-03
      0.340000          0.151215E-03
      0.345000          0.146315E-03
      0.350000          0.141809E-03
      0.355000          0.137709E-03
      0.360000          0.134023E-03
      0.365000          0.130754E-03
      0.370000          0.127899E-03
      0.375000          0.125440E-03
      0.380000          0.123349E-03
      0.385000          0.121585E-03
      0.390000          0.120095E-03
      0.395000          0.118818E-03
      0.400000          0.117689E-03
      0.405000          0.116644E-03
      0.410000          0.115624E-03
      0.415000          0.114577E-03
      0.420000          0.113464E-03
      0.425000          0.112262E-03
      0.430000          0.110959E-03
      0.435000          0.109559E-03
      0.440000          0.108081E-03
      0.445000          0.106553E-03
      0.450000          0.105009E-03
      0.455000          0.103489E-03
      0.460000          0.102036E-03
      0.465000          0.100686E-03
      0.470000          0.994724E-04
      0.475000          0.984219E-04
      0.480000          0.975510E-04
      0.485000          0.968669E-04
      0.490000          0.963674E-04
      0.495000          0.960419E-04
      0.500000          0.958726E-04
