 I_abs(s)[cm^-1]/c[mg/ml]
       0.00000          0.142110E-01
      0.500000E-02      0.141619E-01
      0.100000E-01      0.140155E-01
      0.150000E-01      0.137749E-01
      0.200000E-01      0.134450E-01
      0.250000E-01      0.130325E-01
      0.300000E-01      0.125456E-01
      0.350000E-01      0.119937E-01
      0.400000E-01      0.113875E-01
      0.450000E-01      0.107379E-01
      0.500000E-01      0.100564E-01
      0.550000E-01      0.935466E-02
      0.600000E-01      0.864376E-02
      0.650000E-01      0.793435E-02
      0.700000E-01      0.723626E-02
      0.750000E-01      0.655827E-02
      0.800000E-01      0.590800E-02
      0.850000E-01      0.529175E-02
      0.900000E-01      0.471450E-02
      0.950000E-01      0.417986E-02
      0.100000          0.369014E-02
      0.105000          0.324641E-02
      0.110000          0.284859E-02
      0.115000          0.249565E-02
      0.120000          0.218570E-02
      0.125000          0.191620E-02
      0.130000          0.168411E-02
      0.135000          0.148603E-02
      0.140000          0.131839E-02
      0.145000          0.117758E-02
      0.150000          0.106004E-02
      0.155000          0.962375E-03
      0.160000          0.881426E-03
      0.165000          0.814321E-03
      0.170000          0.758502E-03
      0.175000          0.711744E-03
      0.180000          0.672146E-03
      0.185000          0.638123E-03
      0.190000          0.608372E-03
      0.195000          0.581851E-03
      0.200000          0.557736E-03
      0.205000          0.535394E-03
      0.210000          0.514343E-03
      0.215000          0.494226E-03
      0.220000          0.474781E-03
      0.225000          0.455822E-03
      0.230000          0.437218E-03
      0.235000          0.418881E-03
      0.240000          0.400756E-03
      0.245000          0.382818E-03
      0.250000          0.365061E-03
      0.255000          0.347503E-03
      0.260000          0.330179E-03
      0.265000          0.313141E-03
      0.270000          0.296457E-03
      0.275000          0.280210E-03
      0.280000          0.264489E-03
      0.285000          0.249394E-03
      0.290000          0.235022E-03
      0.295000          0.221470E-03
      0.300000          0.208826E-03
      0.305000          0.197164E-03
      0.310000          0.186541E-03
      0.315000          0.176994E-03
      0.320000          0.168538E-03
      0.325000          0.161161E-03
      0.330000          0.154830E-03
      0.335000          0.149485E-03
      0.340000          0.145050E-03
      0.345000          0.141429E-03
      0.350000          0.138512E-03
      0.355000          0.136183E-03
      0.360000          0.134321E-03
      0.365000          0.132804E-03
      0.370000          0.131519E-03
      0.375000          0.130361E-03
      0.380000          0.129237E-03
      0.385000          0.128071E-03
      0.390000          0.126804E-03
      0.395000          0.125394E-03
      0.400000          0.123817E-03
      0.405000          0.122068E-03
      0.410000          0.120155E-03
      0.415000          0.118100E-03
      0.420000          0.115936E-03
      0.425000          0.113702E-03
      0.430000          0.111443E-03
      0.435000          0.109207E-03
      0.440000          0.107038E-03
      0.445000          0.104978E-03
      0.450000          0.103063E-03
      0.455000          0.101324E-03
      0.460000          0.997806E-04
      0.465000          0.984469E-04
      0.470000          0.973272E-04
      0.475000          0.964177E-04
      0.480000          0.957078E-04
      0.485000          0.951805E-04
      0.490000          0.948144E-04
      0.495000          0.945843E-04
      0.500000          0.944636E-04
