 I_abs(s)[cm^-1]/c[mg/ml]
       0.00000          0.137052E-01
      0.500000E-02      0.136451E-01
      0.100000E-01      0.134668E-01
      0.150000E-01      0.131758E-01
      0.200000E-01      0.127807E-01
      0.250000E-01      0.122932E-01
      0.300000E-01      0.117272E-01
      0.350000E-01      0.110984E-01
      0.400000E-01      0.104232E-01
      0.450000E-01      0.971849E-02
      0.500000E-01      0.900034E-02
      0.550000E-01      0.828388E-02
      0.600000E-01      0.758258E-02
      0.650000E-01      0.690785E-02
      0.700000E-01      0.626885E-02
      0.750000E-01      0.567235E-02
      0.800000E-01      0.512276E-02
      0.850000E-01      0.462227E-02
      0.900000E-01      0.417114E-02
      0.950000E-01      0.376796E-02
      0.100000          0.341000E-02
      0.105000          0.309364E-02
      0.110000          0.281466E-02
      0.115000          0.256860E-02
      0.120000          0.235102E-02
      0.125000          0.215772E-02
      0.130000          0.198489E-02
      0.135000          0.182923E-02
      0.140000          0.168795E-02
      0.145000          0.155881E-02
      0.150000          0.144004E-02
      0.155000          0.133031E-02
      0.160000          0.122862E-02
      0.165000          0.113426E-02
      0.170000          0.104670E-02
      0.175000          0.965529E-03
      0.180000          0.890428E-03
      0.185000          0.821098E-03
      0.190000          0.757252E-03
      0.195000          0.698596E-03
      0.200000          0.644824E-03
      0.205000          0.595622E-03
      0.210000          0.550669E-03
      0.215000          0.509651E-03
      0.220000          0.472261E-03
      0.225000          0.438211E-03
      0.230000          0.407230E-03
      0.235000          0.379072E-03
      0.240000          0.353512E-03
      0.245000          0.330344E-03
      0.250000          0.309382E-03
      0.255000          0.290451E-03
      0.260000          0.273392E-03
      0.265000          0.258050E-03
      0.270000          0.244278E-03
      0.275000          0.231934E-03
      0.280000          0.220879E-03
      0.285000          0.210975E-03
      0.290000          0.202088E-03
      0.295000          0.194089E-03
      0.300000          0.186852E-03
      0.305000          0.180261E-03
      0.310000          0.174206E-03
      0.315000          0.168590E-03
      0.320000          0.163329E-03
      0.325000          0.158352E-03
      0.330000          0.153606E-03
      0.335000          0.149055E-03
      0.340000          0.144679E-03
      0.345000          0.140471E-03
      0.350000          0.136440E-03
      0.355000          0.132602E-03
      0.360000          0.128980E-03
      0.365000          0.125598E-03
      0.370000          0.122479E-03
      0.375000          0.119640E-03
      0.380000          0.117088E-03
      0.385000          0.114820E-03
      0.390000          0.112822E-03
      0.395000          0.111069E-03
      0.400000          0.109527E-03
      0.405000          0.108155E-03
      0.410000          0.106909E-03
      0.415000          0.105745E-03
      0.420000          0.104625E-03
      0.425000          0.103515E-03
      0.430000          0.102394E-03
      0.435000          0.101252E-03
      0.440000          0.100087E-03
      0.445000          0.989111E-04
      0.450000          0.977448E-04
      0.455000          0.966145E-04
      0.460000          0.955501E-04
      0.465000          0.945818E-04
      0.470000          0.937369E-04
      0.475000          0.930367E-04
      0.480000          0.924953E-04
      0.485000          0.921174E-04
      0.490000          0.918987E-04
      0.495000          0.918258E-04
      0.500000          0.918777E-04
