 I_abs(s)[cm^-1]/c[mg/ml]
       0.00000          0.136897E-01
      0.500000E-02      0.136306E-01
      0.100000E-01      0.134551E-01
      0.150000E-01      0.131685E-01
      0.200000E-01      0.127794E-01
      0.250000E-01      0.122991E-01
      0.300000E-01      0.117413E-01
      0.350000E-01      0.111214E-01
      0.400000E-01      0.104555E-01
      0.450000E-01      0.976010E-02
      0.500000E-01      0.905128E-02
      0.550000E-01      0.834399E-02
      0.600000E-01      0.765159E-02
      0.650000E-01      0.698550E-02
      0.700000E-01      0.635488E-02
      0.750000E-01      0.576651E-02
      0.800000E-01      0.522484E-02
      0.850000E-01      0.473207E-02
      0.900000E-01      0.428840E-02
      0.950000E-01      0.389233E-02
      0.100000          0.354102E-02
      0.105000          0.323062E-02
      0.110000          0.295668E-02
      0.115000          0.271448E-02
      0.120000          0.249929E-02
      0.125000          0.230668E-02
      0.130000          0.213261E-02
      0.135000          0.197364E-02
      0.140000          0.182692E-02
      0.145000          0.169023E-02
      0.150000          0.156194E-02
      0.155000          0.144093E-02
      0.160000          0.132652E-02
      0.165000          0.121837E-02
      0.170000          0.111640E-02
      0.175000          0.102065E-02
      0.180000          0.931267E-03
      0.185000          0.848391E-03
      0.190000          0.772126E-03
      0.195000          0.702507E-03
      0.200000          0.639475E-03
      0.205000          0.582875E-03
      0.210000          0.532451E-03
      0.215000          0.487861E-03
      0.220000          0.448686E-03
      0.225000          0.414453E-03
      0.230000          0.384645E-03
      0.235000          0.358726E-03
      0.240000          0.336159E-03
      0.245000          0.316420E-03
      0.250000          0.299013E-03
      0.255000          0.283486E-03
      0.260000          0.269442E-03
      0.265000          0.256542E-03
      0.270000          0.244513E-03
      0.275000          0.233149E-03
      0.280000          0.222305E-03
      0.285000          0.211899E-03
      0.290000          0.201898E-03
      0.295000          0.192308E-03
      0.300000          0.183167E-03
      0.305000          0.174532E-03
      0.310000          0.166463E-03
      0.315000          0.159021E-03
      0.320000          0.152251E-03
      0.325000          0.146182E-03
      0.330000          0.140822E-03
      0.335000          0.136155E-03
      0.340000          0.132145E-03
      0.345000          0.128736E-03
      0.350000          0.125860E-03
      0.355000          0.123440E-03
      0.360000          0.121395E-03
      0.365000          0.119649E-03
      0.370000          0.118129E-03
      0.375000          0.116772E-03
      0.380000          0.115527E-03
      0.385000          0.114354E-03
      0.390000          0.113225E-03
      0.395000          0.112122E-03
      0.400000          0.111035E-03
      0.405000          0.109961E-03
      0.410000          0.108900E-03
      0.415000          0.107857E-03
      0.420000          0.106836E-03
      0.425000          0.105844E-03
      0.430000          0.104886E-03
      0.435000          0.103967E-03
      0.440000          0.103093E-03
      0.445000          0.102268E-03
      0.450000          0.101496E-03
      0.455000          0.100783E-03
      0.460000          0.100132E-03
      0.465000          0.995462E-04
      0.470000          0.990288E-04
      0.475000          0.985802E-04
      0.480000          0.981991E-04
      0.485000          0.978820E-04
      0.490000          0.976228E-04
      0.495000          0.974130E-04
      0.500000          0.972419E-04
