 I_abs(s)[cm^-1]/c[mg/ml]
       0.00000          0.138443E-01
      0.500000E-02      0.137878E-01
      0.100000E-01      0.136199E-01
      0.150000E-01      0.133455E-01
      0.200000E-01      0.129724E-01
      0.250000E-01      0.125108E-01
      0.300000E-01      0.119734E-01
      0.350000E-01      0.113742E-01
      0.400000E-01      0.107281E-01
      0.450000E-01      0.100503E-01
      0.500000E-01      0.935581E-02
      0.550000E-01      0.865859E-02
      0.600000E-01      0.797133E-02
      0.650000E-01      0.730500E-02
      0.700000E-01      0.666858E-02
      0.750000E-01      0.606896E-02
      0.800000E-01      0.551090E-02
      0.850000E-01      0.499718E-02
      0.900000E-01      0.452873E-02
      0.950000E-01      0.410488E-02
      0.100000          0.372373E-02
      0.105000          0.338239E-02
      0.110000          0.307735E-02
      0.115000          0.280477E-02
      0.120000          0.256072E-02
      0.125000          0.234143E-02
      0.130000          0.214342E-02
      0.135000          0.196365E-02
      0.140000          0.179953E-02
      0.145000          0.164895E-02
      0.150000          0.151028E-02
      0.155000          0.138226E-02
      0.160000          0.126399E-02
      0.165000          0.115480E-02
      0.170000          0.105422E-02
      0.175000          0.961874E-03
      0.180000          0.877438E-03
      0.185000          0.800597E-03
      0.190000          0.731014E-03
      0.195000          0.668317E-03
      0.200000          0.612091E-03
      0.205000          0.561890E-03
      0.210000          0.517245E-03
      0.215000          0.477674E-03
      0.220000          0.442701E-03
      0.225000          0.411867E-03
      0.230000          0.384735E-03
      0.235000          0.360901E-03
      0.240000          0.339989E-03
      0.245000          0.321656E-03
      0.250000          0.305588E-03
      0.255000          0.291494E-03
      0.260000          0.279104E-03
      0.265000          0.268164E-03
      0.270000          0.258440E-03
      0.275000          0.249708E-03
      0.280000          0.241766E-03
      0.285000          0.234429E-03
      0.290000          0.227535E-03
      0.295000          0.220947E-03
      0.300000          0.214557E-03
      0.305000          0.208286E-03
      0.310000          0.202088E-03
      0.315000          0.195943E-03
      0.320000          0.189859E-03
      0.325000          0.183866E-03
      0.330000          0.178008E-03
      0.335000          0.172343E-03
      0.340000          0.166931E-03
      0.345000          0.161830E-03
      0.350000          0.157090E-03
      0.355000          0.152751E-03
      0.360000          0.148836E-03
      0.365000          0.145352E-03
      0.370000          0.142290E-03
      0.375000          0.139623E-03
      0.380000          0.137315E-03
      0.385000          0.135315E-03
      0.390000          0.133568E-03
      0.395000          0.132015E-03
      0.400000          0.130599E-03
      0.405000          0.129266E-03
      0.410000          0.127969E-03
      0.415000          0.126668E-03
      0.420000          0.125334E-03
      0.425000          0.123946E-03
      0.430000          0.122494E-03
      0.435000          0.120974E-03
      0.440000          0.119387E-03
      0.445000          0.117743E-03
      0.450000          0.116050E-03
      0.455000          0.114321E-03
      0.460000          0.112568E-03
      0.465000          0.110801E-03
      0.470000          0.109031E-03
      0.475000          0.107267E-03
      0.480000          0.105517E-03
      0.485000          0.103788E-03
      0.490000          0.102087E-03
      0.495000          0.100423E-03
      0.500000          0.988045E-04
