 I_abs(s)[cm^-1]/c[mg/ml]
       0.00000          0.138598E-01
      0.500000E-02      0.137945E-01
      0.100000E-01      0.136007E-01
      0.150000E-01      0.132854E-01
      0.200000E-01      0.128596E-01
      0.250000E-01      0.123379E-01
      0.300000E-01      0.117374E-01
      0.350000E-01      0.110770E-01
      0.400000E-01      0.103762E-01
      0.450000E-01      0.965415E-02
      0.500000E-01      0.892890E-02
      0.550000E-01      0.821637E-02
      0.600000E-01      0.752995E-02
      0.650000E-01      0.688009E-02
      0.700000E-01      0.627416E-02
      0.750000E-01      0.571655E-02
      0.800000E-01      0.520888E-02
      0.850000E-01      0.475041E-02
      0.900000E-01      0.433855E-02
      0.950000E-01      0.396940E-02
      0.100000          0.363825E-02
      0.105000          0.334011E-02
      0.110000          0.307009E-02
      0.115000          0.282375E-02
      0.120000          0.259732E-02
      0.125000          0.238773E-02
      0.130000          0.219272E-02
      0.135000          0.201069E-02
      0.140000          0.184064E-02
      0.145000          0.168196E-02
      0.150000          0.153435E-02
      0.155000          0.139759E-02
      0.160000          0.127152E-02
      0.165000          0.115587E-02
      0.170000          0.105026E-02
      0.175000          0.954199E-03
      0.180000          0.867079E-03
      0.185000          0.788222E-03
      0.190000          0.716929E-03
      0.195000          0.652517E-03
      0.200000          0.594364E-03
      0.205000          0.541930E-03
      0.210000          0.494765E-03
      0.215000          0.452502E-03
      0.220000          0.414841E-03
      0.225000          0.381520E-03
      0.230000          0.352287E-03
      0.235000          0.326874E-03
      0.240000          0.304975E-03
      0.245000          0.286238E-03
      0.250000          0.270261E-03
      0.255000          0.256606E-03
      0.260000          0.244814E-03
      0.265000          0.234432E-03
      0.270000          0.225037E-03
      0.275000          0.216263E-03
      0.280000          0.207818E-03
      0.285000          0.199497E-03
      0.290000          0.191189E-03
      0.295000          0.182870E-03
      0.300000          0.174591E-03
      0.305000          0.166461E-03
      0.310000          0.158622E-03
      0.315000          0.151231E-03
      0.320000          0.144433E-03
      0.325000          0.138345E-03
      0.330000          0.133045E-03
      0.335000          0.128559E-03
      0.340000          0.124868E-03
      0.345000          0.121907E-03
      0.350000          0.119574E-03
      0.355000          0.117748E-03
      0.360000          0.116295E-03
      0.365000          0.115086E-03
      0.370000          0.114006E-03
      0.375000          0.112966E-03
      0.380000          0.111904E-03
      0.385000          0.110789E-03
      0.390000          0.109618E-03
      0.395000          0.108412E-03
      0.400000          0.107210E-03
      0.405000          0.106060E-03
      0.410000          0.105011E-03
      0.415000          0.104105E-03
      0.420000          0.103375E-03
      0.425000          0.102836E-03
      0.430000          0.102488E-03
      0.435000          0.102315E-03
      0.440000          0.102283E-03
      0.445000          0.102353E-03
      0.450000          0.102474E-03
      0.455000          0.102600E-03
      0.460000          0.102684E-03
      0.465000          0.102688E-03
      0.470000          0.102586E-03
      0.475000          0.102361E-03
      0.480000          0.102011E-03
      0.485000          0.101542E-03
      0.490000          0.100972E-03
      0.495000          0.100325E-03
      0.500000          0.996259E-04
