 I_abs(s)[cm^-1]/c[mg/ml]
       0.00000          0.137515E-01
      0.500000E-02      0.136812E-01
      0.100000E-01      0.134733E-01
      0.150000E-01      0.131360E-01
      0.200000E-01      0.126824E-01
      0.250000E-01      0.121295E-01
      0.300000E-01      0.114971E-01
      0.350000E-01      0.108069E-01
      0.400000E-01      0.100804E-01
      0.450000E-01      0.933845E-02
      0.500000E-01      0.859987E-02
      0.550000E-01      0.788065E-02
      0.600000E-01      0.719357E-02
      0.650000E-01      0.654789E-02
      0.700000E-01      0.594949E-02
      0.750000E-01      0.540115E-02
      0.800000E-01      0.490305E-02
      0.850000E-01      0.445338E-02
      0.900000E-01      0.404891E-02
      0.950000E-01      0.368567E-02
      0.100000          0.335936E-02
      0.105000          0.306582E-02
      0.110000          0.280127E-02
      0.115000          0.256241E-02
      0.120000          0.234652E-02
      0.125000          0.215132E-02
      0.130000          0.197494E-02
      0.135000          0.181573E-02
      0.140000          0.167219E-02
      0.145000          0.154283E-02
      0.150000          0.142619E-02
      0.155000          0.132076E-02
      0.160000          0.122504E-02
      0.165000          0.113758E-02
      0.170000          0.105704E-02
      0.175000          0.982275E-03
      0.180000          0.912321E-03
      0.185000          0.846471E-03
      0.190000          0.784249E-03
      0.195000          0.725396E-03
      0.200000          0.669825E-03
      0.205000          0.617567E-03
      0.210000          0.568720E-03
      0.215000          0.523392E-03
      0.220000          0.481662E-03
      0.225000          0.443551E-03
      0.230000          0.409005E-03
      0.235000          0.377895E-03
      0.240000          0.350028E-03
      0.245000          0.325161E-03
      0.250000          0.303022E-03
      0.255000          0.283326E-03
      0.260000          0.265797E-03
      0.265000          0.250174E-03
      0.270000          0.236219E-03
      0.275000          0.223721E-03
      0.280000          0.212492E-03
      0.285000          0.202367E-03
      0.290000          0.193200E-03
      0.295000          0.184862E-03
      0.300000          0.177236E-03
      0.305000          0.170223E-03
      0.310000          0.163738E-03
      0.315000          0.157713E-03
      0.320000          0.152099E-03
      0.325000          0.146863E-03
      0.330000          0.141988E-03
      0.335000          0.137472E-03
      0.340000          0.133320E-03
      0.345000          0.129543E-03
      0.350000          0.126152E-03
      0.355000          0.123153E-03
      0.360000          0.120546E-03
      0.365000          0.118320E-03
      0.370000          0.116453E-03
      0.375000          0.114917E-03
      0.380000          0.113673E-03
      0.385000          0.112679E-03
      0.390000          0.111890E-03
      0.395000          0.111263E-03
      0.400000          0.110757E-03
      0.405000          0.110334E-03
      0.410000          0.109964E-03
      0.415000          0.109620E-03
      0.420000          0.109282E-03
      0.425000          0.108936E-03
      0.430000          0.108570E-03
      0.435000          0.108179E-03
      0.440000          0.107758E-03
      0.445000          0.107309E-03
      0.450000          0.106833E-03
      0.455000          0.106338E-03
      0.460000          0.105830E-03
      0.465000          0.105318E-03
      0.470000          0.104812E-03
      0.475000          0.104322E-03
      0.480000          0.103858E-03
      0.485000          0.103425E-03
      0.490000          0.103029E-03
      0.495000          0.102670E-03
      0.500000          0.102347E-03
