 I_abs(s)[cm^-1]/c[mg/ml]
       0.00000          0.135514E-01
      0.500000E-02      0.134795E-01
      0.100000E-01      0.132667E-01
      0.150000E-01      0.129210E-01
      0.200000E-01      0.124550E-01
      0.250000E-01      0.118855E-01
      0.300000E-01      0.112322E-01
      0.350000E-01      0.105166E-01
      0.400000E-01      0.976089E-02
      0.450000E-01      0.898667E-02
      0.500000E-01      0.821399E-02
      0.550000E-01      0.746053E-02
      0.600000E-01      0.674089E-02
      0.650000E-01      0.606633E-02
      0.700000E-01      0.544459E-02
      0.750000E-01      0.488009E-02
      0.800000E-01      0.437425E-02
      0.850000E-01      0.392593E-02
      0.900000E-01      0.353205E-02
      0.950000E-01      0.318813E-02
      0.100000          0.288890E-02
      0.105000          0.262874E-02
      0.110000          0.240214E-02
      0.115000          0.220399E-02
      0.120000          0.202972E-02
      0.125000          0.187542E-02
      0.130000          0.173782E-02
      0.135000          0.161424E-02
      0.140000          0.150251E-02
      0.145000          0.140084E-02
      0.150000          0.130775E-02
      0.155000          0.122197E-02
      0.160000          0.114242E-02
      0.165000          0.106814E-02
      0.170000          0.998344E-03
      0.175000          0.932379E-03
      0.180000          0.869765E-03
      0.185000          0.810199E-03
      0.190000          0.753555E-03
      0.195000          0.699863E-03
      0.200000          0.649284E-03
      0.205000          0.602065E-03
      0.210000          0.558483E-03
      0.215000          0.518792E-03
      0.220000          0.483175E-03
      0.225000          0.451702E-03
      0.230000          0.424302E-03
      0.235000          0.400759E-03
      0.240000          0.380718E-03
      0.245000          0.363706E-03
      0.250000          0.349172E-03
      0.255000          0.336527E-03
      0.260000          0.325186E-03
      0.265000          0.314614E-03
      0.270000          0.304355E-03
      0.275000          0.294060E-03
      0.280000          0.283498E-03
      0.285000          0.272557E-03
      0.290000          0.261235E-03
      0.295000          0.249621E-03
      0.300000          0.237874E-03
      0.305000          0.226198E-03
      0.310000          0.214809E-03
      0.315000          0.203922E-03
      0.320000          0.193723E-03
      0.325000          0.184359E-03
      0.330000          0.175930E-03
      0.335000          0.168484E-03
      0.340000          0.162018E-03
      0.345000          0.156486E-03
      0.350000          0.151806E-03
      0.355000          0.147868E-03
      0.360000          0.144544E-03
      0.365000          0.141701E-03
      0.370000          0.139202E-03
      0.375000          0.136924E-03
      0.380000          0.134754E-03
      0.385000          0.132599E-03
      0.390000          0.130386E-03
      0.395000          0.128065E-03
      0.400000          0.125610E-03
      0.405000          0.123013E-03
      0.410000          0.120289E-03
      0.415000          0.117468E-03
      0.420000          0.114592E-03
      0.425000          0.111716E-03
      0.430000          0.108898E-03
      0.435000          0.106199E-03
      0.440000          0.103678E-03
      0.445000          0.101389E-03
      0.450000          0.993754E-04
      0.455000          0.976725E-04
      0.460000          0.963023E-04
      0.465000          0.952737E-04
      0.470000          0.945825E-04
      0.475000          0.942119E-04
      0.480000          0.941337E-04
      0.485000          0.943097E-04
      0.490000          0.946941E-04
      0.495000          0.952358E-04
      0.500000          0.958804E-04
