 I_abs(s)[cm^-1]/c[mg/ml]
       0.00000          0.137437E-01
      0.500000E-02      0.136860E-01
      0.100000E-01      0.135146E-01
      0.150000E-01      0.132344E-01
      0.200000E-01      0.128533E-01
      0.250000E-01      0.123819E-01
      0.300000E-01      0.118330E-01
      0.350000E-01      0.112210E-01
      0.400000E-01      0.105613E-01
      0.450000E-01      0.986953E-02
      0.500000E-01      0.916107E-02
      0.550000E-01      0.845046E-02
      0.600000E-01      0.775087E-02
      0.650000E-01      0.707370E-02
      0.700000E-01      0.642833E-02
      0.750000E-01      0.582192E-02
      0.800000E-01      0.525943E-02
      0.850000E-01      0.474368E-02
      0.900000E-01      0.427553E-02
      0.950000E-01      0.385416E-02
      0.100000          0.347734E-02
      0.105000          0.314185E-02
      0.110000          0.284375E-02
      0.115000          0.257879E-02
      0.120000          0.234264E-02
      0.125000          0.213122E-02
      0.130000          0.194081E-02
      0.135000          0.176820E-02
      0.140000          0.161081E-02
      0.145000          0.146659E-02
      0.150000          0.133408E-02
      0.155000          0.121228E-02
      0.160000          0.110053E-02
      0.165000          0.998450E-03
      0.170000          0.905794E-03
      0.175000          0.822354E-03
      0.180000          0.747880E-03
      0.185000          0.682023E-03
      0.190000          0.624304E-03
      0.195000          0.574101E-03
      0.200000          0.530670E-03
      0.205000          0.493170E-03
      0.210000          0.460711E-03
      0.215000          0.432400E-03
      0.220000          0.407392E-03
      0.225000          0.384928E-03
      0.230000          0.364371E-03
      0.235000          0.345225E-03
      0.240000          0.327145E-03
      0.245000          0.309928E-03
      0.250000          0.293498E-03
      0.255000          0.277883E-03
      0.260000          0.263179E-03
      0.265000          0.249521E-03
      0.270000          0.237053E-03
      0.275000          0.225897E-03
      0.280000          0.216130E-03
      0.285000          0.207777E-03
      0.290000          0.200798E-03
      0.295000          0.195093E-03
      0.300000          0.190510E-03
      0.305000          0.186857E-03
      0.310000          0.183918E-03
      0.315000          0.181473E-03
      0.320000          0.179312E-03
      0.325000          0.177250E-03
      0.330000          0.175141E-03
      0.335000          0.172877E-03
      0.340000          0.170398E-03
      0.345000          0.167688E-03
      0.350000          0.164764E-03
      0.355000          0.161677E-03
      0.360000          0.158491E-03
      0.365000          0.155281E-03
      0.370000          0.152122E-03
      0.375000          0.149074E-03
      0.380000          0.146183E-03
      0.385000          0.143477E-03
      0.390000          0.140958E-03
      0.395000          0.138611E-03
      0.400000          0.136403E-03
      0.405000          0.134290E-03
      0.410000          0.132223E-03
      0.415000          0.130149E-03
      0.420000          0.128026E-03
      0.425000          0.125819E-03
      0.430000          0.123506E-03
      0.435000          0.121083E-03
      0.440000          0.118560E-03
      0.445000          0.115963E-03
      0.450000          0.113327E-03
      0.455000          0.110699E-03
      0.460000          0.108128E-03
      0.465000          0.105666E-03
      0.470000          0.103360E-03
      0.475000          0.101251E-03
      0.480000          0.993681E-04
      0.485000          0.977326E-04
      0.490000          0.963517E-04
      0.495000          0.952214E-04
      0.500000          0.943264E-04
