 I_abs(s)[cm^-1]/c[mg/ml]
       0.00000          0.138521E-01
      0.500000E-02      0.137961E-01
      0.100000E-01      0.136298E-01
      0.150000E-01      0.133577E-01
      0.200000E-01      0.129872E-01
      0.250000E-01      0.125281E-01
      0.300000E-01      0.119925E-01
      0.350000E-01      0.113937E-01
      0.400000E-01      0.107464E-01
      0.450000E-01      0.100653E-01
      0.500000E-01      0.936517E-02
      0.550000E-01      0.866006E-02
      0.600000E-01      0.796282E-02
      0.650000E-01      0.728477E-02
      0.700000E-01      0.663541E-02
      0.750000E-01      0.602226E-02
      0.800000E-01      0.545079E-02
      0.850000E-01      0.492443E-02
      0.900000E-01      0.444475E-02
      0.950000E-01      0.401164E-02
      0.100000          0.362355E-02
      0.105000          0.327784E-02
      0.110000          0.297104E-02
      0.115000          0.269916E-02
      0.120000          0.245802E-02
      0.125000          0.224345E-02
      0.130000          0.205151E-02
      0.135000          0.187863E-02
      0.140000          0.172174E-02
      0.145000          0.157828E-02
      0.150000          0.144625E-02
      0.155000          0.132411E-02
      0.160000          0.121081E-02
      0.165000          0.110562E-02
      0.170000          0.100811E-02
      0.175000          0.918028E-03
      0.180000          0.835225E-03
      0.185000          0.759590E-03
      0.190000          0.690989E-03
      0.195000          0.629234E-03
      0.200000          0.574056E-03
      0.205000          0.525100E-03
      0.210000          0.481934E-03
      0.215000          0.444061E-03
      0.220000          0.410943E-03
      0.225000          0.382024E-03
      0.230000          0.356750E-03
      0.235000          0.334596E-03
      0.240000          0.315078E-03
      0.245000          0.297766E-03
      0.250000          0.282288E-03
      0.255000          0.268335E-03
      0.260000          0.255657E-03
      0.265000          0.244052E-03
      0.270000          0.233368E-03
      0.275000          0.223485E-03
      0.280000          0.214312E-03
      0.285000          0.205778E-03
      0.290000          0.197824E-03
      0.295000          0.190402E-03
      0.300000          0.183470E-03
      0.305000          0.176987E-03
      0.310000          0.170919E-03
      0.315000          0.165231E-03
      0.320000          0.159892E-03
      0.325000          0.154875E-03
      0.330000          0.150152E-03
      0.335000          0.145701E-03
      0.340000          0.141498E-03
      0.345000          0.137521E-03
      0.350000          0.133747E-03
      0.355000          0.130154E-03
      0.360000          0.126716E-03
      0.365000          0.123407E-03
      0.370000          0.120201E-03
      0.375000          0.117073E-03
      0.380000          0.114000E-03
      0.385000          0.110963E-03
      0.390000          0.107948E-03
      0.395000          0.104949E-03
      0.400000          0.101969E-03
      0.405000          0.990179E-04
      0.410000          0.961165E-04
      0.415000          0.932921E-04
      0.420000          0.905786E-04
      0.425000          0.880138E-04
      0.430000          0.856371E-04
      0.435000          0.834862E-04
      0.440000          0.815951E-04
      0.445000          0.799910E-04
      0.450000          0.786926E-04
      0.455000          0.777088E-04
      0.460000          0.770380E-04
      0.465000          0.766687E-04
      0.470000          0.765801E-04
      0.475000          0.767441E-04
      0.480000          0.771271E-04
      0.485000          0.776926E-04
      0.490000          0.784033E-04
      0.495000          0.792236E-04
      0.500000          0.801216E-04
