 I_abs(s)[cm^-1]/c[mg/ml]
       0.00000          0.140154E-01
      0.500000E-02      0.139664E-01
      0.100000E-01      0.138204E-01
      0.150000E-01      0.135807E-01
      0.200000E-01      0.132525E-01
      0.250000E-01      0.128426E-01
      0.300000E-01      0.123597E-01
      0.350000E-01      0.118136E-01
      0.400000E-01      0.112153E-01
      0.450000E-01      0.105760E-01
      0.500000E-01      0.990763E-02
      0.550000E-01      0.922177E-02
      0.600000E-01      0.852967E-02
      0.650000E-01      0.784188E-02
      0.700000E-01      0.716800E-02
      0.750000E-01      0.651645E-02
      0.800000E-01      0.589436E-02
      0.850000E-01      0.530748E-02
      0.900000E-01      0.476009E-02
      0.950000E-01      0.425510E-02
      0.100000          0.379406E-02
      0.105000          0.337729E-02
      0.110000          0.300402E-02
      0.115000          0.267259E-02
      0.120000          0.238056E-02
      0.125000          0.212496E-02
      0.130000          0.190244E-02
      0.135000          0.170946E-02
      0.140000          0.154244E-02
      0.145000          0.139785E-02
      0.150000          0.127239E-02
      0.155000          0.116301E-02
      0.160000          0.106700E-02
      0.165000          0.982012E-03
      0.170000          0.906046E-03
      0.175000          0.837474E-03
      0.180000          0.775000E-03
      0.185000          0.717623E-03
      0.190000          0.664597E-03
      0.195000          0.615389E-03
      0.200000          0.569630E-03
      0.205000          0.527072E-03
      0.210000          0.487555E-03
      0.215000          0.450969E-03
      0.220000          0.417230E-03
      0.225000          0.386262E-03
      0.230000          0.357984E-03
      0.235000          0.332300E-03
      0.240000          0.309100E-03
      0.245000          0.288254E-03
      0.250000          0.269623E-03
      0.255000          0.253055E-03
      0.260000          0.238396E-03
      0.265000          0.225488E-03
      0.270000          0.214180E-03
      0.275000          0.204323E-03
      0.280000          0.195778E-03
      0.285000          0.188413E-03
      0.290000          0.182103E-03
      0.295000          0.176731E-03
      0.300000          0.172185E-03
      0.305000          0.168359E-03
      0.310000          0.165148E-03
      0.315000          0.162452E-03
      0.320000          0.160174E-03
      0.325000          0.158220E-03
      0.330000          0.156500E-03
      0.335000          0.154930E-03
      0.340000          0.153433E-03
      0.345000          0.151938E-03
      0.350000          0.150387E-03
      0.355000          0.148732E-03
      0.360000          0.146935E-03
      0.365000          0.144974E-03
      0.370000          0.142835E-03
      0.375000          0.140519E-03
      0.380000          0.138035E-03
      0.385000          0.135403E-03
      0.390000          0.132650E-03
      0.395000          0.129806E-03
      0.400000          0.126907E-03
      0.405000          0.123990E-03
      0.410000          0.121090E-03
      0.415000          0.118240E-03
      0.420000          0.115470E-03
      0.425000          0.112806E-03
      0.430000          0.110269E-03
      0.435000          0.107873E-03
      0.440000          0.105629E-03
      0.445000          0.103542E-03
      0.450000          0.101613E-03
      0.455000          0.998402E-04
      0.460000          0.982191E-04
      0.465000          0.967434E-04
      0.470000          0.954063E-04
      0.475000          0.942006E-04
      0.480000          0.931199E-04
      0.485000          0.921587E-04
      0.490000          0.913125E-04
      0.495000          0.905782E-04
      0.500000          0.899537E-04
