 I_abs(s)[cm^-1]/c[mg/ml]
       0.00000          0.138288E-01
      0.500000E-02      0.137715E-01
      0.100000E-01      0.136010E-01
      0.150000E-01      0.133223E-01
      0.200000E-01      0.129433E-01
      0.250000E-01      0.124744E-01
      0.300000E-01      0.119281E-01
      0.350000E-01      0.113189E-01
      0.400000E-01      0.106618E-01
      0.450000E-01      0.997255E-02
      0.500000E-01      0.926633E-02
      0.550000E-01      0.855764E-02
      0.600000E-01      0.785967E-02
      0.650000E-01      0.718382E-02
      0.700000E-01      0.653955E-02
      0.750000E-01      0.593411E-02
      0.800000E-01      0.537258E-02
      0.850000E-01      0.485787E-02
      0.900000E-01      0.439094E-02
      0.950000E-01      0.397105E-02
      0.100000          0.359601E-02
      0.105000          0.326259E-02
      0.110000          0.296680E-02
      0.115000          0.270428E-02
      0.120000          0.247059E-02
      0.125000          0.226143E-02
      0.130000          0.207288E-02
      0.135000          0.190155E-02
      0.140000          0.174463E-02
      0.145000          0.159990E-02
      0.150000          0.146574E-02
      0.155000          0.134107E-02
      0.160000          0.122519E-02
      0.165000          0.111775E-02
      0.170000          0.101859E-02
      0.175000          0.927655E-03
      0.180000          0.844882E-03
      0.185000          0.770158E-03
      0.190000          0.703252E-03
      0.195000          0.643797E-03
      0.200000          0.591287E-03
      0.205000          0.545097E-03
      0.210000          0.504508E-03
      0.215000          0.468753E-03
      0.220000          0.437056E-03
      0.225000          0.408677E-03
      0.230000          0.382947E-03
      0.235000          0.359297E-03
      0.240000          0.337276E-03
      0.245000          0.316556E-03
      0.250000          0.296931E-03
      0.255000          0.278302E-03
      0.260000          0.260656E-03
      0.265000          0.244046E-03
      0.270000          0.228561E-03
      0.275000          0.214302E-03
      0.280000          0.201362E-03
      0.285000          0.189804E-03
      0.290000          0.179653E-03
      0.295000          0.170887E-03
      0.300000          0.163438E-03
      0.305000          0.157196E-03
      0.310000          0.152018E-03
      0.315000          0.147737E-03
      0.320000          0.144178E-03
      0.325000          0.141167E-03
      0.330000          0.138543E-03
      0.335000          0.136167E-03
      0.340000          0.133929E-03
      0.345000          0.131747E-03
      0.350000          0.129574E-03
      0.355000          0.127386E-03
      0.360000          0.125187E-03
      0.365000          0.122997E-03
      0.370000          0.120845E-03
      0.375000          0.118769E-03
      0.380000          0.116801E-03
      0.385000          0.114970E-03
      0.390000          0.113294E-03
      0.395000          0.111782E-03
      0.400000          0.110428E-03
      0.405000          0.109221E-03
      0.410000          0.108140E-03
      0.415000          0.107157E-03
      0.420000          0.106247E-03
      0.425000          0.105383E-03
      0.430000          0.104544E-03
      0.435000          0.103714E-03
      0.440000          0.102885E-03
      0.445000          0.102054E-03
      0.450000          0.101229E-03
      0.455000          0.100420E-03
      0.460000          0.996399E-04
      0.465000          0.989060E-04
      0.470000          0.982329E-04
      0.475000          0.976333E-04
      0.480000          0.971156E-04
      0.485000          0.966832E-04
      0.490000          0.963343E-04
      0.495000          0.960614E-04
      0.500000          0.958527E-04
