 I_abs(s)[cm^-1]/c[mg/ml]
       0.00000          0.138831E-01
      0.500000E-02      0.138222E-01
      0.100000E-01      0.136412E-01
      0.150000E-01      0.133456E-01
      0.200000E-01      0.129439E-01
      0.250000E-01      0.124476E-01
      0.300000E-01      0.118706E-01
      0.350000E-01      0.112286E-01
      0.400000E-01      0.105381E-01
      0.450000E-01      0.981615E-02
      0.500000E-01      0.907949E-02
      0.550000E-01      0.834381E-02
      0.600000E-01      0.762332E-02
      0.650000E-01      0.693029E-02
      0.700000E-01      0.627473E-02
      0.750000E-01      0.566421E-02
      0.800000E-01      0.510385E-02
      0.850000E-01      0.459638E-02
      0.900000E-01      0.414230E-02
      0.950000E-01      0.374025E-02
      0.100000          0.338726E-02
      0.105000          0.307921E-02
      0.110000          0.281116E-02
      0.115000          0.257780E-02
      0.120000          0.237374E-02
      0.125000          0.219381E-02
      0.130000          0.203331E-02
      0.135000          0.188816E-02
      0.140000          0.175501E-02
      0.145000          0.163124E-02
      0.150000          0.151494E-02
      0.155000          0.140486E-02
      0.160000          0.130028E-02
      0.165000          0.120092E-02
      0.170000          0.110677E-02
      0.175000          0.101801E-02
      0.180000          0.934855E-03
      0.185000          0.857530E-03
      0.190000          0.786157E-03
      0.195000          0.720738E-03
      0.200000          0.661139E-03
      0.205000          0.607094E-03
      0.210000          0.558228E-03
      0.215000          0.514089E-03
      0.220000          0.474183E-03
      0.225000          0.438013E-03
      0.230000          0.405112E-03
      0.235000          0.375062E-03
      0.240000          0.347521E-03
      0.245000          0.322220E-03
      0.250000          0.298967E-03
      0.255000          0.277637E-03
      0.260000          0.258155E-03
      0.265000          0.240483E-03
      0.270000          0.224597E-03
      0.275000          0.210470E-03
      0.280000          0.198061E-03
      0.285000          0.187305E-03
      0.290000          0.178104E-03
      0.295000          0.170331E-03
      0.300000          0.163830E-03
      0.305000          0.158426E-03
      0.310000          0.153932E-03
      0.315000          0.150160E-03
      0.320000          0.146933E-03
      0.325000          0.144089E-03
      0.330000          0.141491E-03
      0.335000          0.139030E-03
      0.340000          0.136628E-03
      0.345000          0.134235E-03
      0.350000          0.131827E-03
      0.355000          0.129402E-03
      0.360000          0.126973E-03
      0.365000          0.124562E-03
      0.370000          0.122197E-03
      0.375000          0.119903E-03
      0.380000          0.117701E-03
      0.385000          0.115606E-03
      0.390000          0.113623E-03
      0.395000          0.111748E-03
      0.400000          0.109973E-03
      0.405000          0.108282E-03
      0.410000          0.106657E-03
      0.415000          0.105081E-03
      0.420000          0.103538E-03
      0.425000          0.102017E-03
      0.430000          0.100511E-03
      0.435000          0.990213E-04
      0.440000          0.975546E-04
      0.445000          0.961234E-04
      0.450000          0.947445E-04
      0.455000          0.934374E-04
      0.460000          0.922228E-04
      0.465000          0.911198E-04
      0.470000          0.901448E-04
      0.475000          0.893092E-04
      0.480000          0.886187E-04
      0.485000          0.880720E-04
      0.490000          0.876608E-04
      0.495000          0.873701E-04
      0.500000          0.871787E-04
