 I_abs(s)[cm^-1]/c[mg/ml]
       0.00000          0.141248E-01
      0.500000E-02      0.140805E-01
      0.100000E-01      0.139487E-01
      0.150000E-01      0.137318E-01
      0.200000E-01      0.134337E-01
      0.250000E-01      0.130601E-01
      0.300000E-01      0.126176E-01
      0.350000E-01      0.121141E-01
      0.400000E-01      0.115585E-01
      0.450000E-01      0.109599E-01
      0.500000E-01      0.103281E-01
      0.550000E-01      0.967307E-02
      0.600000E-01      0.900439E-02
      0.650000E-01      0.833145E-02
      0.700000E-01      0.766304E-02
      0.750000E-01      0.700720E-02
      0.800000E-01      0.637111E-02
      0.850000E-01      0.576095E-02
      0.900000E-01      0.518182E-02
      0.950000E-01      0.463775E-02
      0.100000          0.413169E-02
      0.105000          0.366554E-02
      0.110000          0.324019E-02
      0.115000          0.285567E-02
      0.120000          0.251119E-02
      0.125000          0.220532E-02
      0.130000          0.193605E-02
      0.135000          0.170097E-02
      0.140000          0.149739E-02
      0.145000          0.132240E-02
      0.150000          0.117304E-02
      0.155000          0.104634E-02
      0.160000          0.939453E-03
      0.165000          0.849647E-03
      0.170000          0.774399E-03
      0.175000          0.711408E-03
      0.180000          0.658613E-03
      0.185000          0.614201E-03
      0.190000          0.576599E-03
      0.195000          0.544467E-03
      0.200000          0.516676E-03
      0.205000          0.492291E-03
      0.210000          0.470549E-03
      0.215000          0.450832E-03
      0.220000          0.432649E-03
      0.225000          0.415617E-03
      0.230000          0.399436E-03
      0.235000          0.383883E-03
      0.240000          0.368790E-03
      0.245000          0.354042E-03
      0.250000          0.339558E-03
      0.255000          0.325294E-03
      0.260000          0.311231E-03
      0.265000          0.297372E-03
      0.270000          0.283738E-03
      0.275000          0.270365E-03
      0.280000          0.257297E-03
      0.285000          0.244588E-03
      0.290000          0.232291E-03
      0.295000          0.220463E-03
      0.300000          0.209155E-03
      0.305000          0.198412E-03
      0.310000          0.188272E-03
      0.315000          0.178761E-03
      0.320000          0.169892E-03
      0.325000          0.161668E-03
      0.330000          0.154077E-03
      0.335000          0.147098E-03
      0.340000          0.140698E-03
      0.345000          0.134836E-03
      0.350000          0.129466E-03
      0.355000          0.124536E-03
      0.360000          0.119995E-03
      0.365000          0.115792E-03
      0.370000          0.111880E-03
      0.375000          0.108217E-03
      0.380000          0.104769E-03
      0.385000          0.101506E-03
      0.390000          0.984116E-04
      0.395000          0.954724E-04
      0.400000          0.926853E-04
      0.405000          0.900533E-04
      0.410000          0.875848E-04
      0.415000          0.852928E-04
      0.420000          0.831926E-04
      0.425000          0.813010E-04
      0.430000          0.796344E-04
      0.435000          0.782074E-04
      0.440000          0.770322E-04
      0.445000          0.761168E-04
      0.450000          0.754652E-04
      0.455000          0.750764E-04
      0.460000          0.749446E-04
      0.465000          0.750589E-04
      0.470000          0.754040E-04
      0.475000          0.759608E-04
      0.480000          0.767064E-04
      0.485000          0.776154E-04
      0.490000          0.786603E-04
      0.495000          0.798126E-04
      0.500000          0.810433E-04
