 I_abs(s)[cm^-1]/c[mg/ml]
       0.00000          0.137747E-01
      0.500000E-02      0.137263E-01
      0.100000E-01      0.135824E-01
      0.150000E-01      0.133459E-01
      0.200000E-01      0.130217E-01
      0.250000E-01      0.126166E-01
      0.300000E-01      0.121387E-01
      0.350000E-01      0.115976E-01
      0.400000E-01      0.110038E-01
      0.450000E-01      0.103684E-01
      0.500000E-01      0.970294E-02
      0.550000E-01      0.901891E-02
      0.600000E-01      0.832754E-02
      0.650000E-01      0.763948E-02
      0.700000E-01      0.696453E-02
      0.750000E-01      0.631144E-02
      0.800000E-01      0.568775E-02
      0.850000E-01      0.509968E-02
      0.900000E-01      0.455203E-02
      0.950000E-01      0.404824E-02
      0.100000          0.359037E-02
      0.105000          0.317918E-02
      0.110000          0.281428E-02
      0.115000          0.249423E-02
      0.120000          0.221673E-02
      0.125000          0.197878E-02
      0.130000          0.177686E-02
      0.135000          0.160713E-02
      0.140000          0.146556E-02
      0.145000          0.134810E-02
      0.150000          0.125079E-02
      0.155000          0.116992E-02
      0.160000          0.110205E-02
      0.165000          0.104414E-02
      0.170000          0.993517E-03
      0.175000          0.947961E-03
      0.180000          0.905656E-03
      0.185000          0.865194E-03
      0.190000          0.825542E-03
      0.195000          0.786000E-03
      0.200000          0.746159E-03
      0.205000          0.705851E-03
      0.210000          0.665101E-03
      0.215000          0.624081E-03
      0.220000          0.583065E-03
      0.225000          0.542391E-03
      0.230000          0.502429E-03
      0.235000          0.463552E-03
      0.240000          0.426113E-03
      0.245000          0.390433E-03
      0.250000          0.356786E-03
      0.255000          0.325392E-03
      0.260000          0.296417E-03
      0.265000          0.269967E-03
      0.270000          0.246097E-03
      0.275000          0.224806E-03
      0.280000          0.206047E-03
      0.285000          0.189733E-03
      0.290000          0.175738E-03
      0.295000          0.163908E-03
      0.300000          0.154065E-03
      0.305000          0.146011E-03
      0.310000          0.139538E-03
      0.315000          0.134432E-03
      0.320000          0.130476E-03
      0.325000          0.127460E-03
      0.330000          0.125182E-03
      0.335000          0.123453E-03
      0.340000          0.122100E-03
      0.345000          0.120971E-03
      0.350000          0.119935E-03
      0.355000          0.118884E-03
      0.360000          0.117734E-03
      0.365000          0.116424E-03
      0.370000          0.114914E-03
      0.375000          0.113185E-03
      0.380000          0.111237E-03
      0.385000          0.109084E-03
      0.390000          0.106752E-03
      0.395000          0.104278E-03
      0.400000          0.101704E-03
      0.405000          0.990765E-04
      0.410000          0.964409E-04
      0.415000          0.938431E-04
      0.420000          0.913254E-04
      0.425000          0.889257E-04
      0.430000          0.866770E-04
      0.435000          0.846066E-04
      0.440000          0.827364E-04
      0.445000          0.810830E-04
      0.450000          0.796581E-04
      0.455000          0.784691E-04
      0.460000          0.775200E-04
      0.465000          0.768114E-04
      0.470000          0.763415E-04
      0.475000          0.761059E-04
      0.480000          0.760986E-04
      0.485000          0.763113E-04
      0.490000          0.767337E-04
      0.495000          0.773534E-04
      0.500000          0.781558E-04
