 I_abs(s)[cm^-1]/c[mg/ml]
       0.00000          0.139530E-01
      0.500000E-02      0.138974E-01
      0.100000E-01      0.137320E-01
      0.150000E-01      0.134613E-01
      0.200000E-01      0.130930E-01
      0.250000E-01      0.126368E-01
      0.300000E-01      0.121047E-01
      0.350000E-01      0.115103E-01
      0.400000E-01      0.108681E-01
      0.450000E-01      0.101929E-01
      0.500000E-01      0.949947E-02
      0.550000E-01      0.880171E-02
      0.600000E-01      0.811238E-02
      0.650000E-01      0.744266E-02
      0.700000E-01      0.680183E-02
      0.750000E-01      0.619716E-02
      0.800000E-01      0.563381E-02
      0.850000E-01      0.511491E-02
      0.900000E-01      0.464168E-02
      0.950000E-01      0.421367E-02
      0.100000          0.382903E-02
      0.105000          0.348482E-02
      0.110000          0.317736E-02
      0.115000          0.290254E-02
      0.120000          0.265612E-02
      0.125000          0.243397E-02
      0.130000          0.223233E-02
      0.135000          0.204788E-02
      0.140000          0.187789E-02
      0.145000          0.172024E-02
      0.150000          0.157339E-02
      0.155000          0.143631E-02
      0.160000          0.130844E-02
      0.165000          0.118952E-02
      0.170000          0.107952E-02
      0.175000          0.978515E-03
      0.180000          0.886580E-03
      0.185000          0.803712E-03
      0.190000          0.729773E-03
      0.195000          0.664456E-03
      0.200000          0.607277E-03
      0.205000          0.557586E-03
      0.210000          0.514597E-03
      0.215000          0.477431E-03
      0.220000          0.445165E-03
      0.225000          0.416884E-03
      0.230000          0.391725E-03
      0.235000          0.368922E-03
      0.240000          0.347832E-03
      0.245000          0.327956E-03
      0.250000          0.308940E-03
      0.255000          0.290576E-03
      0.260000          0.272779E-03
      0.265000          0.255572E-03
      0.270000          0.239050E-03
      0.275000          0.223358E-03
      0.280000          0.208657E-03
      0.285000          0.195100E-03
      0.290000          0.182812E-03
      0.295000          0.171873E-03
      0.300000          0.162313E-03
      0.305000          0.154105E-03
      0.310000          0.147173E-03
      0.315000          0.141396E-03
      0.320000          0.136623E-03
      0.325000          0.132683E-03
      0.330000          0.129398E-03
      0.335000          0.126599E-03
      0.340000          0.124131E-03
      0.345000          0.121865E-03
      0.350000          0.119701E-03
      0.355000          0.117570E-03
      0.360000          0.115434E-03
      0.365000          0.113280E-03
      0.370000          0.111117E-03
      0.375000          0.108972E-03
      0.380000          0.106878E-03
      0.385000          0.104873E-03
      0.390000          0.102993E-03
      0.395000          0.101268E-03
      0.400000          0.997182E-04
      0.405000          0.983554E-04
      0.410000          0.971810E-04
      0.415000          0.961881E-04
      0.420000          0.953630E-04
      0.425000          0.946882E-04
      0.430000          0.941443E-04
      0.435000          0.937128E-04
      0.440000          0.933777E-04
      0.445000          0.931266E-04
      0.450000          0.929516E-04
      0.455000          0.928486E-04
      0.460000          0.928169E-04
      0.465000          0.928576E-04
      0.470000          0.929726E-04
      0.475000          0.931624E-04
      0.480000          0.934247E-04
      0.485000          0.937539E-04
      0.490000          0.941396E-04
      0.495000          0.945666E-04
      0.500000          0.950157E-04
