 I_abs(s)[cm^-1]/c[mg/ml]
       0.00000          0.140622E-01
      0.500000E-02      0.140144E-01
      0.100000E-01      0.138719E-01
      0.150000E-01      0.136378E-01
      0.200000E-01      0.133169E-01
      0.250000E-01      0.129159E-01
      0.300000E-01      0.124427E-01
      0.350000E-01      0.119068E-01
      0.400000E-01      0.113184E-01
      0.450000E-01      0.106885E-01
      0.500000E-01      0.100282E-01
      0.550000E-01      0.934882E-02
      0.600000E-01      0.866120E-02
      0.650000E-01      0.797562E-02
      0.700000E-01      0.730152E-02
      0.750000E-01      0.664728E-02
      0.800000E-01      0.602013E-02
      0.850000E-01      0.542596E-02
      0.900000E-01      0.486935E-02
      0.950000E-01      0.435355E-02
      0.100000          0.388052E-02
      0.105000          0.345102E-02
      0.110000          0.306475E-02
      0.115000          0.272046E-02
      0.120000          0.241615E-02
      0.125000          0.214920E-02
      0.130000          0.191659E-02
      0.135000          0.171500E-02
      0.140000          0.154100E-02
      0.145000          0.139117E-02
      0.150000          0.126219E-02
      0.155000          0.115098E-02
      0.160000          0.105469E-02
      0.165000          0.970806E-03
      0.170000          0.897143E-03
      0.175000          0.831845E-03
      0.180000          0.773377E-03
      0.185000          0.720506E-03
      0.190000          0.672263E-03
      0.195000          0.627906E-03
      0.200000          0.586883E-03
      0.205000          0.548792E-03
      0.210000          0.513345E-03
      0.215000          0.480334E-03
      0.220000          0.449607E-03
      0.225000          0.421044E-03
      0.230000          0.394541E-03
      0.235000          0.370000E-03
      0.240000          0.347320E-03
      0.245000          0.326397E-03
      0.250000          0.307120E-03
      0.255000          0.289374E-03
      0.260000          0.273044E-03
      0.265000          0.258014E-03
      0.270000          0.244174E-03
      0.275000          0.231421E-03
      0.280000          0.219656E-03
      0.285000          0.208793E-03
      0.290000          0.198752E-03
      0.295000          0.189460E-03
      0.300000          0.180854E-03
      0.305000          0.172873E-03
      0.310000          0.165464E-03
      0.315000          0.158575E-03
      0.320000          0.152158E-03
      0.325000          0.146167E-03
      0.330000          0.140560E-03
      0.335000          0.135296E-03
      0.340000          0.130339E-03
      0.345000          0.125657E-03
      0.350000          0.121225E-03
      0.355000          0.117023E-03
      0.360000          0.113037E-03
      0.365000          0.109263E-03
      0.370000          0.105700E-03
      0.375000          0.102358E-03
      0.380000          0.992486E-04
      0.385000          0.963911E-04
      0.390000          0.938059E-04
      0.395000          0.915152E-04
      0.400000          0.895400E-04
      0.405000          0.878994E-04
      0.410000          0.866079E-04
      0.415000          0.856745E-04
      0.420000          0.851011E-04
      0.425000          0.848821E-04
      0.430000          0.850038E-04
      0.435000          0.854443E-04
      0.440000          0.861738E-04
      0.445000          0.871557E-04
      0.450000          0.883477E-04
      0.455000          0.897028E-04
      0.460000          0.911713E-04
      0.465000          0.927019E-04
      0.470000          0.942443E-04
      0.475000          0.957499E-04
      0.480000          0.971739E-04
      0.485000          0.984765E-04
      0.490000          0.996239E-04
      0.495000          0.100589E-03
      0.500000          0.101353E-03
