 I_abs(s)[cm^-1]/c[mg/ml]
       0.00000          0.138521E-01
      0.500000E-02      0.137950E-01
      0.100000E-01      0.136254E-01
      0.150000E-01      0.133480E-01
      0.200000E-01      0.129704E-01
      0.250000E-01      0.125027E-01
      0.300000E-01      0.119572E-01
      0.350000E-01      0.113478E-01
      0.400000E-01      0.106894E-01
      0.450000E-01      0.999723E-02
      0.500000E-01      0.928656E-02
      0.550000E-01      0.857177E-02
      0.600000E-01      0.786610E-02
      0.650000E-01      0.718119E-02
      0.700000E-01      0.652679E-02
      0.750000E-01      0.591056E-02
      0.800000E-01      0.533806E-02
      0.850000E-01      0.481272E-02
      0.900000E-01      0.433600E-02
      0.950000E-01      0.390763E-02
      0.100000          0.352583E-02
      0.105000          0.318768E-02
      0.110000          0.288939E-02
      0.115000          0.262668E-02
      0.120000          0.239505E-02
      0.125000          0.219006E-02
      0.130000          0.200752E-02
      0.135000          0.184370E-02
      0.140000          0.169539E-02
      0.145000          0.155994E-02
      0.150000          0.143534E-02
      0.155000          0.132007E-02
      0.160000          0.121310E-02
      0.165000          0.111380E-02
      0.170000          0.102178E-02
      0.175000          0.936841E-03
      0.180000          0.858879E-03
      0.185000          0.787782E-03
      0.190000          0.723390E-03
      0.195000          0.665460E-03
      0.200000          0.613639E-03
      0.205000          0.567478E-03
      0.210000          0.526440E-03
      0.215000          0.489935E-03
      0.220000          0.457347E-03
      0.225000          0.428072E-03
      0.230000          0.401553E-03
      0.235000          0.377298E-03
      0.240000          0.354905E-03
      0.245000          0.334067E-03
      0.250000          0.314573E-03
      0.255000          0.296297E-03
      0.260000          0.279186E-03
      0.265000          0.263239E-03
      0.270000          0.248487E-03
      0.275000          0.234972E-03
      0.280000          0.222726E-03
      0.285000          0.211761E-03
      0.290000          0.202058E-03
      0.295000          0.193559E-03
      0.300000          0.186173E-03
      0.305000          0.179778E-03
      0.310000          0.174232E-03
      0.315000          0.169378E-03
      0.320000          0.165063E-03
      0.325000          0.161140E-03
      0.330000          0.157485E-03
      0.335000          0.153998E-03
      0.340000          0.150606E-03
      0.345000          0.147268E-03
      0.350000          0.143969E-03
      0.355000          0.140717E-03
      0.360000          0.137536E-03
      0.365000          0.134457E-03
      0.370000          0.131517E-03
      0.375000          0.128746E-03
      0.380000          0.126164E-03
      0.385000          0.123781E-03
      0.390000          0.121590E-03
      0.395000          0.119572E-03
      0.400000          0.117695E-03
      0.405000          0.115920E-03
      0.410000          0.114203E-03
      0.415000          0.112501E-03
      0.420000          0.110776E-03
      0.425000          0.108997E-03
      0.430000          0.107146E-03
      0.435000          0.105216E-03
      0.440000          0.103216E-03
      0.445000          0.101164E-03
      0.450000          0.990883E-04
      0.455000          0.970249E-04
      0.460000          0.950133E-04
      0.465000          0.930928E-04
      0.470000          0.913001E-04
      0.475000          0.896657E-04
      0.480000          0.882123E-04
      0.485000          0.869536E-04
      0.490000          0.858937E-04
      0.495000          0.850277E-04
      0.500000          0.843429E-04
