 I_abs(s)[cm^-1]/c[mg/ml]
       0.00000          0.140856E-01
      0.500000E-02      0.140405E-01
      0.100000E-01      0.139059E-01
      0.150000E-01      0.136844E-01
      0.200000E-01      0.133802E-01
      0.250000E-01      0.129991E-01
      0.300000E-01      0.125479E-01
      0.350000E-01      0.120350E-01
      0.400000E-01      0.114692E-01
      0.450000E-01      0.108605E-01
      0.500000E-01      0.102187E-01
      0.550000E-01      0.955409E-02
      0.600000E-01      0.887675E-02
      0.650000E-01      0.819633E-02
      0.700000E-01      0.752190E-02
      0.750000E-01      0.686176E-02
      0.800000E-01      0.622327E-02
      0.850000E-01      0.561274E-02
      0.900000E-01      0.503538E-02
      0.950000E-01      0.449524E-02
      0.100000          0.399522E-02
      0.105000          0.353711E-02
      0.110000          0.312167E-02
      0.115000          0.274871E-02
      0.120000          0.241719E-02
      0.125000          0.212539E-02
      0.130000          0.187099E-02
      0.135000          0.165127E-02
      0.140000          0.146317E-02
      0.145000          0.130346E-02
      0.150000          0.116886E-02
      0.155000          0.105612E-02
      0.160000          0.962091E-03
      0.165000          0.883834E-03
      0.170000          0.818635E-03
      0.175000          0.764056E-03
      0.180000          0.717948E-03
      0.185000          0.678460E-03
      0.190000          0.644030E-03
      0.195000          0.613373E-03
      0.200000          0.585461E-03
      0.205000          0.559492E-03
      0.210000          0.534867E-03
      0.215000          0.511154E-03
      0.220000          0.488066E-03
      0.225000          0.465424E-03
      0.230000          0.443142E-03
      0.235000          0.421195E-03
      0.240000          0.399609E-03
      0.245000          0.378438E-03
      0.250000          0.357755E-03
      0.255000          0.337643E-03
      0.260000          0.318185E-03
      0.265000          0.299461E-03
      0.270000          0.281544E-03
      0.275000          0.264498E-03
      0.280000          0.248375E-03
      0.285000          0.233215E-03
      0.290000          0.219048E-03
      0.295000          0.205890E-03
      0.300000          0.193748E-03
      0.305000          0.182613E-03
      0.310000          0.172468E-03
      0.315000          0.163284E-03
      0.320000          0.155021E-03
      0.325000          0.147631E-03
      0.330000          0.141056E-03
      0.335000          0.135232E-03
      0.340000          0.130088E-03
      0.345000          0.125550E-03
      0.350000          0.121542E-03
      0.355000          0.117986E-03
      0.360000          0.114808E-03
      0.365000          0.111935E-03
      0.370000          0.109301E-03
      0.375000          0.106847E-03
      0.380000          0.104522E-03
      0.385000          0.102283E-03
      0.390000          0.100097E-03
      0.395000          0.979436E-04
      0.400000          0.958094E-04
      0.405000          0.936920E-04
      0.410000          0.915976E-04
      0.415000          0.895400E-04
      0.420000          0.875393E-04
      0.425000          0.856207E-04
      0.430000          0.838125E-04
      0.435000          0.821447E-04
      0.440000          0.806473E-04
      0.445000          0.793484E-04
      0.450000          0.782733E-04
      0.455000          0.774429E-04
      0.460000          0.768728E-04
      0.465000          0.765724E-04
      0.470000          0.765444E-04
      0.475000          0.767846E-04
      0.480000          0.772822E-04
      0.485000          0.780194E-04
      0.490000          0.789731E-04
      0.495000          0.801144E-04
      0.500000          0.814105E-04
