 I_abs(s)[cm^-1]/c[mg/ml]
       0.00000          0.140310E-01
      0.500000E-02      0.139732E-01
      0.100000E-01      0.138018E-01
      0.150000E-01      0.135216E-01
      0.200000E-01      0.131411E-01
      0.250000E-01      0.126710E-01
      0.300000E-01      0.121244E-01
      0.350000E-01      0.115159E-01
      0.400000E-01      0.108609E-01
      0.450000E-01      0.101750E-01
      0.500000E-01      0.947342E-02
      0.550000E-01      0.877011E-02
      0.600000E-01      0.807765E-02
      0.650000E-01      0.740673E-02
      0.700000E-01      0.676597E-02
      0.750000E-01      0.616181E-02
      0.800000E-01      0.559858E-02
      0.850000E-01      0.507867E-02
      0.900000E-01      0.460271E-02
      0.950000E-01      0.416989E-02
      0.100000          0.377832E-02
      0.105000          0.342527E-02
      0.110000          0.310755E-02
      0.115000          0.282177E-02
      0.120000          0.256453E-02
      0.125000          0.233260E-02
      0.130000          0.212308E-02
      0.135000          0.193338E-02
      0.140000          0.176129E-02
      0.145000          0.160498E-02
      0.150000          0.146288E-02
      0.155000          0.133370E-02
      0.160000          0.121635E-02
      0.165000          0.110986E-02
      0.170000          0.101336E-02
      0.175000          0.926061E-03
      0.180000          0.847201E-03
      0.185000          0.776061E-03
      0.190000          0.711953E-03
      0.195000          0.654236E-03
      0.200000          0.602313E-03
      0.205000          0.555650E-03
      0.210000          0.513767E-03
      0.215000          0.476251E-03
      0.220000          0.442739E-03
      0.225000          0.412915E-03
      0.230000          0.386497E-03
      0.235000          0.363220E-03
      0.240000          0.342826E-03
      0.245000          0.325052E-03
      0.250000          0.309622E-03
      0.255000          0.296243E-03
      0.260000          0.284609E-03
      0.265000          0.274406E-03
      0.270000          0.265320E-03
      0.275000          0.257049E-03
      0.280000          0.249315E-03
      0.285000          0.241875E-03
      0.290000          0.234533E-03
      0.295000          0.227143E-03
      0.300000          0.219614E-03
      0.305000          0.211909E-03
      0.310000          0.204041E-03
      0.315000          0.196063E-03
      0.320000          0.188062E-03
      0.325000          0.180145E-03
      0.330000          0.172428E-03
      0.335000          0.165025E-03
      0.340000          0.158041E-03
      0.345000          0.151560E-03
      0.350000          0.145646E-03
      0.355000          0.140333E-03
      0.360000          0.135634E-03
      0.365000          0.131534E-03
      0.370000          0.128001E-03
      0.375000          0.124984E-03
      0.380000          0.122425E-03
      0.385000          0.120257E-03
      0.390000          0.118414E-03
      0.395000          0.116831E-03
      0.400000          0.115449E-03
      0.405000          0.114218E-03
      0.410000          0.113092E-03
      0.415000          0.112039E-03
      0.420000          0.111029E-03
      0.425000          0.110043E-03
      0.430000          0.109066E-03
      0.435000          0.108089E-03
      0.440000          0.107106E-03
      0.445000          0.106114E-03
      0.450000          0.105113E-03
      0.455000          0.104103E-03
      0.460000          0.103090E-03
      0.465000          0.102076E-03
      0.470000          0.101068E-03
      0.475000          0.100072E-03
      0.480000          0.990948E-04
      0.485000          0.981435E-04
      0.490000          0.972245E-04
      0.495000          0.963432E-04
      0.500000          0.955042E-04
