 I_abs(s)[cm^-1]/c[mg/ml]
       0.00000          0.141483E-01
      0.500000E-02      0.141031E-01
      0.100000E-01      0.139684E-01
      0.150000E-01      0.137471E-01
      0.200000E-01      0.134436E-01
      0.250000E-01      0.130639E-01
      0.300000E-01      0.126155E-01
      0.350000E-01      0.121071E-01
      0.400000E-01      0.115479E-01
      0.450000E-01      0.109482E-01
      0.500000E-01      0.103180E-01
      0.550000E-01      0.966775E-02
      0.600000E-01      0.900727E-02
      0.650000E-01      0.834597E-02
      0.700000E-01      0.769246E-02
      0.750000E-01      0.705439E-02
      0.800000E-01      0.643839E-02
      0.850000E-01      0.584989E-02
      0.900000E-01      0.529318E-02
      0.950000E-01      0.477139E-02
      0.100000          0.428652E-02
      0.105000          0.383959E-02
      0.110000          0.343067E-02
      0.115000          0.305908E-02
      0.120000          0.272350E-02
      0.125000          0.242211E-02
      0.130000          0.215274E-02
      0.135000          0.191298E-02
      0.140000          0.170032E-02
      0.145000          0.151225E-02
      0.150000          0.134631E-02
      0.155000          0.120017E-02
      0.160000          0.107166E-02
      0.165000          0.958788E-03
      0.170000          0.859785E-03
      0.175000          0.773054E-03
      0.180000          0.697185E-03
      0.185000          0.630929E-03
      0.190000          0.573179E-03
      0.195000          0.522946E-03
      0.200000          0.479343E-03
      0.205000          0.441565E-03
      0.210000          0.408877E-03
      0.215000          0.380603E-03
      0.220000          0.356121E-03
      0.225000          0.334861E-03
      0.230000          0.316306E-03
      0.235000          0.299990E-03
      0.240000          0.285504E-03
      0.245000          0.272495E-03
      0.250000          0.260670E-03
      0.255000          0.249792E-03
      0.260000          0.239678E-03
      0.265000          0.230199E-03
      0.270000          0.221267E-03
      0.275000          0.212833E-03
      0.280000          0.204877E-03
      0.285000          0.197399E-03
      0.290000          0.190408E-03
      0.295000          0.183919E-03
      0.300000          0.177943E-03
      0.305000          0.172483E-03
      0.310000          0.167528E-03
      0.315000          0.163055E-03
      0.320000          0.159026E-03
      0.325000          0.155390E-03
      0.330000          0.152086E-03
      0.335000          0.149047E-03
      0.340000          0.146202E-03
      0.345000          0.143483E-03
      0.350000          0.140826E-03
      0.355000          0.138178E-03
      0.360000          0.135495E-03
      0.365000          0.132747E-03
      0.370000          0.129920E-03
      0.375000          0.127010E-03
      0.380000          0.124029E-03
      0.385000          0.120999E-03
      0.390000          0.117950E-03
      0.395000          0.114919E-03
      0.400000          0.111944E-03
      0.405000          0.109065E-03
      0.410000          0.106319E-03
      0.415000          0.103739E-03
      0.420000          0.101349E-03
      0.425000          0.991700E-04
      0.430000          0.972119E-04
      0.435000          0.954780E-04
      0.440000          0.939639E-04
      0.445000          0.926591E-04
      0.450000          0.915477E-04
      0.455000          0.906102E-04
      0.460000          0.898250E-04
      0.465000          0.891698E-04
      0.470000          0.886228E-04
      0.475000          0.881643E-04
      0.480000          0.877772E-04
      0.485000          0.874478E-04
      0.490000          0.871659E-04
      0.495000          0.869250E-04
      0.500000          0.867218E-04
