 I_abs(s)[cm^-1]/c[mg/ml]
       0.00000          0.138676E-01
      0.500000E-02      0.138096E-01
      0.100000E-01      0.136372E-01
      0.150000E-01      0.133555E-01
      0.200000E-01      0.129726E-01
      0.250000E-01      0.124993E-01
      0.300000E-01      0.119487E-01
      0.350000E-01      0.113353E-01
      0.400000E-01      0.106747E-01
      0.450000E-01      0.998272E-02
      0.500000E-01      0.927472E-02
      0.550000E-01      0.856522E-02
      0.600000E-01      0.786722E-02
      0.650000E-01      0.719192E-02
      0.700000E-01      0.654842E-02
      0.750000E-01      0.594363E-02
      0.800000E-01      0.538221E-02
      0.850000E-01      0.486673E-02
      0.900000E-01      0.439788E-02
      0.950000E-01      0.397471E-02
      0.100000          0.359501E-02
      0.105000          0.325559E-02
      0.110000          0.295271E-02
      0.115000          0.268232E-02
      0.120000          0.244037E-02
      0.125000          0.222304E-02
      0.130000          0.202689E-02
      0.135000          0.184895E-02
      0.140000          0.168678E-02
      0.145000          0.153846E-02
      0.150000          0.140252E-02
      0.155000          0.127791E-02
      0.160000          0.116386E-02
      0.165000          0.105981E-02
      0.170000          0.965324E-03
      0.175000          0.880015E-03
      0.180000          0.803468E-03
      0.185000          0.735215E-03
      0.190000          0.674715E-03
      0.195000          0.621349E-03
      0.200000          0.574434E-03
      0.205000          0.533251E-03
      0.210000          0.497067E-03
      0.215000          0.465165E-03
      0.220000          0.436878E-03
      0.225000          0.411603E-03
      0.230000          0.388819E-03
      0.235000          0.368094E-03
      0.240000          0.349085E-03
      0.245000          0.331533E-03
      0.250000          0.315250E-03
      0.255000          0.300104E-03
      0.260000          0.286011E-03
      0.265000          0.272912E-03
      0.270000          0.260767E-03
      0.275000          0.249542E-03
      0.280000          0.239200E-03
      0.285000          0.229701E-03
      0.290000          0.220998E-03
      0.295000          0.213036E-03
      0.300000          0.205753E-03
      0.305000          0.199086E-03
      0.310000          0.192969E-03
      0.315000          0.187338E-03
      0.320000          0.182131E-03
      0.325000          0.177290E-03
      0.330000          0.172764E-03
      0.335000          0.168507E-03
      0.340000          0.164478E-03
      0.345000          0.160642E-03
      0.350000          0.156972E-03
      0.355000          0.153447E-03
      0.360000          0.150051E-03
      0.365000          0.146776E-03
      0.370000          0.143618E-03
      0.375000          0.140579E-03
      0.380000          0.137667E-03
      0.385000          0.134889E-03
      0.390000          0.132255E-03
      0.395000          0.129773E-03
      0.400000          0.127446E-03
      0.405000          0.125275E-03
      0.410000          0.123250E-03
      0.415000          0.121355E-03
      0.420000          0.119567E-03
      0.425000          0.117855E-03
      0.430000          0.116183E-03
      0.435000          0.114515E-03
      0.440000          0.112811E-03
      0.445000          0.111041E-03
      0.450000          0.109176E-03
      0.455000          0.107202E-03
      0.460000          0.105115E-03
      0.465000          0.102922E-03
      0.470000          0.100646E-03
      0.475000          0.983215E-04
      0.480000          0.959906E-04
      0.485000          0.937031E-04
      0.490000          0.915115E-04
      0.495000          0.894667E-04
      0.500000          0.876145E-04
