 I_abs(s)[cm^-1]/c[mg/ml]
       0.00000          0.138753E-01
      0.500000E-02      0.138180E-01
      0.100000E-01      0.136476E-01
      0.150000E-01      0.133687E-01
      0.200000E-01      0.129885E-01
      0.250000E-01      0.125170E-01
      0.300000E-01      0.119660E-01
      0.350000E-01      0.113493E-01
      0.400000E-01      0.106812E-01
      0.450000E-01      0.997707E-02
      0.500000E-01      0.925182E-02
      0.550000E-01      0.851996E-02
      0.600000E-01      0.779492E-02
      0.650000E-01      0.708868E-02
      0.700000E-01      0.641149E-02
      0.750000E-01      0.577164E-02
      0.800000E-01      0.517542E-02
      0.850000E-01      0.462704E-02
      0.900000E-01      0.412880E-02
      0.950000E-01      0.368120E-02
      0.100000          0.328323E-02
      0.105000          0.293257E-02
      0.110000          0.262594E-02
      0.115000          0.235938E-02
      0.120000          0.212853E-02
      0.125000          0.192890E-02
      0.130000          0.175607E-02
      0.135000          0.160591E-02
      0.140000          0.147466E-02
      0.145000          0.135904E-02
      0.150000          0.125628E-02
      0.155000          0.116412E-02
      0.160000          0.108076E-02
      0.165000          0.100483E-02
      0.170000          0.935314E-03
      0.175000          0.871455E-03
      0.180000          0.812700E-03
      0.185000          0.758625E-03
      0.190000          0.708881E-03
      0.195000          0.663153E-03
      0.200000          0.621130E-03
      0.205000          0.582492E-03
      0.210000          0.546906E-03
      0.215000          0.514034E-03
      0.220000          0.483545E-03
      0.225000          0.455128E-03
      0.230000          0.428507E-03
      0.235000          0.403456E-03
      0.240000          0.379799E-03
      0.245000          0.357422E-03
      0.250000          0.336263E-03
      0.255000          0.316307E-03
      0.260000          0.297577E-03
      0.265000          0.280114E-03
      0.270000          0.263967E-03
      0.275000          0.249178E-03
      0.280000          0.235769E-03
      0.285000          0.223733E-03
      0.290000          0.213028E-03
      0.295000          0.203578E-03
      0.300000          0.195271E-03
      0.305000          0.187970E-03
      0.310000          0.181516E-03
      0.315000          0.175742E-03
      0.320000          0.170480E-03
      0.325000          0.165575E-03
      0.330000          0.160891E-03
      0.335000          0.156318E-03
      0.340000          0.151779E-03
      0.345000          0.147229E-03
      0.350000          0.142655E-03
      0.355000          0.138075E-03
      0.360000          0.133530E-03
      0.365000          0.129078E-03
      0.370000          0.124791E-03
      0.375000          0.120740E-03
      0.380000          0.116996E-03
      0.385000          0.113618E-03
      0.390000          0.110651E-03
      0.395000          0.108124E-03
      0.400000          0.106045E-03
      0.405000          0.104402E-03
      0.410000          0.103169E-03
      0.415000          0.102300E-03
      0.420000          0.101740E-03
      0.425000          0.101428E-03
      0.430000          0.101297E-03
      0.435000          0.101284E-03
      0.440000          0.101327E-03
      0.445000          0.101378E-03
      0.450000          0.101395E-03
      0.455000          0.101350E-03
      0.460000          0.101227E-03
      0.465000          0.101023E-03
      0.470000          0.100745E-03
      0.475000          0.100409E-03
      0.480000          0.100038E-03
      0.485000          0.996576E-04
      0.490000          0.992944E-04
      0.495000          0.989732E-04
      0.500000          0.987139E-04
