 I_abs(s)[cm^-1]/c[mg/ml]
       0.00000          0.139375E-01
      0.500000E-02      0.138826E-01
      0.100000E-01      0.137192E-01
      0.150000E-01      0.134515E-01
      0.200000E-01      0.130861E-01
      0.250000E-01      0.126320E-01
      0.300000E-01      0.121001E-01
      0.350000E-01      0.115028E-01
      0.400000E-01      0.108536E-01
      0.450000E-01      0.101666E-01
      0.500000E-01      0.945600E-02
      0.550000E-01      0.873567E-02
      0.600000E-01      0.801858E-02
      0.650000E-01      0.731656E-02
      0.700000E-01      0.663996E-02
      0.750000E-01      0.599739E-02
      0.800000E-01      0.539566E-02
      0.850000E-01      0.483964E-02
      0.900000E-01      0.433237E-02
      0.950000E-01      0.387511E-02
      0.100000          0.346754E-02
      0.105000          0.310795E-02
      0.110000          0.279354E-02
      0.115000          0.252062E-02
      0.120000          0.228494E-02
      0.125000          0.208191E-02
      0.130000          0.190688E-02
      0.135000          0.175532E-02
      0.140000          0.162298E-02
      0.145000          0.150606E-02
      0.150000          0.140126E-02
      0.155000          0.130583E-02
      0.160000          0.121758E-02
      0.165000          0.113486E-02
      0.170000          0.105652E-02
      0.175000          0.981816E-03
      0.180000          0.910349E-03
      0.185000          0.841990E-03
      0.190000          0.776788E-03
      0.195000          0.714904E-03
      0.200000          0.656545E-03
      0.205000          0.601915E-03
      0.210000          0.551180E-03
      0.215000          0.504439E-03
      0.220000          0.461716E-03
      0.225000          0.422959E-03
      0.230000          0.388041E-03
      0.235000          0.356778E-03
      0.240000          0.328940E-03
      0.245000          0.304265E-03
      0.250000          0.282479E-03
      0.255000          0.263307E-03
      0.260000          0.246483E-03
      0.265000          0.231757E-03
      0.270000          0.218899E-03
      0.275000          0.207703E-03
      0.280000          0.197980E-03
      0.285000          0.189564E-03
      0.290000          0.182302E-03
      0.295000          0.176055E-03
      0.300000          0.170693E-03
      0.305000          0.166093E-03
      0.310000          0.162140E-03
      0.315000          0.158726E-03
      0.320000          0.155750E-03
      0.325000          0.153119E-03
      0.330000          0.150754E-03
      0.335000          0.148583E-03
      0.340000          0.146550E-03
      0.345000          0.144613E-03
      0.350000          0.142740E-03
      0.355000          0.140914E-03
      0.360000          0.139127E-03
      0.365000          0.137376E-03
      0.370000          0.135667E-03
      0.375000          0.134004E-03
      0.380000          0.132391E-03
      0.385000          0.130829E-03
      0.390000          0.129314E-03
      0.395000          0.127833E-03
      0.400000          0.126370E-03
      0.405000          0.124902E-03
      0.410000          0.123400E-03
      0.415000          0.121835E-03
      0.420000          0.120177E-03
      0.425000          0.118399E-03
      0.430000          0.116479E-03
      0.435000          0.114401E-03
      0.440000          0.112160E-03
      0.445000          0.109760E-03
      0.450000          0.107215E-03
      0.455000          0.104550E-03
      0.460000          0.101799E-03
      0.465000          0.990038E-04
      0.470000          0.962106E-04
      0.475000          0.934696E-04
      0.480000          0.908309E-04
      0.485000          0.883429E-04
      0.490000          0.860494E-04
      0.495000          0.839876E-04
      0.500000          0.821868E-04
