 I_abs(s)[cm^-1]/c[mg/ml]
       0.00000          0.138521E-01
      0.500000E-02      0.137911E-01
      0.100000E-01      0.136101E-01
      0.150000E-01      0.133152E-01
      0.200000E-01      0.129160E-01
      0.250000E-01      0.124250E-01
      0.300000E-01      0.118574E-01
      0.350000E-01      0.112298E-01
      0.400000E-01      0.105596E-01
      0.450000E-01      0.986412E-02
      0.500000E-01      0.915968E-02
      0.550000E-01      0.846118E-02
      0.600000E-01      0.778142E-02
      0.650000E-01      0.713079E-02
      0.700000E-01      0.651711E-02
      0.750000E-01      0.594563E-02
      0.800000E-01      0.541915E-02
      0.850000E-01      0.493837E-02
      0.900000E-01      0.450216E-02
      0.950000E-01      0.410808E-02
      0.100000          0.375273E-02
      0.105000          0.343217E-02
      0.110000          0.314234E-02
      0.115000          0.287927E-02
      0.120000          0.263936E-02
      0.125000          0.241946E-02
      0.130000          0.221698E-02
      0.135000          0.202989E-02
      0.140000          0.185662E-02
      0.145000          0.169602E-02
      0.150000          0.154727E-02
      0.155000          0.140974E-02
      0.160000          0.128295E-02
      0.165000          0.116646E-02
      0.170000          0.105986E-02
      0.175000          0.962671E-03
      0.180000          0.874414E-03
      0.185000          0.794558E-03
      0.190000          0.722548E-03
      0.195000          0.657817E-03
      0.200000          0.599802E-03
      0.205000          0.547957E-03
      0.210000          0.501753E-03
      0.215000          0.460688E-03
      0.220000          0.424279E-03
      0.225000          0.392063E-03
      0.230000          0.363588E-03
      0.235000          0.338414E-03
      0.240000          0.316114E-03
      0.245000          0.296273E-03
      0.250000          0.278505E-03
      0.255000          0.262453E-03
      0.260000          0.247805E-03
      0.265000          0.234302E-03
      0.270000          0.221745E-03
      0.275000          0.209998E-03
      0.280000          0.198987E-03
      0.285000          0.188691E-03
      0.290000          0.179130E-03
      0.295000          0.170352E-03
      0.300000          0.162418E-03
      0.305000          0.155379E-03
      0.310000          0.149268E-03
      0.315000          0.144087E-03
      0.320000          0.139795E-03
      0.325000          0.136317E-03
      0.330000          0.133537E-03
      0.335000          0.131313E-03
      0.340000          0.129488E-03
      0.345000          0.127899E-03
      0.350000          0.126397E-03
      0.355000          0.124855E-03
      0.360000          0.123178E-03
      0.365000          0.121315E-03
      0.370000          0.119252E-03
      0.375000          0.117017E-03
      0.380000          0.114673E-03
      0.385000          0.112306E-03
      0.390000          0.110017E-03
      0.395000          0.107908E-03
      0.400000          0.106075E-03
      0.405000          0.104592E-03
      0.410000          0.103509E-03
      0.415000          0.102845E-03
      0.420000          0.102589E-03
      0.425000          0.102698E-03
      0.430000          0.103105E-03
      0.435000          0.103725E-03
      0.440000          0.104461E-03
      0.445000          0.105215E-03
      0.450000          0.105895E-03
      0.455000          0.106419E-03
      0.460000          0.106724E-03
      0.465000          0.106769E-03
      0.470000          0.106533E-03
      0.475000          0.106018E-03
      0.480000          0.105244E-03
      0.485000          0.104247E-03
      0.490000          0.103073E-03
      0.495000          0.101774E-03
      0.500000          0.100404E-03
