 I_abs(s)[cm^-1]/c[mg/ml]
       0.00000          0.136512E-01
      0.500000E-02      0.135878E-01
      0.100000E-01      0.133998E-01
      0.150000E-01      0.130937E-01
      0.200000E-01      0.126800E-01
      0.250000E-01      0.121727E-01
      0.300000E-01      0.115880E-01
      0.350000E-01      0.109441E-01
      0.400000E-01      0.102598E-01
      0.450000E-01      0.955370E-02
      0.500000E-01      0.884330E-02
      0.550000E-01      0.814427E-02
      0.600000E-01      0.746990E-02
      0.650000E-01      0.683071E-02
      0.700000E-01      0.623428E-02
      0.750000E-01      0.568525E-02
      0.800000E-01      0.518556E-02
      0.850000E-01      0.473478E-02
      0.900000E-01      0.433055E-02
      0.950000E-01      0.396908E-02
      0.100000          0.364568E-02
      0.105000          0.335525E-02
      0.110000          0.309268E-02
      0.115000          0.285324E-02
      0.120000          0.263278E-02
      0.125000          0.242791E-02
      0.130000          0.223606E-02
      0.135000          0.205540E-02
      0.140000          0.188481E-02
      0.145000          0.172371E-02
      0.150000          0.157193E-02
      0.155000          0.142954E-02
      0.160000          0.129669E-02
      0.165000          0.117355E-02
      0.170000          0.106018E-02
      0.175000          0.956503E-03
      0.180000          0.862272E-03
      0.185000          0.777102E-03
      0.190000          0.700478E-03
      0.195000          0.631803E-03
      0.200000          0.570435E-03
      0.205000          0.515731E-03
      0.210000          0.467073E-03
      0.215000          0.423891E-03
      0.220000          0.385676E-03
      0.225000          0.351978E-03
      0.230000          0.322401E-03
      0.235000          0.296592E-03
      0.240000          0.274223E-03
      0.245000          0.254987E-03
      0.250000          0.238582E-03
      0.255000          0.224704E-03
      0.260000          0.213053E-03
      0.265000          0.203327E-03
      0.270000          0.195235E-03
      0.275000          0.188498E-03
      0.280000          0.182859E-03
      0.285000          0.178089E-03
      0.290000          0.173990E-03
      0.295000          0.170399E-03
      0.300000          0.167186E-03
      0.305000          0.164250E-03
      0.310000          0.161517E-03
      0.315000          0.158932E-03
      0.320000          0.156453E-03
      0.325000          0.154047E-03
      0.330000          0.151686E-03
      0.335000          0.149343E-03
      0.340000          0.146991E-03
      0.345000          0.144606E-03
      0.350000          0.142162E-03
      0.355000          0.139640E-03
      0.360000          0.137025E-03
      0.365000          0.134311E-03
      0.370000          0.131501E-03
      0.375000          0.128607E-03
      0.380000          0.125650E-03
      0.385000          0.122662E-03
      0.390000          0.119678E-03
      0.395000          0.116737E-03
      0.400000          0.113881E-03
      0.405000          0.111148E-03
      0.410000          0.108570E-03
      0.415000          0.106174E-03
      0.420000          0.103977E-03
      0.425000          0.101988E-03
      0.430000          0.100205E-03
      0.435000          0.986176E-04
      0.440000          0.972078E-04
      0.445000          0.959519E-04
      0.450000          0.948224E-04
      0.455000          0.937906E-04
      0.460000          0.928288E-04
      0.465000          0.919123E-04
      0.470000          0.910214E-04
      0.475000          0.901422E-04
      0.480000          0.892676E-04
      0.485000          0.883969E-04
      0.490000          0.875356E-04
      0.495000          0.866939E-04
      0.500000          0.858853E-04
