 I_abs(s)[cm^-1]/c[mg/ml]
       0.00000          0.137437E-01
      0.500000E-02      0.136849E-01
      0.100000E-01      0.135100E-01
      0.150000E-01      0.132240E-01
      0.200000E-01      0.128350E-01
      0.250000E-01      0.123538E-01
      0.300000E-01      0.117934E-01
      0.350000E-01      0.111684E-01
      0.400000E-01      0.104946E-01
      0.450000E-01      0.978806E-02
      0.500000E-01      0.906478E-02
      0.550000E-01      0.833987E-02
      0.600000E-01      0.762716E-02
      0.650000E-01      0.693872E-02
      0.700000E-01      0.628461E-02
      0.750000E-01      0.567267E-02
      0.800000E-01      0.510842E-02
      0.850000E-01      0.459517E-02
      0.900000E-01      0.413409E-02
      0.950000E-01      0.372453E-02
      0.100000          0.336422E-02
      0.105000          0.304967E-02
      0.110000          0.277651E-02
      0.115000          0.253981E-02
      0.120000          0.233443E-02
      0.125000          0.215529E-02
      0.130000          0.199760E-02
      0.135000          0.185706E-02
      0.140000          0.172996E-02
      0.145000          0.161325E-02
      0.150000          0.150454E-02
      0.155000          0.140208E-02
      0.160000          0.130470E-02
      0.165000          0.121169E-02
      0.170000          0.112275E-02
      0.175000          0.103783E-02
      0.180000          0.957061E-03
      0.185000          0.880677E-03
      0.190000          0.808915E-03
      0.195000          0.741976E-03
      0.200000          0.679984E-03
      0.205000          0.622968E-03
      0.210000          0.570856E-03
      0.215000          0.523485E-03
      0.220000          0.480610E-03
      0.225000          0.441934E-03
      0.230000          0.407120E-03
      0.235000          0.375820E-03
      0.240000          0.347690E-03
      0.245000          0.322406E-03
      0.250000          0.299672E-03
      0.255000          0.279227E-03
      0.260000          0.260846E-03
      0.265000          0.244334E-03
      0.270000          0.229529E-03
      0.275000          0.216287E-03
      0.280000          0.204482E-03
      0.285000          0.193997E-03
      0.290000          0.184721E-03
      0.295000          0.176542E-03
      0.300000          0.169349E-03
      0.305000          0.163029E-03
      0.310000          0.157468E-03
      0.315000          0.152551E-03
      0.320000          0.148167E-03
      0.325000          0.144213E-03
      0.330000          0.140590E-03
      0.335000          0.137213E-03
      0.340000          0.134007E-03
      0.345000          0.130912E-03
      0.350000          0.127882E-03
      0.355000          0.124887E-03
      0.360000          0.121909E-03
      0.365000          0.118944E-03
      0.370000          0.115998E-03
      0.375000          0.113087E-03
      0.380000          0.110235E-03
      0.385000          0.107470E-03
      0.390000          0.104822E-03
      0.395000          0.102320E-03
      0.400000          0.999931E-04
      0.405000          0.978638E-04
      0.410000          0.959500E-04
      0.415000          0.942625E-04
      0.420000          0.928041E-04
      0.425000          0.915699E-04
      0.430000          0.905474E-04
      0.435000          0.897173E-04
      0.440000          0.890551E-04
      0.445000          0.885318E-04
      0.450000          0.881168E-04
      0.455000          0.877791E-04
      0.460000          0.874891E-04
      0.465000          0.872209E-04
      0.470000          0.869531E-04
      0.475000          0.866700E-04
      0.480000          0.863623E-04
      0.485000          0.860269E-04
      0.490000          0.856667E-04
      0.495000          0.852895E-04
      0.500000          0.849071E-04
