 I_abs(s)[cm^-1]/c[mg/ml]
       0.00000          0.136974E-01
      0.500000E-02      0.136290E-01
      0.100000E-01      0.134260E-01
      0.150000E-01      0.130962E-01
      0.200000E-01      0.126513E-01
      0.250000E-01      0.121072E-01
      0.300000E-01      0.114822E-01
      0.350000E-01      0.107966E-01
      0.400000E-01      0.100710E-01
      0.450000E-01      0.932582E-02
      0.500000E-01      0.857973E-02
      0.550000E-01      0.784927E-02
      0.600000E-01      0.714813E-02
      0.650000E-01      0.648688E-02
      0.700000E-01      0.587289E-02
      0.750000E-01      0.531044E-02
      0.800000E-01      0.480107E-02
      0.850000E-01      0.434402E-02
      0.900000E-01      0.393674E-02
      0.950000E-01      0.357544E-02
      0.100000          0.325560E-02
      0.105000          0.297242E-02
      0.110000          0.272114E-02
      0.115000          0.249736E-02
      0.120000          0.229712E-02
      0.125000          0.211703E-02
      0.130000          0.195424E-02
      0.135000          0.180635E-02
      0.140000          0.167142E-02
      0.145000          0.154779E-02
      0.150000          0.143408E-02
      0.155000          0.132909E-02
      0.160000          0.123178E-02
      0.165000          0.114123E-02
      0.170000          0.105667E-02
      0.175000          0.977485E-03
      0.180000          0.903178E-03
      0.185000          0.833413E-03
      0.190000          0.767987E-03
      0.195000          0.706813E-03
      0.200000          0.649883E-03
      0.205000          0.597236E-03
      0.210000          0.548915E-03
      0.215000          0.504932E-03
      0.220000          0.465235E-03
      0.225000          0.429694E-03
      0.230000          0.398095E-03
      0.235000          0.370143E-03
      0.240000          0.345482E-03
      0.245000          0.323716E-03
      0.250000          0.304436E-03
      0.255000          0.287250E-03
      0.260000          0.271797E-03
      0.265000          0.257770E-03
      0.270000          0.244921E-03
      0.275000          0.233061E-03
      0.280000          0.222056E-03
      0.285000          0.211817E-03
      0.290000          0.202289E-03
      0.295000          0.193438E-03
      0.300000          0.185243E-03
      0.305000          0.177686E-03
      0.310000          0.170748E-03
      0.315000          0.164412E-03
      0.320000          0.158655E-03
      0.325000          0.153458E-03
      0.330000          0.148800E-03
      0.335000          0.144665E-03
      0.340000          0.141036E-03
      0.345000          0.137895E-03
      0.350000          0.135218E-03
      0.355000          0.132973E-03
      0.360000          0.131117E-03
      0.365000          0.129592E-03
      0.370000          0.128328E-03
      0.375000          0.127244E-03
      0.380000          0.126252E-03
      0.385000          0.125266E-03
      0.390000          0.124208E-03
      0.395000          0.123013E-03
      0.400000          0.121640E-03
      0.405000          0.120070E-03
      0.410000          0.118313E-03
      0.415000          0.116401E-03
      0.420000          0.114388E-03
      0.425000          0.112343E-03
      0.430000          0.110338E-03
      0.435000          0.108445E-03
      0.440000          0.106726E-03
      0.445000          0.105228E-03
      0.450000          0.103974E-03
      0.455000          0.102971E-03
      0.460000          0.102203E-03
      0.465000          0.101639E-03
      0.470000          0.101236E-03
      0.475000          0.100946E-03
      0.480000          0.100719E-03
      0.485000          0.100515E-03
      0.490000          0.100302E-03
      0.495000          0.100059E-03
      0.500000          0.997799E-04
