 I_abs(s)[cm^-1]/c[mg/ml]
       0.00000          0.136128E-01
      0.500000E-02      0.135487E-01
      0.100000E-01      0.133586E-01
      0.150000E-01      0.130494E-01
      0.200000E-01      0.126319E-01
      0.250000E-01      0.121202E-01
      0.300000E-01      0.115311E-01
      0.350000E-01      0.108832E-01
      0.400000E-01      0.101955E-01
      0.450000E-01      0.948682E-02
      0.500000E-01      0.877481E-02
      0.550000E-01      0.807510E-02
      0.600000E-01      0.740082E-02
      0.650000E-01      0.676228E-02
      0.700000E-01      0.616674E-02
      0.750000E-01      0.561858E-02
      0.800000E-01      0.511946E-02
      0.850000E-01      0.466876E-02
      0.900000E-01      0.426403E-02
      0.950000E-01      0.390151E-02
      0.100000          0.357664E-02
      0.105000          0.328459E-02
      0.110000          0.302057E-02
      0.115000          0.278023E-02
      0.120000          0.255981E-02
      0.125000          0.235625E-02
      0.130000          0.216725E-02
      0.135000          0.199115E-02
      0.140000          0.182689E-02
      0.145000          0.167379E-02
      0.150000          0.153148E-02
      0.155000          0.139974E-02
      0.160000          0.127837E-02
      0.165000          0.116713E-02
      0.170000          0.106568E-02
      0.175000          0.973552E-03
      0.180000          0.890192E-03
      0.185000          0.814949E-03
      0.190000          0.747124E-03
      0.195000          0.686011E-03
      0.200000          0.630919E-03
      0.205000          0.581209E-03
      0.210000          0.536300E-03
      0.215000          0.495678E-03
      0.220000          0.458895E-03
      0.225000          0.425558E-03
      0.230000          0.395318E-03
      0.235000          0.367866E-03
      0.240000          0.342916E-03
      0.245000          0.320209E-03
      0.250000          0.299511E-03
      0.255000          0.280613E-03
      0.260000          0.263337E-03
      0.265000          0.247540E-03
      0.270000          0.233117E-03
      0.275000          0.219996E-03
      0.280000          0.208137E-03
      0.285000          0.197521E-03
      0.290000          0.188138E-03
      0.295000          0.179977E-03
      0.300000          0.173011E-03
      0.305000          0.167186E-03
      0.310000          0.162419E-03
      0.315000          0.158591E-03
      0.320000          0.155552E-03
      0.325000          0.153128E-03
      0.330000          0.151136E-03
      0.335000          0.149390E-03
      0.340000          0.147723E-03
      0.345000          0.145995E-03
      0.350000          0.144104E-03
      0.355000          0.141995E-03
      0.360000          0.139654E-03
      0.365000          0.137112E-03
      0.370000          0.134431E-03
      0.375000          0.131699E-03
      0.380000          0.129013E-03
      0.385000          0.126466E-03
      0.390000          0.124140E-03
      0.395000          0.122092E-03
      0.400000          0.120352E-03
      0.405000          0.118919E-03
      0.410000          0.117766E-03
      0.415000          0.116839E-03
      0.420000          0.116074E-03
      0.425000          0.115396E-03
      0.430000          0.114734E-03
      0.435000          0.114026E-03
      0.440000          0.113224E-03
      0.445000          0.112301E-03
      0.450000          0.111248E-03
      0.455000          0.110073E-03
      0.460000          0.108799E-03
      0.465000          0.107461E-03
      0.470000          0.106094E-03
      0.475000          0.104733E-03
      0.480000          0.103408E-03
      0.485000          0.102139E-03
      0.490000          0.100937E-03
      0.495000          0.998020E-04
      0.500000          0.987257E-04
