 I_abs(s)[cm^-1]/c[mg/ml]
       0.00000          0.140388E-01
      0.500000E-02      0.139834E-01
      0.100000E-01      0.138185E-01
      0.150000E-01      0.135483E-01
      0.200000E-01      0.131793E-01
      0.250000E-01      0.127202E-01
      0.300000E-01      0.121819E-01
      0.350000E-01      0.115768E-01
      0.400000E-01      0.109183E-01
      0.450000E-01      0.102205E-01
      0.500000E-01      0.949772E-02
      0.550000E-01      0.876404E-02
      0.600000E-01      0.803272E-02
      0.650000E-01      0.731601E-02
      0.700000E-01      0.662471E-02
      0.750000E-01      0.596796E-02
      0.800000E-01      0.535312E-02
      0.850000E-01      0.478560E-02
      0.900000E-01      0.426895E-02
      0.950000E-01      0.380487E-02
      0.100000          0.339335E-02
      0.105000          0.303293E-02
      0.110000          0.272083E-02
      0.115000          0.245331E-02
      0.120000          0.222587E-02
      0.125000          0.203358E-02
      0.130000          0.187129E-02
      0.135000          0.173389E-02
      0.140000          0.161652E-02
      0.145000          0.151472E-02
      0.150000          0.142454E-02
      0.155000          0.134266E-02
      0.160000          0.126637E-02
      0.165000          0.119361E-02
      0.170000          0.112295E-02
      0.175000          0.105349E-02
      0.180000          0.984797E-03
      0.185000          0.916850E-03
      0.190000          0.849899E-03
      0.195000          0.784398E-03
      0.200000          0.720911E-03
      0.205000          0.660035E-03
      0.210000          0.602337E-03
      0.215000          0.548304E-03
      0.220000          0.498312E-03
      0.225000          0.452603E-03
      0.230000          0.411283E-03
      0.235000          0.374325E-03
      0.240000          0.341586E-03
      0.245000          0.312825E-03
      0.250000          0.287730E-03
      0.255000          0.265940E-03
      0.260000          0.247075E-03
      0.265000          0.230754E-03
      0.270000          0.216612E-03
      0.275000          0.204318E-03
      0.280000          0.193583E-03
      0.285000          0.184162E-03
      0.290000          0.175859E-03
      0.295000          0.168517E-03
      0.300000          0.162020E-03
      0.305000          0.156284E-03
      0.310000          0.151243E-03
      0.315000          0.146851E-03
      0.320000          0.143065E-03
      0.325000          0.139848E-03
      0.330000          0.137156E-03
      0.335000          0.134942E-03
      0.340000          0.133148E-03
      0.345000          0.131712E-03
      0.350000          0.130565E-03
      0.355000          0.129632E-03
      0.360000          0.128839E-03
      0.365000          0.128113E-03
      0.370000          0.127388E-03
      0.375000          0.126602E-03
      0.380000          0.125706E-03
      0.385000          0.124661E-03
      0.390000          0.123442E-03
      0.395000          0.122034E-03
      0.400000          0.120437E-03
      0.405000          0.118660E-03
      0.410000          0.116722E-03
      0.415000          0.114651E-03
      0.420000          0.112480E-03
      0.425000          0.110244E-03
      0.430000          0.107981E-03
      0.435000          0.105728E-03
      0.440000          0.103521E-03
      0.445000          0.101392E-03
      0.450000          0.993666E-04
      0.455000          0.974671E-04
      0.460000          0.957088E-04
      0.465000          0.941016E-04
      0.470000          0.926493E-04
      0.475000          0.913503E-04
      0.480000          0.901982E-04
      0.485000          0.891825E-04
      0.490000          0.882895E-04
      0.495000          0.875034E-04
      0.500000          0.868070E-04
