 I_abs(s)[cm^-1]/c[mg/ml]
       0.00000          0.135437E-01
      0.500000E-02      0.134753E-01
      0.100000E-01      0.132725E-01
      0.150000E-01      0.129427E-01
      0.200000E-01      0.124977E-01
      0.250000E-01      0.119527E-01
      0.300000E-01      0.113262E-01
      0.350000E-01      0.106383E-01
      0.400000E-01      0.990961E-02
      0.450000E-01      0.916081E-02
      0.500000E-01      0.841107E-02
      0.550000E-01      0.767752E-02
      0.600000E-01      0.697455E-02
      0.650000E-01      0.631341E-02
      0.700000E-01      0.570208E-02
      0.750000E-01      0.514527E-02
      0.800000E-01      0.464473E-02
      0.850000E-01      0.419959E-02
      0.900000E-01      0.380693E-02
      0.950000E-01      0.346228E-02
      0.100000          0.316025E-02
      0.105000          0.289502E-02
      0.110000          0.266084E-02
      0.115000          0.245232E-02
      0.120000          0.226476E-02
      0.125000          0.209425E-02
      0.130000          0.193773E-02
      0.135000          0.179291E-02
      0.140000          0.165824E-02
      0.145000          0.153270E-02
      0.150000          0.141569E-02
      0.155000          0.130685E-02
      0.160000          0.120595E-02
      0.165000          0.111278E-02
      0.170000          0.102707E-02
      0.175000          0.948474E-03
      0.180000          0.876551E-03
      0.185000          0.810784E-03
      0.190000          0.750609E-03
      0.195000          0.695454E-03
      0.200000          0.644767E-03
      0.205000          0.598052E-03
      0.210000          0.554881E-03
      0.215000          0.514908E-03
      0.220000          0.477866E-03
      0.225000          0.443558E-03
      0.230000          0.411844E-03
      0.235000          0.382623E-03
      0.240000          0.355820E-03
      0.245000          0.331368E-03
      0.250000          0.309203E-03
      0.255000          0.289252E-03
      0.260000          0.271431E-03
      0.265000          0.255643E-03
      0.270000          0.241777E-03
      0.275000          0.229711E-03
      0.280000          0.219307E-03
      0.285000          0.210417E-03
      0.290000          0.202875E-03
      0.295000          0.196507E-03
      0.300000          0.191123E-03
      0.305000          0.186525E-03
      0.310000          0.182509E-03
      0.315000          0.178870E-03
      0.320000          0.175416E-03
      0.325000          0.171968E-03
      0.330000          0.168379E-03
      0.335000          0.164533E-03
      0.340000          0.160361E-03
      0.345000          0.155834E-03
      0.350000          0.150975E-03
      0.355000          0.145844E-03
      0.360000          0.140540E-03
      0.365000          0.135184E-03
      0.370000          0.129911E-03
      0.375000          0.124858E-03
      0.380000          0.120149E-03
      0.385000          0.115884E-03
      0.390000          0.112136E-03
      0.395000          0.108942E-03
      0.400000          0.106306E-03
      0.405000          0.104197E-03
      0.410000          0.102562E-03
      0.415000          0.101325E-03
      0.420000          0.100403E-03
      0.425000          0.997119E-04
      0.430000          0.991753E-04
      0.435000          0.987302E-04
      0.440000          0.983317E-04
      0.445000          0.979545E-04
      0.450000          0.975919E-04
      0.455000          0.972528E-04
      0.460000          0.969572E-04
      0.465000          0.967306E-04
      0.470000          0.965984E-04
      0.475000          0.965806E-04
      0.480000          0.966879E-04
      0.485000          0.969185E-04
      0.490000          0.972575E-04
      0.495000          0.976777E-04
      0.500000          0.981413E-04
