 I_abs(s)[cm^-1]/c[mg/ml]
       0.00000          0.138753E-01
      0.500000E-02      0.138154E-01
      0.100000E-01      0.136374E-01
      0.150000E-01      0.133465E-01
      0.200000E-01      0.129511E-01
      0.250000E-01      0.124621E-01
      0.300000E-01      0.118931E-01
      0.350000E-01      0.112591E-01
      0.400000E-01      0.105763E-01
      0.450000E-01      0.986105E-02
      0.500000E-01      0.912952E-02
      0.550000E-01      0.839695E-02
      0.600000E-01      0.767715E-02
      0.650000E-01      0.698205E-02
      0.700000E-01      0.632149E-02
      0.750000E-01      0.570295E-02
      0.800000E-01      0.513160E-02
      0.850000E-01      0.461036E-02
      0.900000E-01      0.414006E-02
      0.950000E-01      0.371975E-02
      0.100000          0.334698E-02
      0.105000          0.301820E-02
      0.110000          0.272914E-02
      0.115000          0.247510E-02
      0.120000          0.225131E-02
      0.125000          0.205321E-02
      0.130000          0.187660E-02
      0.135000          0.171784E-02
      0.140000          0.157388E-02
      0.145000          0.144232E-02
      0.150000          0.132134E-02
      0.155000          0.120966E-02
      0.160000          0.110644E-02
      0.165000          0.101116E-02
      0.170000          0.923527E-03
      0.175000          0.843358E-03
      0.180000          0.770501E-03
      0.185000          0.704768E-03
      0.190000          0.645892E-03
      0.195000          0.593507E-03
      0.200000          0.547146E-03
      0.205000          0.506259E-03
      0.210000          0.470237E-03
      0.215000          0.438448E-03
      0.220000          0.410273E-03
      0.225000          0.385134E-03
      0.230000          0.362524E-03
      0.235000          0.342019E-03
      0.240000          0.323290E-03
      0.245000          0.306099E-03
      0.250000          0.290288E-03
      0.255000          0.275768E-03
      0.260000          0.262493E-03
      0.265000          0.250448E-03
      0.270000          0.239620E-03
      0.275000          0.229990E-03
      0.280000          0.221516E-03
      0.285000          0.214130E-03
      0.290000          0.207730E-03
      0.295000          0.202191E-03
      0.300000          0.197367E-03
      0.305000          0.193101E-03
      0.310000          0.189237E-03
      0.315000          0.185629E-03
      0.320000          0.182151E-03
      0.325000          0.178703E-03
      0.330000          0.175216E-03
      0.335000          0.171651E-03
      0.340000          0.167998E-03
      0.345000          0.164273E-03
      0.350000          0.160509E-03
      0.355000          0.156750E-03
      0.360000          0.153043E-03
      0.365000          0.149432E-03
      0.370000          0.145954E-03
      0.375000          0.142631E-03
      0.380000          0.139473E-03
      0.385000          0.136476E-03
      0.390000          0.133623E-03
      0.395000          0.130889E-03
      0.400000          0.128245E-03
      0.405000          0.125661E-03
      0.410000          0.123113E-03
      0.415000          0.120584E-03
      0.420000          0.118068E-03
      0.425000          0.115569E-03
      0.430000          0.113106E-03
      0.435000          0.110704E-03
      0.440000          0.108398E-03
      0.445000          0.106225E-03
      0.450000          0.104226E-03
      0.455000          0.102433E-03
      0.460000          0.100874E-03
      0.465000          0.995677E-04
      0.470000          0.985181E-04
      0.475000          0.977182E-04
      0.480000          0.971483E-04
      0.485000          0.967778E-04
      0.490000          0.965673E-04
      0.495000          0.964717E-04
      0.500000          0.964435E-04
