 I_abs(s)[cm^-1]/c[mg/ml]
       0.00000          0.137206E-01
      0.500000E-02      0.136600E-01
      0.100000E-01      0.134803E-01
      0.150000E-01      0.131868E-01
      0.200000E-01      0.127885E-01
      0.250000E-01      0.122971E-01
      0.300000E-01      0.117267E-01
      0.350000E-01      0.110932E-01
      0.400000E-01      0.104135E-01
      0.450000E-01      0.970443E-02
      0.500000E-01      0.898262E-02
      0.550000E-01      0.826347E-02
      0.600000E-01      0.756071E-02
      0.650000E-01      0.688599E-02
      0.700000E-01      0.624859E-02
      0.750000E-01      0.565531E-02
      0.800000E-01      0.511049E-02
      0.850000E-01      0.461610E-02
      0.900000E-01      0.417207E-02
      0.950000E-01      0.377654E-02
      0.100000          0.342631E-02
      0.105000          0.311718E-02
      0.110000          0.284440E-02
      0.115000          0.260301E-02
      0.120000          0.238815E-02
      0.125000          0.219534E-02
      0.130000          0.202063E-02
      0.135000          0.186072E-02
      0.140000          0.171300E-02
      0.145000          0.157555E-02
      0.150000          0.144704E-02
      0.155000          0.132665E-02
      0.160000          0.121395E-02
      0.165000          0.110879E-02
      0.170000          0.101115E-02
      0.175000          0.921057E-03
      0.180000          0.838526E-03
      0.185000          0.763465E-03
      0.190000          0.695669E-03
      0.195000          0.634802E-03
      0.200000          0.580413E-03
      0.205000          0.531959E-03
      0.210000          0.488840E-03
      0.215000          0.450431E-03
      0.220000          0.416123E-03
      0.225000          0.385350E-03
      0.230000          0.357611E-03
      0.235000          0.332487E-03
      0.240000          0.309640E-03
      0.245000          0.288815E-03
      0.250000          0.269828E-03
      0.255000          0.252554E-03
      0.260000          0.236907E-03
      0.265000          0.222829E-03
      0.270000          0.210272E-03
      0.275000          0.199185E-03
      0.280000          0.189511E-03
      0.285000          0.181172E-03
      0.290000          0.174079E-03
      0.295000          0.168123E-03
      0.300000          0.163184E-03
      0.305000          0.159131E-03
      0.310000          0.155833E-03
      0.315000          0.153158E-03
      0.320000          0.150980E-03
      0.325000          0.149179E-03
      0.330000          0.147650E-03
      0.335000          0.146295E-03
      0.340000          0.145033E-03
      0.345000          0.143791E-03
      0.350000          0.142511E-03
      0.355000          0.141145E-03
      0.360000          0.139658E-03
      0.365000          0.138025E-03
      0.370000          0.136231E-03
      0.375000          0.134272E-03
      0.380000          0.132157E-03
      0.385000          0.129901E-03
      0.390000          0.127530E-03
      0.395000          0.125078E-03
      0.400000          0.122584E-03
      0.405000          0.120090E-03
      0.410000          0.117639E-03
      0.415000          0.115272E-03
      0.420000          0.113027E-03
      0.425000          0.110933E-03
      0.430000          0.109012E-03
      0.435000          0.107273E-03
      0.440000          0.105719E-03
      0.445000          0.104340E-03
      0.450000          0.103116E-03
      0.455000          0.102022E-03
      0.460000          0.101027E-03
      0.465000          0.100099E-03
      0.470000          0.992044E-04
      0.475000          0.983144E-04
      0.480000          0.974052E-04
      0.485000          0.964602E-04
      0.490000          0.954708E-04
      0.495000          0.944372E-04
      0.500000          0.933676E-04
