 I_abs(s)[cm^-1]/c[mg/ml]
       0.00000          0.139842E-01
      0.500000E-02      0.139207E-01
      0.100000E-01      0.137323E-01
      0.150000E-01      0.134251E-01
      0.200000E-01      0.130088E-01
      0.250000E-01      0.124964E-01
      0.300000E-01      0.119034E-01
      0.350000E-01      0.112469E-01
      0.400000E-01      0.105449E-01
      0.450000E-01      0.981550E-02
      0.500000E-01      0.907598E-02
      0.550000E-01      0.834220E-02
      0.600000E-01      0.762802E-02
      0.650000E-01      0.694489E-02
      0.700000E-01      0.630168E-02
      0.750000E-01      0.570456E-02
      0.800000E-01      0.515715E-02
      0.850000E-01      0.466074E-02
      0.900000E-01      0.421463E-02
      0.950000E-01      0.381650E-02
      0.100000          0.346287E-02
      0.105000          0.314950E-02
      0.110000          0.287179E-02
      0.115000          0.262509E-02
      0.120000          0.240498E-02
      0.125000          0.220748E-02
      0.130000          0.202909E-02
      0.135000          0.186692E-02
      0.140000          0.171861E-02
      0.145000          0.158232E-02
      0.150000          0.145663E-02
      0.155000          0.134047E-02
      0.160000          0.123300E-02
      0.165000          0.113356E-02
      0.170000          0.104159E-02
      0.175000          0.956612E-03
      0.180000          0.878157E-03
      0.185000          0.805798E-03
      0.190000          0.739131E-03
      0.195000          0.677787E-03
      0.200000          0.621435E-03
      0.205000          0.569793E-03
      0.210000          0.522629E-03
      0.215000          0.479752E-03
      0.220000          0.441004E-03
      0.225000          0.406247E-03
      0.230000          0.375340E-03
      0.235000          0.348123E-03
      0.240000          0.324406E-03
      0.245000          0.303955E-03
      0.250000          0.286488E-03
      0.255000          0.271678E-03
      0.260000          0.259165E-03
      0.265000          0.248563E-03
      0.270000          0.239484E-03
      0.275000          0.231553E-03
      0.280000          0.224428E-03
      0.285000          0.217813E-03
      0.290000          0.211473E-03
      0.295000          0.205236E-03
      0.300000          0.198999E-03
      0.305000          0.192721E-03
      0.310000          0.186414E-03
      0.315000          0.180134E-03
      0.320000          0.173966E-03
      0.325000          0.168008E-03
      0.330000          0.162360E-03
      0.335000          0.157113E-03
      0.340000          0.152337E-03
      0.345000          0.148076E-03
      0.350000          0.144349E-03
      0.355000          0.141144E-03
      0.360000          0.138425E-03
      0.365000          0.136137E-03
      0.370000          0.134209E-03
      0.375000          0.132562E-03
      0.380000          0.131116E-03
      0.385000          0.129796E-03
      0.390000          0.128532E-03
      0.395000          0.127271E-03
      0.400000          0.125968E-03
      0.405000          0.124598E-03
      0.410000          0.123146E-03
      0.415000          0.121612E-03
      0.420000          0.120005E-03
      0.425000          0.118344E-03
      0.430000          0.116652E-03
      0.435000          0.114956E-03
      0.440000          0.113284E-03
      0.445000          0.111664E-03
      0.450000          0.110118E-03
      0.455000          0.108669E-03
      0.460000          0.107330E-03
      0.465000          0.106115E-03
      0.470000          0.105029E-03
      0.475000          0.104073E-03
      0.480000          0.103244E-03
      0.485000          0.102535E-03
      0.490000          0.101936E-03
      0.495000          0.101433E-03
      0.500000          0.101010E-03
