 I_abs(s)[cm^-1]/c[mg/ml]
       0.00000          0.137052E-01
      0.500000E-02      0.136364E-01
      0.100000E-01      0.134326E-01
      0.150000E-01      0.131011E-01
      0.200000E-01      0.126537E-01
      0.250000E-01      0.121057E-01
      0.300000E-01      0.114755E-01
      0.350000E-01      0.107830E-01
      0.400000E-01      0.100489E-01
      0.450000E-01      0.929363E-02
      0.500000E-01      0.853621E-02
      0.550000E-01      0.779358E-02
      0.600000E-01      0.707997E-02
      0.650000E-01      0.640653E-02
      0.700000E-01      0.578120E-02
      0.750000E-01      0.520880E-02
      0.800000E-01      0.469126E-02
      0.850000E-01      0.422803E-02
      0.900000E-01      0.381663E-02
      0.950000E-01      0.345311E-02
      0.100000          0.313264E-02
      0.105000          0.284999E-02
      0.110000          0.259991E-02
      0.115000          0.237749E-02
      0.120000          0.217835E-02
      0.125000          0.199874E-02
      0.130000          0.183561E-02
      0.135000          0.168658E-02
      0.140000          0.154980E-02
      0.145000          0.142390E-02
      0.150000          0.130785E-02
      0.155000          0.120086E-02
      0.160000          0.110231E-02
      0.165000          0.101164E-02
      0.170000          0.928363E-03
      0.175000          0.851990E-03
      0.180000          0.782071E-03
      0.185000          0.718172E-03
      0.190000          0.659895E-03
      0.195000          0.606879E-03
      0.200000          0.558803E-03
      0.205000          0.515384E-03
      0.210000          0.476367E-03
      0.215000          0.441512E-03
      0.220000          0.410579E-03
      0.225000          0.383317E-03
      0.230000          0.359453E-03
      0.235000          0.338687E-03
      0.240000          0.320694E-03
      0.245000          0.305131E-03
      0.250000          0.291646E-03
      0.255000          0.279893E-03
      0.260000          0.269547E-03
      0.265000          0.260312E-03
      0.270000          0.251937E-03
      0.275000          0.244216E-03
      0.280000          0.236995E-03
      0.285000          0.230165E-03
      0.290000          0.223660E-03
      0.295000          0.217444E-03
      0.300000          0.211507E-03
      0.305000          0.205852E-03
      0.310000          0.200490E-03
      0.315000          0.195427E-03
      0.320000          0.190665E-03
      0.325000          0.186200E-03
      0.330000          0.182015E-03
      0.335000          0.178088E-03
      0.340000          0.174391E-03
      0.345000          0.170893E-03
      0.350000          0.167564E-03
      0.355000          0.164375E-03
      0.360000          0.161305E-03
      0.365000          0.158338E-03
      0.370000          0.155465E-03
      0.375000          0.152686E-03
      0.380000          0.150007E-03
      0.385000          0.147438E-03
      0.390000          0.144994E-03
      0.395000          0.142692E-03
      0.400000          0.140546E-03
      0.405000          0.138570E-03
      0.410000          0.136771E-03
      0.415000          0.135151E-03
      0.420000          0.133705E-03
      0.425000          0.132421E-03
      0.430000          0.131280E-03
      0.435000          0.130256E-03
      0.440000          0.129320E-03
      0.445000          0.128440E-03
      0.450000          0.127583E-03
      0.455000          0.126719E-03
      0.460000          0.125819E-03
      0.465000          0.124862E-03
      0.470000          0.123829E-03
      0.475000          0.122708E-03
      0.480000          0.121493E-03
      0.485000          0.120183E-03
      0.490000          0.118780E-03
      0.495000          0.117287E-03
      0.500000          0.115713E-03
