 I_abs(s)[cm^-1]/c[mg/ml]
       0.00000          0.140154E-01
      0.500000E-02      0.139585E-01
      0.100000E-01      0.137893E-01
      0.150000E-01      0.135121E-01
      0.200000E-01      0.131341E-01
      0.250000E-01      0.126646E-01
      0.300000E-01      0.121152E-01
      0.350000E-01      0.114990E-01
      0.400000E-01      0.108304E-01
      0.450000E-01      0.101242E-01
      0.500000E-01      0.939543E-02
      0.550000E-01      0.865857E-02
      0.600000E-01      0.792728E-02
      0.650000E-01      0.721395E-02
      0.700000E-01      0.652931E-02
      0.750000E-01      0.588226E-02
      0.800000E-01      0.527966E-02
      0.850000E-01      0.472636E-02
      0.900000E-01      0.422515E-02
      0.950000E-01      0.377694E-02
      0.100000          0.338092E-02
      0.105000          0.303480E-02
      0.110000          0.273510E-02
      0.115000          0.247748E-02
      0.120000          0.225698E-02
      0.125000          0.206838E-02
      0.130000          0.190644E-02
      0.135000          0.176614E-02
      0.140000          0.164286E-02
      0.145000          0.153258E-02
      0.150000          0.143187E-02
      0.155000          0.133802E-02
      0.160000          0.124902E-02
      0.165000          0.116350E-02
      0.170000          0.108065E-02
      0.175000          0.100018E-02
      0.180000          0.922161E-03
      0.185000          0.846928E-03
      0.190000          0.774988E-03
      0.195000          0.706909E-03
      0.200000          0.643234E-03
      0.205000          0.584423E-03
      0.210000          0.530798E-03
      0.215000          0.482523E-03
      0.220000          0.439590E-03
      0.225000          0.401833E-03
      0.230000          0.368940E-03
      0.235000          0.340492E-03
      0.240000          0.315988E-03
      0.245000          0.294890E-03
      0.250000          0.276655E-03
      0.255000          0.260765E-03
      0.260000          0.246753E-03
      0.265000          0.234220E-03
      0.270000          0.222849E-03
      0.275000          0.212400E-03
      0.280000          0.202714E-03
      0.285000          0.193697E-03
      0.290000          0.185310E-03
      0.295000          0.177553E-03
      0.300000          0.170450E-03
      0.305000          0.164031E-03
      0.310000          0.158320E-03
      0.315000          0.153325E-03
      0.320000          0.149032E-03
      0.325000          0.145401E-03
      0.330000          0.142363E-03
      0.335000          0.139831E-03
      0.340000          0.137695E-03
      0.345000          0.135840E-03
      0.350000          0.134146E-03
      0.355000          0.132498E-03
      0.360000          0.130795E-03
      0.365000          0.128954E-03
      0.370000          0.126915E-03
      0.375000          0.124643E-03
      0.380000          0.122128E-03
      0.385000          0.119384E-03
      0.390000          0.116447E-03
      0.395000          0.113367E-03
      0.400000          0.110207E-03
      0.405000          0.107037E-03
      0.410000          0.103927E-03
      0.415000          0.100942E-03
      0.420000          0.981410E-04
      0.425000          0.955700E-04
      0.430000          0.932630E-04
      0.435000          0.912395E-04
      0.440000          0.895054E-04
      0.445000          0.880539E-04
      0.450000          0.868673E-04
      0.455000          0.859196E-04
      0.460000          0.851790E-04
      0.465000          0.846107E-04
      0.470000          0.841796E-04
      0.475000          0.838525E-04
      0.480000          0.835998E-04
      0.485000          0.833973E-04
      0.490000          0.832264E-04
      0.495000          0.830747E-04
      0.500000          0.829357E-04
