 I_abs(s)[cm^-1]/c[mg/ml]
       0.00000          0.138056E-01
      0.500000E-02      0.137371E-01
      0.100000E-01      0.135339E-01
      0.150000E-01      0.132034E-01
      0.200000E-01      0.127570E-01
      0.250000E-01      0.122100E-01
      0.300000E-01      0.115804E-01
      0.350000E-01      0.108880E-01
      0.400000E-01      0.101536E-01
      0.450000E-01      0.939732E-02
      0.500000E-01      0.863840E-02
      0.550000E-01      0.789392E-02
      0.600000E-01      0.717834E-02
      0.650000E-01      0.650307E-02
      0.700000E-01      0.587633E-02
      0.750000E-01      0.530315E-02
      0.800000E-01      0.478564E-02
      0.850000E-01      0.432335E-02
      0.900000E-01      0.391377E-02
      0.950000E-01      0.355285E-02
      0.100000          0.323558E-02
      0.105000          0.295651E-02
      0.110000          0.271015E-02
      0.115000          0.249136E-02
      0.120000          0.229558E-02
      0.125000          0.211897E-02
      0.130000          0.195845E-02
      0.135000          0.181167E-02
      0.140000          0.167691E-02
      0.145000          0.155296E-02
      0.150000          0.143895E-02
      0.155000          0.133424E-02
      0.160000          0.123828E-02
      0.165000          0.115054E-02
      0.170000          0.107046E-02
      0.175000          0.997391E-03
      0.180000          0.930655E-03
      0.185000          0.869530E-03
      0.190000          0.813304E-03
      0.195000          0.761309E-03
      0.200000          0.712959E-03
      0.205000          0.667770E-03
      0.210000          0.625373E-03
      0.215000          0.585510E-03
      0.220000          0.548025E-03
      0.225000          0.512834E-03
      0.230000          0.479907E-03
      0.235000          0.449234E-03
      0.240000          0.420804E-03
      0.245000          0.394587E-03
      0.250000          0.370523E-03
      0.255000          0.348515E-03
      0.260000          0.328438E-03
      0.265000          0.310140E-03
      0.270000          0.293458E-03
      0.275000          0.278226E-03
      0.280000          0.264284E-03
      0.285000          0.251489E-03
      0.290000          0.239716E-03
      0.295000          0.228860E-03
      0.300000          0.218832E-03
      0.305000          0.209557E-03
      0.310000          0.200968E-03
      0.315000          0.193001E-03
      0.320000          0.185593E-03
      0.325000          0.178681E-03
      0.330000          0.172201E-03
      0.335000          0.166091E-03
      0.340000          0.160296E-03
      0.345000          0.154770E-03
      0.350000          0.149480E-03
      0.355000          0.144410E-03
      0.360000          0.139558E-03
      0.365000          0.134939E-03
      0.370000          0.130578E-03
      0.375000          0.126508E-03
      0.380000          0.122762E-03
      0.385000          0.119369E-03
      0.390000          0.116346E-03
      0.395000          0.113698E-03
      0.400000          0.111412E-03
      0.405000          0.109459E-03
      0.410000          0.107795E-03
      0.415000          0.106368E-03
      0.420000          0.105116E-03
      0.425000          0.103981E-03
      0.430000          0.102910E-03
      0.435000          0.101859E-03
      0.440000          0.100800E-03
      0.445000          0.997206E-04
      0.450000          0.986253E-04
      0.455000          0.975323E-04
      0.460000          0.964716E-04
      0.465000          0.954798E-04
      0.470000          0.945957E-04
      0.475000          0.938555E-04
      0.480000          0.932882E-04
      0.485000          0.929123E-04
      0.490000          0.927342E-04
      0.495000          0.927470E-04
      0.500000          0.929317E-04
