 I_abs(s)[cm^-1]/c[mg/ml]
       0.00000          0.137206E-01
      0.500000E-02      0.136579E-01
      0.100000E-01      0.134718E-01
      0.150000E-01      0.131688E-01
      0.200000E-01      0.127590E-01
      0.250000E-01      0.122557E-01
      0.300000E-01      0.116749E-01
      0.350000E-01      0.110341E-01
      0.400000E-01      0.103518E-01
      0.450000E-01      0.964602E-02
      0.500000E-01      0.893407E-02
      0.550000E-01      0.823150E-02
      0.600000E-01      0.755161E-02
      0.650000E-01      0.690508E-02
      0.700000E-01      0.629978E-02
      0.750000E-01      0.574079E-02
      0.800000E-01      0.523053E-02
      0.850000E-01      0.476910E-02
      0.900000E-01      0.435464E-02
      0.950000E-01      0.398387E-02
      0.100000          0.365250E-02
      0.105000          0.335572E-02
      0.110000          0.308863E-02
      0.115000          0.284657E-02
      0.120000          0.262535E-02
      0.125000          0.242144E-02
      0.130000          0.223204E-02
      0.135000          0.205504E-02
      0.140000          0.188901E-02
      0.145000          0.173304E-02
      0.150000          0.158667E-02
      0.155000          0.144967E-02
      0.160000          0.132200E-02
      0.165000          0.120365E-02
      0.170000          0.109457E-02
      0.175000          0.994649E-03
      0.180000          0.903628E-03
      0.185000          0.821157E-03
      0.190000          0.746780E-03
      0.195000          0.679972E-03
      0.200000          0.620164E-03
      0.205000          0.566776E-03
      0.210000          0.519236E-03
      0.215000          0.477001E-03
      0.220000          0.439562E-03
      0.225000          0.406450E-03
      0.230000          0.377229E-03
      0.235000          0.351488E-03
      0.240000          0.328842E-03
      0.245000          0.308915E-03
      0.250000          0.291348E-03
      0.255000          0.275793E-03
      0.260000          0.261918E-03
      0.265000          0.249415E-03
      0.270000          0.238008E-03
      0.275000          0.227456E-03
      0.280000          0.217567E-03
      0.285000          0.208195E-03
      0.290000          0.199243E-03
      0.295000          0.190661E-03
      0.300000          0.182436E-03
      0.305000          0.174589E-03
      0.310000          0.167160E-03
      0.315000          0.160196E-03
      0.320000          0.153749E-03
      0.325000          0.147857E-03
      0.330000          0.142543E-03
      0.335000          0.137813E-03
      0.340000          0.133651E-03
      0.345000          0.130021E-03
      0.350000          0.126873E-03
      0.355000          0.124143E-03
      0.360000          0.121764E-03
      0.365000          0.119666E-03
      0.370000          0.117783E-03
      0.375000          0.116057E-03
      0.380000          0.114441E-03
      0.385000          0.112898E-03
      0.390000          0.111405E-03
      0.395000          0.109947E-03
      0.400000          0.108521E-03
      0.405000          0.107132E-03
      0.410000          0.105789E-03
      0.415000          0.104506E-03
      0.420000          0.103298E-03
      0.425000          0.102177E-03
      0.430000          0.101158E-03
      0.435000          0.100248E-03
      0.440000          0.994518E-04
      0.445000          0.987694E-04
      0.450000          0.981949E-04
      0.455000          0.977172E-04
      0.460000          0.973203E-04
      0.465000          0.969836E-04
      0.470000          0.966836E-04
      0.475000          0.963944E-04
      0.480000          0.960902E-04
      0.485000          0.957463E-04
      0.490000          0.953414E-04
      0.495000          0.948591E-04
      0.500000          0.942893E-04
