 I_abs(s)[cm^-1]/c[mg/ml]
       0.00000          0.138133E-01
      0.500000E-02      0.137516E-01
      0.100000E-01      0.135681E-01
      0.150000E-01      0.132680E-01
      0.200000E-01      0.128594E-01
      0.250000E-01      0.123536E-01
      0.300000E-01      0.117638E-01
      0.350000E-01      0.111054E-01
      0.400000E-01      0.103946E-01
      0.450000E-01      0.964846E-02
      0.500000E-01      0.888376E-02
      0.550000E-01      0.811664E-02
      0.600000E-01      0.736199E-02
      0.650000E-01      0.663301E-02
      0.700000E-01      0.594085E-02
      0.750000E-01      0.529441E-02
      0.800000E-01      0.470019E-02
      0.850000E-01      0.416229E-02
      0.900000E-01      0.368253E-02
      0.950000E-01      0.326065E-02
      0.100000          0.289456E-02
      0.105000          0.258071E-02
      0.110000          0.231439E-02
      0.115000          0.209015E-02
      0.120000          0.190214E-02
      0.125000          0.174443E-02
      0.130000          0.161129E-02
      0.135000          0.149745E-02
      0.140000          0.139824E-02
      0.145000          0.130975E-02
      0.150000          0.122882E-02
      0.155000          0.115308E-02
      0.160000          0.108092E-02
      0.165000          0.101135E-02
      0.170000          0.943939E-03
      0.175000          0.878694E-03
      0.180000          0.815907E-03
      0.185000          0.756051E-03
      0.190000          0.699669E-03
      0.195000          0.647279E-03
      0.200000          0.599306E-03
      0.205000          0.556028E-03
      0.210000          0.517558E-03
      0.215000          0.483828E-03
      0.220000          0.454605E-03
      0.225000          0.429514E-03
      0.230000          0.408069E-03
      0.235000          0.389713E-03
      0.240000          0.373858E-03
      0.245000          0.359918E-03
      0.250000          0.347347E-03
      0.255000          0.335664E-03
      0.260000          0.324469E-03
      0.265000          0.313452E-03
      0.270000          0.302404E-03
      0.275000          0.291203E-03
      0.280000          0.279810E-03
      0.285000          0.268257E-03
      0.290000          0.256626E-03
      0.295000          0.245033E-03
      0.300000          0.233614E-03
      0.305000          0.222510E-03
      0.310000          0.211848E-03
      0.315000          0.201737E-03
      0.320000          0.192260E-03
      0.325000          0.183470E-03
      0.330000          0.175388E-03
      0.335000          0.168006E-03
      0.340000          0.161293E-03
      0.345000          0.155197E-03
      0.350000          0.149656E-03
      0.355000          0.144600E-03
      0.360000          0.139960E-03
      0.365000          0.135673E-03
      0.370000          0.131686E-03
      0.375000          0.127961E-03
      0.380000          0.124472E-03
      0.385000          0.121211E-03
      0.390000          0.118183E-03
      0.395000          0.115404E-03
      0.400000          0.112899E-03
      0.405000          0.110699E-03
      0.410000          0.108834E-03
      0.415000          0.107332E-03
      0.420000          0.106214E-03
      0.425000          0.105492E-03
      0.430000          0.105166E-03
      0.435000          0.105221E-03
      0.440000          0.105633E-03
      0.445000          0.106361E-03
      0.450000          0.107355E-03
      0.455000          0.108556E-03
      0.460000          0.109899E-03
      0.465000          0.111316E-03
      0.470000          0.112740E-03
      0.475000          0.114107E-03
      0.480000          0.115361E-03
      0.485000          0.116453E-03
      0.490000          0.117348E-03
      0.495000          0.118021E-03
      0.500000          0.118463E-03
