 I_abs(s)[cm^-1]/c[mg/ml]
       0.00000          0.137592E-01
      0.500000E-02      0.136958E-01
      0.100000E-01      0.135077E-01
      0.150000E-01      0.132015E-01
      0.200000E-01      0.127877E-01
      0.250000E-01      0.122800E-01
      0.300000E-01      0.116949E-01
      0.350000E-01      0.110503E-01
      0.400000E-01      0.103647E-01
      0.450000E-01      0.965655E-02
      0.500000E-01      0.894307E-02
      0.550000E-01      0.823967E-02
      0.600000E-01      0.755936E-02
      0.650000E-01      0.691246E-02
      0.700000E-01      0.630644E-02
      0.750000E-01      0.574599E-02
      0.800000E-01      0.523322E-02
      0.850000E-01      0.476803E-02
      0.900000E-01      0.434855E-02
      0.950000E-01      0.397159E-02
      0.100000          0.363317E-02
      0.105000          0.332889E-02
      0.110000          0.305434E-02
      0.115000          0.280539E-02
      0.120000          0.257833E-02
      0.125000          0.237008E-02
      0.130000          0.217811E-02
      0.135000          0.200047E-02
      0.140000          0.183571E-02
      0.145000          0.168276E-02
      0.150000          0.154084E-02
      0.155000          0.140934E-02
      0.160000          0.128778E-02
      0.165000          0.117570E-02
      0.170000          0.107267E-02
      0.175000          0.978236E-03
      0.180000          0.891942E-03
      0.185000          0.813326E-03
      0.190000          0.741935E-03
      0.195000          0.677333E-03
      0.200000          0.619108E-03
      0.205000          0.566868E-03
      0.210000          0.520236E-03
      0.215000          0.478837E-03
      0.220000          0.442286E-03
      0.225000          0.410184E-03
      0.230000          0.382102E-03
      0.235000          0.357588E-03
      0.240000          0.336175E-03
      0.245000          0.317385E-03
      0.250000          0.300756E-03
      0.255000          0.285853E-03
      0.260000          0.272291E-03
      0.265000          0.259746E-03
      0.270000          0.247969E-03
      0.275000          0.236788E-03
      0.280000          0.226103E-03
      0.285000          0.215880E-03
      0.290000          0.206133E-03
      0.295000          0.196910E-03
      0.300000          0.188273E-03
      0.305000          0.180284E-03
      0.310000          0.172988E-03
      0.315000          0.166409E-03
      0.320000          0.160540E-03
      0.325000          0.155347E-03
      0.330000          0.150775E-03
      0.335000          0.146749E-03
      0.340000          0.143189E-03
      0.345000          0.140012E-03
      0.350000          0.137145E-03
      0.355000          0.134523E-03
      0.360000          0.132098E-03
      0.365000          0.129836E-03
      0.370000          0.127712E-03
      0.375000          0.125712E-03
      0.380000          0.123825E-03
      0.385000          0.122042E-03
      0.390000          0.120351E-03
      0.395000          0.118738E-03
      0.400000          0.117185E-03
      0.405000          0.115674E-03
      0.410000          0.114187E-03
      0.415000          0.112709E-03
      0.420000          0.111232E-03
      0.425000          0.109756E-03
      0.430000          0.108288E-03
      0.435000          0.106844E-03
      0.440000          0.105444E-03
      0.445000          0.104113E-03
      0.450000          0.102874E-03
      0.455000          0.101748E-03
      0.460000          0.100750E-03
      0.465000          0.998860E-04
      0.470000          0.991548E-04
      0.475000          0.985470E-04
      0.480000          0.980474E-04
      0.485000          0.976368E-04
      0.490000          0.972951E-04
      0.495000          0.970036E-04
      0.500000          0.967474E-04
