 I_abs(s)[cm^-1]/c[mg/ml]
       0.00000          0.140544E-01
      0.500000E-02      0.139947E-01
      0.100000E-01      0.138172E-01
      0.150000E-01      0.135264E-01
      0.200000E-01      0.131297E-01
      0.250000E-01      0.126368E-01
      0.300000E-01      0.120599E-01
      0.350000E-01      0.114126E-01
      0.400000E-01      0.107100E-01
      0.450000E-01      0.996775E-02
      0.500000E-01      0.920160E-02
      0.550000E-01      0.842701E-02
      0.600000E-01      0.765855E-02
      0.650000E-01      0.690948E-02
      0.700000E-01      0.619145E-02
      0.750000E-01      0.551418E-02
      0.800000E-01      0.488531E-02
      0.850000E-01      0.431030E-02
      0.900000E-01      0.379249E-02
      0.950000E-01      0.333312E-02
      0.100000          0.293159E-02
      0.105000          0.258562E-02
      0.110000          0.229158E-02
      0.115000          0.204478E-02
      0.120000          0.183980E-02
      0.125000          0.167079E-02
      0.130000          0.153181E-02
      0.135000          0.141702E-02
      0.140000          0.132101E-02
      0.145000          0.123890E-02
      0.150000          0.116648E-02
      0.155000          0.110033E-02
      0.160000          0.103780E-02
      0.165000          0.977006E-03
      0.170000          0.916786E-03
      0.175000          0.856604E-03
      0.180000          0.796446E-03
      0.185000          0.736701E-03
      0.190000          0.678035E-03
      0.195000          0.621275E-03
      0.200000          0.567301E-03
      0.205000          0.516947E-03
      0.210000          0.470929E-03
      0.215000          0.429790E-03
      0.220000          0.393869E-03
      0.225000          0.363283E-03
      0.230000          0.337936E-03
      0.235000          0.317537E-03
      0.240000          0.301630E-03
      0.245000          0.289636E-03
      0.250000          0.280896E-03
      0.255000          0.274713E-03
      0.260000          0.270393E-03
      0.265000          0.267285E-03
      0.270000          0.264807E-03
      0.275000          0.262470E-03
      0.280000          0.259887E-03
      0.285000          0.256786E-03
      0.290000          0.253002E-03
      0.295000          0.248468E-03
      0.300000          0.243205E-03
      0.305000          0.237305E-03
      0.310000          0.230908E-03
      0.315000          0.224188E-03
      0.320000          0.217331E-03
      0.325000          0.210521E-03
      0.330000          0.203925E-03
      0.335000          0.197682E-03
      0.340000          0.191899E-03
      0.345000          0.186646E-03
      0.350000          0.181953E-03
      0.355000          0.177817E-03
      0.360000          0.174204E-03
      0.365000          0.171056E-03
      0.370000          0.168297E-03
      0.375000          0.165841E-03
      0.380000          0.163601E-03
      0.385000          0.161491E-03
      0.390000          0.159437E-03
      0.395000          0.157374E-03
      0.400000          0.155256E-03
      0.405000          0.153051E-03
      0.410000          0.150747E-03
      0.415000          0.148343E-03
      0.420000          0.145853E-03
      0.425000          0.143302E-03
      0.430000          0.140720E-03
      0.435000          0.138142E-03
      0.440000          0.135601E-03
      0.445000          0.133130E-03
      0.450000          0.130756E-03
      0.455000          0.128500E-03
      0.460000          0.126373E-03
      0.465000          0.124380E-03
      0.470000          0.122519E-03
      0.475000          0.120780E-03
      0.480000          0.119148E-03
      0.485000          0.117603E-03
      0.490000          0.116125E-03
      0.495000          0.114692E-03
      0.500000          0.113283E-03
