 I_abs(s)[cm^-1]/c[mg/ml]
       0.00000          0.138986E-01
      0.500000E-02      0.138488E-01
      0.100000E-01      0.137005E-01
      0.150000E-01      0.134571E-01
      0.200000E-01      0.131241E-01
      0.250000E-01      0.127089E-01
      0.300000E-01      0.122206E-01
      0.350000E-01      0.116695E-01
      0.400000E-01      0.110671E-01
      0.450000E-01      0.104253E-01
      0.500000E-01      0.975610E-02
      0.550000E-01      0.907151E-02
      0.600000E-01      0.838290E-02
      0.650000E-01      0.770081E-02
      0.700000E-01      0.703469E-02
      0.750000E-01      0.639271E-02
      0.800000E-01      0.578159E-02
      0.850000E-01      0.520661E-02
      0.900000E-01      0.467155E-02
      0.950000E-01      0.417876E-02
      0.100000          0.372929E-02
      0.105000          0.332298E-02
      0.110000          0.295870E-02
      0.115000          0.263447E-02
      0.120000          0.234772E-02
      0.125000          0.209544E-02
      0.130000          0.187436E-02
      0.135000          0.168113E-02
      0.140000          0.151245E-02
      0.145000          0.136516E-02
      0.150000          0.123635E-02
      0.155000          0.112339E-02
      0.160000          0.102397E-02
      0.165000          0.936084E-03
      0.170000          0.858050E-03
      0.175000          0.788464E-03
      0.180000          0.726171E-03
      0.185000          0.670226E-03
      0.190000          0.619855E-03
      0.195000          0.574419E-03
      0.200000          0.533379E-03
      0.205000          0.496273E-03
      0.210000          0.462690E-03
      0.215000          0.432262E-03
      0.220000          0.404650E-03
      0.225000          0.379545E-03
      0.230000          0.356663E-03
      0.235000          0.335748E-03
      0.240000          0.316574E-03
      0.245000          0.298950E-03
      0.250000          0.282714E-03
      0.255000          0.267739E-03
      0.260000          0.253927E-03
      0.265000          0.241205E-03
      0.270000          0.229521E-03
      0.275000          0.218837E-03
      0.280000          0.209120E-03
      0.285000          0.200341E-03
      0.290000          0.192463E-03
      0.295000          0.185441E-03
      0.300000          0.179216E-03
      0.305000          0.173718E-03
      0.310000          0.168862E-03
      0.315000          0.164554E-03
      0.320000          0.160692E-03
      0.325000          0.157171E-03
      0.330000          0.153890E-03
      0.335000          0.150752E-03
      0.340000          0.147676E-03
      0.345000          0.144592E-03
      0.350000          0.141454E-03
      0.355000          0.138230E-03
      0.360000          0.134914E-03
      0.365000          0.131516E-03
      0.370000          0.128063E-03
      0.375000          0.124596E-03
      0.380000          0.121168E-03
      0.385000          0.117836E-03
      0.390000          0.114655E-03
      0.395000          0.111682E-03
      0.400000          0.108961E-03
      0.405000          0.106530E-03
      0.410000          0.104412E-03
      0.415000          0.102615E-03
      0.420000          0.101134E-03
      0.425000          0.999493E-04
      0.430000          0.990304E-04
      0.435000          0.983358E-04
      0.440000          0.978176E-04
      0.445000          0.974244E-04
      0.450000          0.971048E-04
      0.455000          0.968105E-04
      0.460000          0.964989E-04
      0.465000          0.961361E-04
      0.470000          0.956981E-04
      0.475000          0.951719E-04
      0.480000          0.945555E-04
      0.485000          0.938574E-04
      0.490000          0.930948E-04
      0.495000          0.922923E-04
      0.500000          0.914790E-04
