 I_abs(s)[cm^-1]/c[mg/ml]
       0.00000          0.137206E-01
      0.500000E-02      0.136663E-01
      0.100000E-01      0.135048E-01
      0.150000E-01      0.132400E-01
      0.200000E-01      0.128787E-01
      0.250000E-01      0.124296E-01
      0.300000E-01      0.119035E-01
      0.350000E-01      0.113127E-01
      0.400000E-01      0.106705E-01
      0.450000E-01      0.999100E-02
      0.500000E-01      0.928822E-02
      0.550000E-01      0.857593E-02
      0.600000E-01      0.786708E-02
      0.650000E-01      0.717348E-02
      0.700000E-01      0.650549E-02
      0.750000E-01      0.587177E-02
      0.800000E-01      0.527916E-02
      0.850000E-01      0.473261E-02
      0.900000E-01      0.423520E-02
      0.950000E-01      0.378822E-02
      0.100000          0.339137E-02
      0.105000          0.304293E-02
      0.110000          0.274001E-02
      0.115000          0.247886E-02
      0.120000          0.225507E-02
      0.125000          0.206390E-02
      0.130000          0.190049E-02
      0.135000          0.176011E-02
      0.140000          0.163828E-02
      0.145000          0.153099E-02
      0.150000          0.143474E-02
      0.155000          0.134660E-02
      0.160000          0.126427E-02
      0.165000          0.118601E-02
      0.170000          0.111062E-02
      0.175000          0.103740E-02
      0.180000          0.966006E-03
      0.185000          0.896438E-03
      0.190000          0.828901E-03
      0.195000          0.763746E-03
      0.200000          0.701389E-03
      0.205000          0.642254E-03
      0.210000          0.586720E-03
      0.215000          0.535092E-03
      0.220000          0.487573E-03
      0.225000          0.444263E-03
      0.230000          0.405152E-03
      0.235000          0.370135E-03
      0.240000          0.339025E-03
      0.245000          0.311568E-03
      0.250000          0.287468E-03
      0.255000          0.266402E-03
      0.260000          0.248036E-03
      0.265000          0.232042E-03
      0.270000          0.218108E-03
      0.275000          0.205944E-03
      0.280000          0.195291E-03
      0.285000          0.185918E-03
      0.290000          0.177625E-03
      0.295000          0.170241E-03
      0.300000          0.163621E-03
      0.305000          0.157642E-03
      0.310000          0.152202E-03
      0.315000          0.147217E-03
      0.320000          0.142617E-03
      0.325000          0.138344E-03
      0.330000          0.134353E-03
      0.335000          0.130610E-03
      0.340000          0.127086E-03
      0.345000          0.123766E-03
      0.350000          0.120637E-03
      0.355000          0.117695E-03
      0.360000          0.114940E-03
      0.365000          0.112373E-03
      0.370000          0.110000E-03
      0.375000          0.107825E-03
      0.380000          0.105850E-03
      0.385000          0.104075E-03
      0.390000          0.102497E-03
      0.395000          0.101108E-03
      0.400000          0.998959E-04
      0.405000          0.988449E-04
      0.410000          0.979354E-04
      0.415000          0.971454E-04
      0.420000          0.964514E-04
      0.425000          0.958295E-04
      0.430000          0.952568E-04
      0.435000          0.947119E-04
      0.440000          0.941766E-04
      0.445000          0.936357E-04
      0.450000          0.930776E-04
      0.455000          0.924948E-04
      0.460000          0.918831E-04
      0.465000          0.912417E-04
      0.470000          0.905727E-04
      0.475000          0.898802E-04
      0.480000          0.891705E-04
      0.485000          0.884509E-04
      0.490000          0.877294E-04
      0.495000          0.870149E-04
      0.500000          0.863165E-04
