 I_abs(s)[cm^-1]/c[mg/ml]
       0.00000          0.137824E-01
      0.500000E-02      0.137316E-01
      0.100000E-01      0.135804E-01
      0.150000E-01      0.133322E-01
      0.200000E-01      0.129930E-01
      0.250000E-01      0.125703E-01
      0.300000E-01      0.120736E-01
      0.350000E-01      0.115138E-01
      0.400000E-01      0.109027E-01
      0.450000E-01      0.102528E-01
      0.500000E-01      0.957657E-02
      0.550000E-01      0.888657E-02
      0.600000E-01      0.819463E-02
      0.650000E-01      0.751170E-02
      0.700000E-01      0.684759E-02
      0.750000E-01      0.621071E-02
      0.800000E-01      0.560796E-02
      0.850000E-01      0.504466E-02
      0.900000E-01      0.452452E-02
      0.950000E-01      0.404970E-02
      0.100000          0.362097E-02
      0.105000          0.323776E-02
      0.110000          0.289845E-02
      0.115000          0.260053E-02
      0.120000          0.234079E-02
      0.125000          0.211560E-02
      0.130000          0.192105E-02
      0.135000          0.175318E-02
      0.140000          0.160813E-02
      0.145000          0.148223E-02
      0.150000          0.137215E-02
      0.155000          0.127495E-02
      0.160000          0.118808E-02
      0.165000          0.110945E-02
      0.170000          0.103736E-02
      0.175000          0.970525E-03
      0.180000          0.907969E-03
      0.185000          0.849017E-03
      0.190000          0.793228E-03
      0.195000          0.740333E-03
      0.200000          0.690191E-03
      0.205000          0.642746E-03
      0.210000          0.597980E-03
      0.215000          0.555897E-03
      0.220000          0.516490E-03
      0.225000          0.479737E-03
      0.230000          0.445592E-03
      0.235000          0.413979E-03
      0.240000          0.384800E-03
      0.245000          0.357940E-03
      0.250000          0.333267E-03
      0.255000          0.310645E-03
      0.260000          0.289936E-03
      0.265000          0.271006E-03
      0.270000          0.253726E-03
      0.275000          0.237977E-03
      0.280000          0.223650E-03
      0.285000          0.210642E-03
      0.290000          0.198860E-03
      0.295000          0.188217E-03
      0.300000          0.178632E-03
      0.305000          0.170024E-03
      0.310000          0.162320E-03
      0.315000          0.155446E-03
      0.320000          0.149330E-03
      0.325000          0.143903E-03
      0.330000          0.139098E-03
      0.335000          0.134850E-03
      0.340000          0.131098E-03
      0.345000          0.127783E-03
      0.350000          0.124851E-03
      0.355000          0.122250E-03
      0.360000          0.119933E-03
      0.365000          0.117855E-03
      0.370000          0.115975E-03
      0.375000          0.114253E-03
      0.380000          0.112654E-03
      0.385000          0.111144E-03
      0.390000          0.109694E-03
      0.395000          0.108276E-03
      0.400000          0.106867E-03
      0.405000          0.105450E-03
      0.410000          0.104010E-03
      0.415000          0.102539E-03
      0.420000          0.101035E-03
      0.425000          0.995000E-04
      0.430000          0.979424E-04
      0.435000          0.963749E-04
      0.440000          0.948137E-04
      0.445000          0.932774E-04
      0.450000          0.917860E-04
      0.455000          0.903590E-04
      0.460000          0.890142E-04
      0.465000          0.877666E-04
      0.470000          0.866271E-04
      0.475000          0.856021E-04
      0.480000          0.846931E-04
      0.485000          0.838964E-04
      0.490000          0.832042E-04
      0.495000          0.826049E-04
      0.500000          0.820844E-04
