 I_abs(s)[cm^-1]/c[mg/ml]
       0.00000          0.139375E-01
      0.500000E-02      0.138722E-01
      0.100000E-01      0.136783E-01
      0.150000E-01      0.133618E-01
      0.200000E-01      0.129324E-01
      0.250000E-01      0.124030E-01
      0.300000E-01      0.117892E-01
      0.350000E-01      0.111084E-01
      0.400000E-01      0.103790E-01
      0.450000E-01      0.961974E-02
      0.500000E-01      0.884895E-02
      0.550000E-01      0.808362E-02
      0.600000E-01      0.733895E-02
      0.650000E-01      0.662782E-02
      0.700000E-01      0.596046E-02
      0.750000E-01      0.534432E-02
      0.800000E-01      0.478403E-02
      0.850000E-01      0.428157E-02
      0.900000E-01      0.383652E-02
      0.950000E-01      0.344640E-02
      0.100000          0.310716E-02
      0.105000          0.281358E-02
      0.110000          0.255978E-02
      0.115000          0.233965E-02
      0.120000          0.214722E-02
      0.125000          0.197699E-02
      0.130000          0.182415E-02
      0.135000          0.168474E-02
      0.140000          0.155571E-02
      0.145000          0.143489E-02
      0.150000          0.132094E-02
      0.155000          0.121318E-02
      0.160000          0.111147E-02
      0.165000          0.101603E-02
      0.170000          0.927273E-03
      0.175000          0.845633E-03
      0.180000          0.771474E-03
      0.185000          0.704980E-03
      0.190000          0.646109E-03
      0.195000          0.594573E-03
      0.200000          0.549851E-03
      0.205000          0.511232E-03
      0.210000          0.477872E-03
      0.215000          0.448859E-03
      0.220000          0.423285E-03
      0.225000          0.400306E-03
      0.230000          0.379199E-03
      0.235000          0.359391E-03
      0.240000          0.340485E-03
      0.245000          0.322256E-03
      0.250000          0.304640E-03
      0.255000          0.287706E-03
      0.260000          0.271622E-03
      0.265000          0.256609E-03
      0.270000          0.242906E-03
      0.275000          0.230727E-03
      0.280000          0.220235E-03
      0.285000          0.211516E-03
      0.290000          0.204570E-03
      0.295000          0.199305E-03
      0.300000          0.195548E-03
      0.305000          0.193058E-03
      0.310000          0.191546E-03
      0.315000          0.190697E-03
      0.320000          0.190198E-03
      0.325000          0.189757E-03
      0.330000          0.189122E-03
      0.335000          0.188098E-03
      0.340000          0.186553E-03
      0.345000          0.184421E-03
      0.350000          0.181700E-03
      0.355000          0.178443E-03
      0.360000          0.174749E-03
      0.365000          0.170748E-03
      0.370000          0.166584E-03
      0.375000          0.162406E-03
      0.380000          0.158350E-03
      0.385000          0.154530E-03
      0.390000          0.151031E-03
      0.395000          0.147904E-03
      0.400000          0.145167E-03
      0.405000          0.142802E-03
      0.410000          0.140764E-03
      0.415000          0.138988E-03
      0.420000          0.137393E-03
      0.425000          0.135892E-03
      0.430000          0.134401E-03
      0.435000          0.132844E-03
      0.440000          0.131162E-03
      0.445000          0.129312E-03
      0.450000          0.127274E-03
      0.455000          0.125049E-03
      0.460000          0.122658E-03
      0.465000          0.120138E-03
      0.470000          0.117539E-03
      0.475000          0.114921E-03
      0.480000          0.112344E-03
      0.485000          0.109868E-03
      0.490000          0.107545E-03
      0.495000          0.105416E-03
      0.500000          0.103511E-03
