 I_abs(s)[cm^-1]/c[mg/ml]
       0.00000          0.145446E-01
      0.500000E-02      0.144969E-01
      0.100000E-01      0.143547E-01
      0.150000E-01      0.141208E-01
      0.200000E-01      0.137997E-01
      0.250000E-01      0.133976E-01
      0.300000E-01      0.129219E-01
      0.350000E-01      0.123816E-01
      0.400000E-01      0.117864E-01
      0.450000E-01      0.111467E-01
      0.500000E-01      0.104733E-01
      0.550000E-01      0.977709E-02
      0.600000E-01      0.906888E-02
      0.650000E-01      0.835894E-02
      0.700000E-01      0.765689E-02
      0.750000E-01      0.697146E-02
      0.800000E-01      0.631033E-02
      0.850000E-01      0.568003E-02
      0.900000E-01      0.508583E-02
      0.950000E-01      0.453171E-02
      0.100000          0.402042E-02
      0.105000          0.355346E-02
      0.110000          0.313121E-02
      0.115000          0.275305E-02
      0.120000          0.241745E-02
      0.125000          0.212218E-02
      0.130000          0.186443E-02
      0.135000          0.164097E-02
      0.140000          0.144834E-02
      0.145000          0.128296E-02
      0.150000          0.114130E-02
      0.155000          0.101993E-02
      0.160000          0.915690E-03
      0.165000          0.825688E-03
      0.170000          0.747390E-03
      0.175000          0.678627E-03
      0.180000          0.617601E-03
      0.185000          0.562879E-03
      0.190000          0.513359E-03
      0.195000          0.468236E-03
      0.200000          0.426957E-03
      0.205000          0.389170E-03
      0.210000          0.354674E-03
      0.215000          0.323373E-03
      0.220000          0.295227E-03
      0.225000          0.270219E-03
      0.230000          0.248319E-03
      0.235000          0.229465E-03
      0.240000          0.213544E-03
      0.245000          0.200389E-03
      0.250000          0.189773E-03
      0.255000          0.181420E-03
      0.260000          0.175010E-03
      0.265000          0.170196E-03
      0.270000          0.166620E-03
      0.275000          0.163924E-03
      0.280000          0.161773E-03
      0.285000          0.159860E-03
      0.290000          0.157926E-03
      0.295000          0.155760E-03
      0.300000          0.153211E-03
      0.305000          0.150187E-03
      0.310000          0.146651E-03
      0.315000          0.142619E-03
      0.320000          0.138155E-03
      0.325000          0.133357E-03
      0.330000          0.128352E-03
      0.335000          0.123284E-03
      0.340000          0.118301E-03
      0.345000          0.113551E-03
      0.350000          0.109167E-03
      0.355000          0.105264E-03
      0.360000          0.101933E-03
      0.365000          0.992357E-04
      0.370000          0.972036E-04
      0.375000          0.958394E-04
      0.380000          0.951171E-04
      0.385000          0.949857E-04
      0.390000          0.953735E-04
      0.395000          0.961929E-04
      0.400000          0.973454E-04
      0.405000          0.987279E-04
      0.410000          0.100237E-03
      0.415000          0.101774E-03
      0.420000          0.103251E-03
      0.425000          0.104589E-03
      0.430000          0.105726E-03
      0.435000          0.106616E-03
      0.440000          0.107229E-03
      0.445000          0.107550E-03
      0.450000          0.107580E-03
      0.455000          0.107332E-03
      0.460000          0.106830E-03
      0.465000          0.106107E-03
      0.470000          0.105199E-03
      0.475000          0.104146E-03
      0.480000          0.102987E-03
      0.485000          0.101760E-03
      0.490000          0.100498E-03
      0.495000          0.992282E-04
      0.500000          0.979714E-04
