 I_abs(s)[cm^-1]/c[mg/ml]
       0.00000          0.147037E-01
      0.500000E-02      0.146644E-01
      0.100000E-01      0.145471E-01
      0.150000E-01      0.143535E-01
      0.200000E-01      0.140864E-01
      0.250000E-01      0.137499E-01
      0.300000E-01      0.133487E-01
      0.350000E-01      0.128886E-01
      0.400000E-01      0.123759E-01
      0.450000E-01      0.118178E-01
      0.500000E-01      0.112218E-01
      0.550000E-01      0.105955E-01
      0.600000E-01      0.994695E-02
      0.650000E-01      0.928399E-02
      0.700000E-01      0.861434E-02
      0.750000E-01      0.794540E-02
      0.800000E-01      0.728413E-02
      0.850000E-01      0.663698E-02
      0.900000E-01      0.600972E-02
      0.950000E-01      0.540745E-02
      0.100000          0.483449E-02
      0.105000          0.429439E-02
      0.110000          0.378989E-02
      0.115000          0.332293E-02
      0.120000          0.289470E-02
      0.125000          0.250565E-02
      0.130000          0.215557E-02
      0.135000          0.184364E-02
      0.140000          0.156854E-02
      0.145000          0.132845E-02
      0.150000          0.112125E-02
      0.155000          0.944493E-03
      0.160000          0.795558E-03
      0.165000          0.671706E-03
      0.170000          0.570152E-03
      0.175000          0.488134E-03
      0.180000          0.422970E-03
      0.185000          0.372105E-03
      0.190000          0.333153E-03
      0.195000          0.303926E-03
      0.200000          0.282450E-03
      0.205000          0.266983E-03
      0.210000          0.256016E-03
      0.215000          0.248269E-03
      0.220000          0.242684E-03
      0.225000          0.238409E-03
      0.230000          0.234782E-03
      0.235000          0.231310E-03
      0.240000          0.227646E-03
      0.245000          0.223569E-03
      0.250000          0.218962E-03
      0.255000          0.213785E-03
      0.260000          0.208064E-03
      0.265000          0.201867E-03
      0.270000          0.195289E-03
      0.275000          0.188443E-03
      0.280000          0.181446E-03
      0.285000          0.174408E-03
      0.290000          0.167435E-03
      0.295000          0.160614E-03
      0.300000          0.154020E-03
      0.305000          0.147709E-03
      0.310000          0.141722E-03
      0.315000          0.136086E-03
      0.320000          0.130812E-03
      0.325000          0.125904E-03
      0.330000          0.121354E-03
      0.335000          0.117153E-03
      0.340000          0.113284E-03
      0.345000          0.109729E-03
      0.350000          0.106473E-03
      0.355000          0.103497E-03
      0.360000          0.100788E-03
      0.365000          0.983324E-04
      0.370000          0.961197E-04
      0.375000          0.941416E-04
      0.380000          0.923908E-04
      0.385000          0.908616E-04
      0.390000          0.895483E-04
      0.395000          0.884452E-04
      0.400000          0.875457E-04
      0.405000          0.868419E-04
      0.410000          0.863238E-04
      0.415000          0.859797E-04
      0.420000          0.857953E-04
      0.425000          0.857541E-04
      0.430000          0.858375E-04
      0.435000          0.860246E-04
      0.440000          0.862934E-04
      0.445000          0.866203E-04
      0.450000          0.869813E-04
      0.455000          0.873521E-04
      0.460000          0.877091E-04
      0.465000          0.880295E-04
      0.470000          0.882923E-04
      0.475000          0.884785E-04
      0.480000          0.885717E-04
      0.485000          0.885582E-04
      0.490000          0.884280E-04
      0.495000          0.881740E-04
      0.500000          0.877929E-04
