 I_abs(s)[cm^-1]/c[mg/ml]
       0.00000          0.146559E-01
      0.500000E-02      0.146125E-01
      0.100000E-01      0.144830E-01
      0.150000E-01      0.142695E-01
      0.200000E-01      0.139755E-01
      0.250000E-01      0.136057E-01
      0.300000E-01      0.131660E-01
      0.350000E-01      0.126632E-01
      0.400000E-01      0.121051E-01
      0.450000E-01      0.115001E-01
      0.500000E-01      0.108571E-01
      0.550000E-01      0.101851E-01
      0.600000E-01      0.949353E-02
      0.650000E-01      0.879139E-02
      0.700000E-01      0.808754E-02
      0.750000E-01      0.739033E-02
      0.800000E-01      0.670750E-02
      0.850000E-01      0.604604E-02
      0.900000E-01      0.541209E-02
      0.950000E-01      0.481087E-02
      0.100000          0.424662E-02
      0.105000          0.372260E-02
      0.110000          0.324106E-02
      0.115000          0.280331E-02
      0.120000          0.240973E-02
      0.125000          0.205988E-02
      0.130000          0.175256E-02
      0.135000          0.148594E-02
      0.140000          0.125762E-02
      0.145000          0.106480E-02
      0.150000          0.904348E-03
      0.155000          0.772932E-03
      0.160000          0.667122E-03
      0.165000          0.583485E-03
      0.170000          0.518670E-03
      0.175000          0.469487E-03
      0.180000          0.432958E-03
      0.185000          0.406374E-03
      0.190000          0.387320E-03
      0.195000          0.373698E-03
      0.200000          0.363733E-03
      0.205000          0.355969E-03
      0.210000          0.349257E-03
      0.215000          0.342729E-03
      0.220000          0.335774E-03
      0.225000          0.328004E-03
      0.230000          0.319220E-03
      0.235000          0.309377E-03
      0.240000          0.298546E-03
      0.245000          0.286886E-03
      0.250000          0.274608E-03
      0.255000          0.261953E-03
      0.260000          0.249167E-03
      0.265000          0.236483E-03
      0.270000          0.224110E-03
      0.275000          0.212220E-03
      0.280000          0.200946E-03
      0.285000          0.190380E-03
      0.290000          0.180572E-03
      0.295000          0.171536E-03
      0.300000          0.163254E-03
      0.305000          0.155683E-03
      0.310000          0.148764E-03
      0.315000          0.142425E-03
      0.320000          0.136592E-03
      0.325000          0.131189E-03
      0.330000          0.126150E-03
      0.335000          0.121418E-03
      0.340000          0.116946E-03
      0.345000          0.112705E-03
      0.350000          0.108676E-03
      0.355000          0.104853E-03
      0.360000          0.101242E-03
      0.365000          0.978581E-04
      0.370000          0.947209E-04
      0.375000          0.918538E-04
      0.380000          0.892805E-04
      0.385000          0.870227E-04
      0.390000          0.850975E-04
      0.395000          0.835160E-04
      0.400000          0.822819E-04
      0.405000          0.813910E-04
      0.410000          0.808311E-04
      0.415000          0.805821E-04
      0.420000          0.806171E-04
      0.425000          0.809035E-04
      0.430000          0.814042E-04
      0.435000          0.820794E-04
      0.440000          0.828881E-04
      0.445000          0.837897E-04
      0.450000          0.847454E-04
      0.455000          0.857195E-04
      0.460000          0.866802E-04
      0.465000          0.876008E-04
      0.470000          0.884595E-04
      0.475000          0.892402E-04
      0.480000          0.899319E-04
      0.485000          0.905285E-04
      0.490000          0.910283E-04
      0.495000          0.914334E-04
      0.500000          0.917487E-04
