 I_abs(s)[cm^-1]/c[mg/ml]
       0.00000          0.147515E-01
      0.500000E-02      0.147088E-01
      0.100000E-01      0.145813E-01
      0.150000E-01      0.143714E-01
      0.200000E-01      0.140827E-01
      0.250000E-01      0.137204E-01
      0.300000E-01      0.132905E-01
      0.350000E-01      0.128004E-01
      0.400000E-01      0.122580E-01
      0.450000E-01      0.116719E-01
      0.500000E-01      0.110510E-01
      0.550000E-01      0.104045E-01
      0.600000E-01      0.974124E-02
      0.650000E-01      0.906984E-02
      0.700000E-01      0.839849E-02
      0.750000E-01      0.773468E-02
      0.800000E-01      0.708518E-02
      0.850000E-01      0.645587E-02
      0.900000E-01      0.585175E-02
      0.950000E-01      0.527685E-02
      0.100000          0.473432E-02
      0.105000          0.422638E-02
      0.110000          0.375442E-02
      0.115000          0.331907E-02
      0.120000          0.292028E-02
      0.125000          0.255744E-02
      0.130000          0.222943E-02
      0.135000          0.193477E-02
      0.140000          0.167168E-02
      0.145000          0.143818E-02
      0.150000          0.123218E-02
      0.155000          0.105152E-02
      0.160000          0.894043E-03
      0.165000          0.757637E-03
      0.170000          0.640263E-03
      0.175000          0.539981E-03
      0.180000          0.454967E-03
      0.185000          0.383516E-03
      0.190000          0.324049E-03
      0.195000          0.275109E-03
      0.200000          0.235357E-03
      0.205000          0.203566E-03
      0.210000          0.178615E-03
      0.215000          0.159486E-03
      0.220000          0.145252E-03
      0.225000          0.135076E-03
      0.230000          0.128207E-03
      0.235000          0.123974E-03
      0.240000          0.121786E-03
      0.245000          0.121125E-03
      0.250000          0.121547E-03
      0.255000          0.122675E-03
      0.260000          0.124199E-03
      0.265000          0.125869E-03
      0.270000          0.127492E-03
      0.275000          0.128924E-03
      0.280000          0.130069E-03
      0.285000          0.130871E-03
      0.290000          0.131306E-03
      0.295000          0.131377E-03
      0.300000          0.131113E-03
      0.305000          0.130554E-03
      0.310000          0.129756E-03
      0.315000          0.128778E-03
      0.320000          0.127685E-03
      0.325000          0.126539E-03
      0.330000          0.125399E-03
      0.335000          0.124318E-03
      0.340000          0.123343E-03
      0.345000          0.122510E-03
      0.350000          0.121846E-03
      0.355000          0.121370E-03
      0.360000          0.121088E-03
      0.365000          0.120998E-03
      0.370000          0.121090E-03
      0.375000          0.121342E-03
      0.380000          0.121729E-03
      0.385000          0.122218E-03
      0.390000          0.122771E-03
      0.395000          0.123347E-03
      0.400000          0.123906E-03
      0.405000          0.124405E-03
      0.410000          0.124803E-03
      0.415000          0.125066E-03
      0.420000          0.125159E-03
      0.425000          0.125056E-03
      0.430000          0.124736E-03
      0.435000          0.124186E-03
      0.440000          0.123400E-03
      0.445000          0.122378E-03
      0.450000          0.121129E-03
      0.455000          0.119667E-03
      0.460000          0.118012E-03
      0.465000          0.116190E-03
      0.470000          0.114227E-03
      0.475000          0.112156E-03
      0.480000          0.110008E-03
      0.485000          0.107815E-03
      0.490000          0.105609E-03
      0.495000          0.103418E-03
      0.500000          0.101268E-03
