 I_abs(s)[cm^-1]/c[mg/ml]
       0.00000          0.146638E-01
      0.500000E-02      0.146177E-01
      0.100000E-01      0.144802E-01
      0.150000E-01      0.142538E-01
      0.200000E-01      0.139429E-01
      0.250000E-01      0.135531E-01
      0.300000E-01      0.130914E-01
      0.350000E-01      0.125660E-01
      0.400000E-01      0.119859E-01
      0.450000E-01      0.113609E-01
      0.500000E-01      0.107009E-01
      0.550000E-01      0.100161E-01
      0.600000E-01      0.931643E-02
      0.650000E-01      0.861146E-02
      0.700000E-01      0.791020E-02
      0.750000E-01      0.722087E-02
      0.800000E-01      0.655080E-02
      0.850000E-01      0.590632E-02
      0.900000E-01      0.529268E-02
      0.950000E-01      0.471407E-02
      0.100000          0.417359E-02
      0.105000          0.367335E-02
      0.110000          0.321448E-02
      0.115000          0.279724E-02
      0.120000          0.242115E-02
      0.125000          0.208506E-02
      0.130000          0.178731E-02
      0.135000          0.152581E-02
      0.140000          0.129816E-02
      0.145000          0.110176E-02
      0.150000          0.933906E-03
      0.155000          0.791836E-03
      0.160000          0.672831E-03
      0.165000          0.574245E-03
      0.170000          0.493557E-03
      0.175000          0.428391E-03
      0.180000          0.376543E-03
      0.185000          0.335988E-03
      0.190000          0.304886E-03
      0.195000          0.281578E-03
      0.200000          0.264589E-03
      0.205000          0.252613E-03
      0.210000          0.244513E-03
      0.215000          0.239303E-03
      0.220000          0.236143E-03
      0.225000          0.234329E-03
      0.230000          0.233283E-03
      0.235000          0.232539E-03
      0.240000          0.231738E-03
      0.245000          0.230613E-03
      0.250000          0.228984E-03
      0.255000          0.226744E-03
      0.260000          0.223848E-03
      0.265000          0.220306E-03
      0.270000          0.216170E-03
      0.275000          0.211525E-03
      0.280000          0.206478E-03
      0.285000          0.201154E-03
      0.290000          0.195680E-03
      0.295000          0.190186E-03
      0.300000          0.184792E-03
      0.305000          0.179609E-03
      0.310000          0.174729E-03
      0.315000          0.170228E-03
      0.320000          0.166162E-03
      0.325000          0.162565E-03
      0.330000          0.159452E-03
      0.335000          0.156819E-03
      0.340000          0.154643E-03
      0.345000          0.152888E-03
      0.350000          0.151504E-03
      0.355000          0.150434E-03
      0.360000          0.149613E-03
      0.365000          0.148972E-03
      0.370000          0.148442E-03
      0.375000          0.147955E-03
      0.380000          0.147449E-03
      0.385000          0.146865E-03
      0.390000          0.146155E-03
      0.395000          0.145278E-03
      0.400000          0.144203E-03
      0.405000          0.142909E-03
      0.410000          0.141384E-03
      0.415000          0.139628E-03
      0.420000          0.137648E-03
      0.425000          0.135462E-03
      0.430000          0.133090E-03
      0.435000          0.130564E-03
      0.440000          0.127915E-03
      0.445000          0.125180E-03
      0.450000          0.122398E-03
      0.455000          0.119605E-03
      0.460000          0.116838E-03
      0.465000          0.114132E-03
      0.470000          0.111518E-03
      0.475000          0.109023E-03
      0.480000          0.106668E-03
      0.485000          0.104472E-03
      0.490000          0.102445E-03
      0.495000          0.100594E-03
      0.500000          0.989190E-04
