 I_abs(s)[cm^-1]/c[mg/ml]
       0.00000          0.147755E-01
      0.500000E-02      0.147335E-01
      0.100000E-01      0.146080E-01
      0.150000E-01      0.144012E-01
      0.200000E-01      0.141164E-01
      0.250000E-01      0.137581E-01
      0.300000E-01      0.133320E-01
      0.350000E-01      0.128446E-01
      0.400000E-01      0.123034E-01
      0.450000E-01      0.117165E-01
      0.500000E-01      0.110921E-01
      0.550000E-01      0.104390E-01
      0.600000E-01      0.976592E-02
      0.650000E-01      0.908136E-02
      0.700000E-01      0.839358E-02
      0.750000E-01      0.771035E-02
      0.800000E-01      0.703886E-02
      0.850000E-01      0.638556E-02
      0.900000E-01      0.575616E-02
      0.950000E-01      0.515547E-02
      0.100000          0.458748E-02
      0.105000          0.405526E-02
      0.110000          0.356103E-02
      0.115000          0.310618E-02
      0.120000          0.269134E-02
      0.125000          0.231641E-02
      0.130000          0.198068E-02
      0.135000          0.168290E-02
      0.140000          0.142136E-02
      0.145000          0.119399E-02
      0.150000          0.998446E-03
      0.155000          0.832184E-03
      0.160000          0.692551E-03
      0.165000          0.576847E-03
      0.170000          0.482383E-03
      0.175000          0.406536E-03
      0.180000          0.346793E-03
      0.185000          0.300780E-03
      0.190000          0.266291E-03
      0.195000          0.241303E-03
      0.200000          0.223989E-03
      0.205000          0.212722E-03
      0.210000          0.206071E-03
      0.215000          0.202802E-03
      0.220000          0.201866E-03
      0.225000          0.202388E-03
      0.230000          0.203657E-03
      0.235000          0.205110E-03
      0.240000          0.206320E-03
      0.245000          0.206976E-03
      0.250000          0.206873E-03
      0.255000          0.205894E-03
      0.260000          0.204000E-03
      0.265000          0.201209E-03
      0.270000          0.197589E-03
      0.275000          0.193246E-03
      0.280000          0.188310E-03
      0.285000          0.182926E-03
      0.290000          0.177247E-03
      0.295000          0.171427E-03
      0.300000          0.165612E-03
      0.305000          0.159937E-03
      0.310000          0.154520E-03
      0.315000          0.149462E-03
      0.320000          0.144844E-03
      0.325000          0.140726E-03
      0.330000          0.137146E-03
      0.335000          0.134122E-03
      0.340000          0.131656E-03
      0.345000          0.129728E-03
      0.350000          0.128306E-03
      0.355000          0.127345E-03
      0.360000          0.126789E-03
      0.365000          0.126576E-03
      0.370000          0.126635E-03
      0.375000          0.126897E-03
      0.380000          0.127288E-03
      0.385000          0.127738E-03
      0.390000          0.128178E-03
      0.395000          0.128544E-03
      0.400000          0.128779E-03
      0.405000          0.128830E-03
      0.410000          0.128656E-03
      0.415000          0.128220E-03
      0.420000          0.127496E-03
      0.425000          0.126466E-03
      0.430000          0.125121E-03
      0.435000          0.123461E-03
      0.440000          0.121493E-03
      0.445000          0.119234E-03
      0.450000          0.116705E-03
      0.455000          0.113936E-03
      0.460000          0.110960E-03
      0.465000          0.107816E-03
      0.470000          0.104546E-03
      0.475000          0.101191E-03
      0.480000          0.977978E-04
      0.485000          0.944087E-04
      0.490000          0.910667E-04
      0.495000          0.878118E-04
      0.500000          0.846811E-04
