 I_abs(s)[cm^-1]/c[mg/ml]
       0.00000          0.146081E-01
      0.500000E-02      0.145662E-01
      0.100000E-01      0.144410E-01
      0.150000E-01      0.142345E-01
      0.200000E-01      0.139501E-01
      0.250000E-01      0.135923E-01
      0.300000E-01      0.131667E-01
      0.350000E-01      0.126798E-01
      0.400000E-01      0.121390E-01
      0.450000E-01      0.115524E-01
      0.500000E-01      0.109284E-01
      0.550000E-01      0.102757E-01
      0.600000E-01      0.960313E-02
      0.650000E-01      0.891943E-02
      0.700000E-01      0.823298E-02
      0.750000E-01      0.755175E-02
      0.800000E-01      0.688313E-02
      0.850000E-01      0.623381E-02
      0.900000E-01      0.560965E-02
      0.950000E-01      0.501566E-02
      0.100000          0.445596E-02
      0.105000          0.393368E-02
      0.110000          0.345107E-02
      0.115000          0.300947E-02
      0.120000          0.260936E-02
      0.125000          0.225046E-02
      0.130000          0.193179E-02
      0.135000          0.165176E-02
      0.140000          0.140828E-02
      0.145000          0.119887E-02
      0.150000          0.102076E-02
      0.155000          0.870967E-03
      0.160000          0.746443E-03
      0.165000          0.644111E-03
      0.170000          0.560970E-03
      0.175000          0.494151E-03
      0.180000          0.440974E-03
      0.185000          0.398989E-03
      0.190000          0.365998E-03
      0.195000          0.340081E-03
      0.200000          0.319590E-03
      0.205000          0.303153E-03
      0.210000          0.289657E-03
      0.215000          0.278228E-03
      0.220000          0.268208E-03
      0.225000          0.259126E-03
      0.230000          0.250666E-03
      0.235000          0.242642E-03
      0.240000          0.234962E-03
      0.245000          0.227606E-03
      0.250000          0.220597E-03
      0.255000          0.213985E-03
      0.260000          0.207824E-03
      0.265000          0.202163E-03
      0.270000          0.197035E-03
      0.275000          0.192448E-03
      0.280000          0.188388E-03
      0.285000          0.184818E-03
      0.290000          0.181675E-03
      0.295000          0.178882E-03
      0.300000          0.176350E-03
      0.305000          0.173981E-03
      0.310000          0.171680E-03
      0.315000          0.169358E-03
      0.320000          0.166936E-03
      0.325000          0.164350E-03
      0.330000          0.161555E-03
      0.335000          0.158525E-03
      0.340000          0.155253E-03
      0.345000          0.151754E-03
      0.350000          0.148058E-03
      0.355000          0.144210E-03
      0.360000          0.140267E-03
      0.365000          0.136294E-03
      0.370000          0.132358E-03
      0.375000          0.128526E-03
      0.380000          0.124862E-03
      0.385000          0.121421E-03
      0.390000          0.118248E-03
      0.395000          0.115377E-03
      0.400000          0.112827E-03
      0.405000          0.110603E-03
      0.410000          0.108697E-03
      0.415000          0.107087E-03
      0.420000          0.105739E-03
      0.425000          0.104612E-03
      0.430000          0.103655E-03
      0.435000          0.102814E-03
      0.440000          0.102034E-03
      0.445000          0.101260E-03
      0.450000          0.100440E-03
      0.455000          0.995306E-04
      0.460000          0.984940E-04
      0.465000          0.973032E-04
      0.470000          0.959416E-04
      0.475000          0.944036E-04
      0.480000          0.926952E-04
      0.485000          0.908328E-04
      0.490000          0.888429E-04
      0.495000          0.867604E-04
      0.500000          0.846272E-04
