 I_abs(s)[cm^-1]/c[mg/ml]
       0.00000          0.145367E-01
      0.500000E-02      0.144871E-01
      0.100000E-01      0.143394E-01
      0.150000E-01      0.140965E-01
      0.200000E-01      0.137634E-01
      0.250000E-01      0.133465E-01
      0.300000E-01      0.128541E-01
      0.350000E-01      0.122955E-01
      0.400000E-01      0.116812E-01
      0.450000E-01      0.110223E-01
      0.500000E-01      0.103301E-01
      0.550000E-01      0.961635E-02
      0.600000E-01      0.889218E-02
      0.650000E-01      0.816839E-02
      0.700000E-01      0.745495E-02
      0.750000E-01      0.676082E-02
      0.800000E-01      0.609385E-02
      0.850000E-01      0.546058E-02
      0.900000E-01      0.486622E-02
      0.950000E-01      0.431462E-02
      0.100000          0.380830E-02
      0.105000          0.334849E-02
      0.110000          0.293528E-02
      0.115000          0.256773E-02
      0.120000          0.224399E-02
      0.125000          0.196154E-02
      0.130000          0.171726E-02
      0.135000          0.150771E-02
      0.140000          0.132919E-02
      0.145000          0.117796E-02
      0.150000          0.105031E-02
      0.155000          0.942735E-03
      0.160000          0.851950E-03
      0.165000          0.774999E-03
      0.170000          0.709279E-03
      0.175000          0.652558E-03
      0.180000          0.602977E-03
      0.185000          0.559036E-03
      0.190000          0.519563E-03
      0.195000          0.483678E-03
      0.200000          0.450750E-03
      0.205000          0.420355E-03
      0.210000          0.392223E-03
      0.215000          0.366205E-03
      0.220000          0.342223E-03
      0.225000          0.320249E-03
      0.230000          0.300265E-03
      0.235000          0.282254E-03
      0.240000          0.266177E-03
      0.245000          0.251969E-03
      0.250000          0.239534E-03
      0.255000          0.228746E-03
      0.260000          0.219453E-03
      0.265000          0.211482E-03
      0.270000          0.204649E-03
      0.275000          0.198765E-03
      0.280000          0.193643E-03
      0.285000          0.189106E-03
      0.290000          0.184994E-03
      0.295000          0.181163E-03
      0.300000          0.177495E-03
      0.305000          0.173893E-03
      0.310000          0.170286E-03
      0.315000          0.166623E-03
      0.320000          0.162876E-03
      0.325000          0.159034E-03
      0.330000          0.155101E-03
      0.335000          0.151094E-03
      0.340000          0.147038E-03
      0.345000          0.142965E-03
      0.350000          0.138912E-03
      0.355000          0.134916E-03
      0.360000          0.131013E-03
      0.365000          0.127238E-03
      0.370000          0.123624E-03
      0.375000          0.120200E-03
      0.380000          0.116987E-03
      0.385000          0.114006E-03
      0.390000          0.111270E-03
      0.395000          0.108787E-03
      0.400000          0.106560E-03
      0.405000          0.104589E-03
      0.410000          0.102865E-03
      0.415000          0.101379E-03
      0.420000          0.100115E-03
      0.425000          0.990532E-04
      0.430000          0.981726E-04
      0.435000          0.974485E-04
      0.440000          0.968545E-04
      0.445000          0.963632E-04
      0.450000          0.959470E-04
      0.455000          0.955788E-04
      0.460000          0.952326E-04
      0.465000          0.948843E-04
      0.470000          0.945127E-04
      0.475000          0.940993E-04
      0.480000          0.936294E-04
      0.485000          0.930920E-04
      0.490000          0.924801E-04
      0.495000          0.917904E-04
      0.500000          0.910236E-04
