 I_abs(s)[cm^-1]/c[mg/ml]
       0.00000          0.145843E-01
      0.500000E-02      0.145245E-01
      0.100000E-01      0.143465E-01
      0.150000E-01      0.140549E-01
      0.200000E-01      0.136566E-01
      0.250000E-01      0.131613E-01
      0.300000E-01      0.125807E-01
      0.350000E-01      0.119281E-01
      0.400000E-01      0.112179E-01
      0.450000E-01      0.104652E-01
      0.500000E-01      0.968515E-02
      0.550000E-01      0.889245E-02
      0.600000E-01      0.810101E-02
      0.650000E-01      0.732353E-02
      0.700000E-01      0.657114E-02
      0.750000E-01      0.585322E-02
      0.800000E-01      0.517729E-02
      0.850000E-01      0.454894E-02
      0.900000E-01      0.397190E-02
      0.950000E-01      0.344814E-02
      0.100000          0.297805E-02
      0.105000          0.256065E-02
      0.110000          0.219385E-02
      0.115000          0.187469E-02
      0.120000          0.159957E-02
      0.125000          0.136456E-02
      0.130000          0.116551E-02
      0.135000          0.998308E-03
      0.140000          0.858997E-03
      0.145000          0.743869E-03
      0.150000          0.649543E-03
      0.155000          0.573000E-03
      0.160000          0.511590E-03
      0.165000          0.463014E-03
      0.170000          0.425295E-03
      0.175000          0.396738E-03
      0.180000          0.375878E-03
      0.185000          0.361442E-03
      0.190000          0.352301E-03
      0.195000          0.347441E-03
      0.200000          0.345936E-03
      0.205000          0.346928E-03
      0.210000          0.349622E-03
      0.215000          0.353283E-03
      0.220000          0.357239E-03
      0.225000          0.360889E-03
      0.230000          0.363712E-03
      0.235000          0.365278E-03
      0.240000          0.365251E-03
      0.245000          0.363397E-03
      0.250000          0.359583E-03
      0.255000          0.353775E-03
      0.260000          0.346029E-03
      0.265000          0.336482E-03
      0.270000          0.325339E-03
      0.275000          0.312856E-03
      0.280000          0.299326E-03
      0.285000          0.285059E-03
      0.290000          0.270373E-03
      0.295000          0.255573E-03
      0.300000          0.240943E-03
      0.305000          0.226737E-03
      0.310000          0.213172E-03
      0.315000          0.200423E-03
      0.320000          0.188626E-03
      0.325000          0.177873E-03
      0.330000          0.168221E-03
      0.335000          0.159692E-03
      0.340000          0.152279E-03
      0.345000          0.145952E-03
      0.350000          0.140663E-03
      0.355000          0.136347E-03
      0.360000          0.132933E-03
      0.365000          0.130340E-03
      0.370000          0.128485E-03
      0.375000          0.127278E-03
      0.380000          0.126632E-03
      0.385000          0.126454E-03
      0.390000          0.126654E-03
      0.395000          0.127139E-03
      0.400000          0.127818E-03
      0.405000          0.128604E-03
      0.410000          0.129410E-03
      0.415000          0.130157E-03
      0.420000          0.130773E-03
      0.425000          0.131195E-03
      0.430000          0.131374E-03
      0.435000          0.131274E-03
      0.440000          0.130872E-03
      0.445000          0.130163E-03
      0.450000          0.129156E-03
      0.455000          0.127874E-03
      0.460000          0.126352E-03
      0.465000          0.124634E-03
      0.470000          0.122771E-03
      0.475000          0.120816E-03
      0.480000          0.118822E-03
      0.485000          0.116837E-03
      0.490000          0.114901E-03
      0.495000          0.113047E-03
      0.500000          0.111294E-03
