 I_abs(s)[cm^-1]/c[mg/ml]
       0.00000          0.149037E-01
      0.500000E-02      0.148593E-01
      0.100000E-01      0.147270E-01
      0.150000E-01      0.145089E-01
      0.200000E-01      0.142086E-01
      0.250000E-01      0.138308E-01
      0.300000E-01      0.133817E-01
      0.350000E-01      0.128683E-01
      0.400000E-01      0.122985E-01
      0.450000E-01      0.116808E-01
      0.500000E-01      0.110243E-01
      0.550000E-01      0.103382E-01
      0.600000E-01      0.963199E-02
      0.650000E-01      0.891476E-02
      0.700000E-01      0.819539E-02
      0.750000E-01      0.748227E-02
      0.800000E-01      0.678315E-02
      0.850000E-01      0.610499E-02
      0.900000E-01      0.545394E-02
      0.950000E-01      0.483519E-02
      0.100000          0.425302E-02
      0.105000          0.371069E-02
      0.110000          0.321056E-02
      0.115000          0.275401E-02
      0.120000          0.234161E-02
      0.125000          0.197312E-02
      0.130000          0.164757E-02
      0.135000          0.136342E-02
      0.140000          0.111859E-02
      0.145000          0.910602E-03
      0.150000          0.736654E-03
      0.155000          0.593743E-03
      0.160000          0.478737E-03
      0.165000          0.388463E-03
      0.170000          0.319779E-03
      0.175000          0.269636E-03
      0.180000          0.235127E-03
      0.185000          0.213532E-03
      0.190000          0.202347E-03
      0.195000          0.199301E-03
      0.200000          0.202373E-03
      0.205000          0.209790E-03
      0.210000          0.220031E-03
      0.215000          0.231813E-03
      0.220000          0.244078E-03
      0.225000          0.255983E-03
      0.230000          0.266873E-03
      0.235000          0.276268E-03
      0.240000          0.283838E-03
      0.245000          0.289386E-03
      0.250000          0.292825E-03
      0.255000          0.294160E-03
      0.260000          0.293470E-03
      0.265000          0.290893E-03
      0.270000          0.286609E-03
      0.275000          0.280828E-03
      0.280000          0.273780E-03
      0.285000          0.265702E-03
      0.290000          0.256831E-03
      0.295000          0.247397E-03
      0.300000          0.237619E-03
      0.305000          0.227696E-03
      0.310000          0.217809E-03
      0.315000          0.208117E-03
      0.320000          0.198753E-03
      0.325000          0.189827E-03
      0.330000          0.181425E-03
      0.335000          0.173607E-03
      0.340000          0.166415E-03
      0.345000          0.159867E-03
      0.350000          0.153963E-03
      0.355000          0.148688E-03
      0.360000          0.144012E-03
      0.365000          0.139896E-03
      0.370000          0.136288E-03
      0.375000          0.133134E-03
      0.380000          0.130373E-03
      0.385000          0.127944E-03
      0.390000          0.125786E-03
      0.395000          0.123839E-03
      0.400000          0.122049E-03
      0.405000          0.120363E-03
      0.410000          0.118736E-03
      0.415000          0.117131E-03
      0.420000          0.115514E-03
      0.425000          0.113862E-03
      0.430000          0.112155E-03
      0.435000          0.110383E-03
      0.440000          0.108539E-03
      0.445000          0.106626E-03
      0.450000          0.104647E-03
      0.455000          0.102613E-03
      0.460000          0.100537E-03
      0.465000          0.984342E-04
      0.470000          0.963223E-04
      0.475000          0.942204E-04
      0.480000          0.921477E-04
      0.485000          0.901237E-04
      0.490000          0.881670E-04
      0.495000          0.862953E-04
      0.500000          0.845250E-04
