 I_abs(s)[cm^-1]/c[mg/ml]
       0.00000          0.146240E-01
      0.500000E-02      0.145761E-01
      0.100000E-01      0.144332E-01
      0.150000E-01      0.141980E-01
      0.200000E-01      0.138748E-01
      0.250000E-01      0.134696E-01
      0.300000E-01      0.129898E-01
      0.350000E-01      0.124438E-01
      0.400000E-01      0.118413E-01
      0.450000E-01      0.111923E-01
      0.500000E-01      0.105076E-01
      0.550000E-01      0.979796E-02
      0.600000E-01      0.907415E-02
      0.650000E-01      0.834653E-02
      0.700000E-01      0.762492E-02
      0.750000E-01      0.691831E-02
      0.800000E-01      0.623479E-02
      0.850000E-01      0.558132E-02
      0.900000E-01      0.496371E-02
      0.950000E-01      0.438653E-02
      0.100000          0.385312E-02
      0.105000          0.336561E-02
      0.110000          0.292496E-02
      0.115000          0.253108E-02
      0.120000          0.218292E-02
      0.125000          0.187861E-02
      0.130000          0.161562E-02
      0.135000          0.139086E-02
      0.140000          0.120090E-02
      0.145000          0.104206E-02
      0.150000          0.910569E-03
      0.155000          0.802676E-03
      0.160000          0.714771E-03
      0.165000          0.643457E-03
      0.170000          0.585629E-03
      0.175000          0.538514E-03
      0.180000          0.499704E-03
      0.185000          0.467169E-03
      0.190000          0.439248E-03
      0.195000          0.414634E-03
      0.200000          0.392348E-03
      0.205000          0.371696E-03
      0.210000          0.352232E-03
      0.215000          0.333713E-03
      0.220000          0.316051E-03
      0.225000          0.299271E-03
      0.230000          0.283473E-03
      0.235000          0.268792E-03
      0.240000          0.255373E-03
      0.245000          0.243343E-03
      0.250000          0.232799E-03
      0.255000          0.223789E-03
      0.260000          0.216311E-03
      0.265000          0.210312E-03
      0.270000          0.205690E-03
      0.275000          0.202298E-03
      0.280000          0.199956E-03
      0.285000          0.198461E-03
      0.290000          0.197594E-03
      0.295000          0.197135E-03
      0.300000          0.196869E-03
      0.305000          0.196597E-03
      0.310000          0.196143E-03
      0.315000          0.195358E-03
      0.320000          0.194125E-03
      0.325000          0.192358E-03
      0.330000          0.190007E-03
      0.335000          0.187053E-03
      0.340000          0.183504E-03
      0.345000          0.179397E-03
      0.350000          0.174788E-03
      0.355000          0.169750E-03
      0.360000          0.164369E-03
      0.365000          0.158736E-03
      0.370000          0.152947E-03
      0.375000          0.147095E-03
      0.380000          0.141269E-03
      0.385000          0.135549E-03
      0.390000          0.130008E-03
      0.395000          0.124706E-03
      0.400000          0.119691E-03
      0.405000          0.114999E-03
      0.410000          0.110654E-03
      0.415000          0.106669E-03
      0.420000          0.103048E-03
      0.425000          0.997837E-04
      0.430000          0.968645E-04
      0.435000          0.942716E-04
      0.440000          0.919827E-04
      0.445000          0.899728E-04
      0.450000          0.882158E-04
      0.455000          0.866858E-04
      0.460000          0.853577E-04
      0.465000          0.842082E-04
      0.470000          0.832160E-04
      0.475000          0.823626E-04
      0.480000          0.816319E-04
      0.485000          0.810100E-04
      0.490000          0.804854E-04
      0.495000          0.800482E-04
      0.500000          0.796899E-04
