 I_abs(s)[cm^-1]/c[mg/ml]
       0.00000          0.148395E-01
      0.500000E-02      0.147910E-01
      0.100000E-01      0.146462E-01
      0.150000E-01      0.144078E-01
      0.200000E-01      0.140801E-01
      0.250000E-01      0.136690E-01
      0.300000E-01      0.131818E-01
      0.350000E-01      0.126268E-01
      0.400000E-01      0.120136E-01
      0.450000E-01      0.113522E-01
      0.500000E-01      0.106535E-01
      0.550000E-01      0.992810E-02
      0.600000E-01      0.918694E-02
      0.650000E-01      0.844048E-02
      0.700000E-01      0.769872E-02
      0.750000E-01      0.697088E-02
      0.800000E-01      0.626530E-02
      0.850000E-01      0.558929E-02
      0.900000E-01      0.494901E-02
      0.950000E-01      0.434940E-02
      0.100000          0.379419E-02
      0.105000          0.328590E-02
      0.110000          0.282587E-02
      0.115000          0.241436E-02
      0.120000          0.205064E-02
      0.125000          0.173310E-02
      0.130000          0.145940E-02
      0.135000          0.122662E-02
      0.140000          0.103138E-02
      0.145000          0.870013E-03
      0.150000          0.738679E-03
      0.155000          0.633501E-03
      0.160000          0.550677E-03
      0.165000          0.486574E-03
      0.170000          0.437802E-03
      0.175000          0.401277E-03
      0.180000          0.374259E-03
      0.185000          0.354373E-03
      0.190000          0.339619E-03
      0.195000          0.328361E-03
      0.200000          0.319310E-03
      0.205000          0.311491E-03
      0.210000          0.304213E-03
      0.215000          0.297021E-03
      0.220000          0.289661E-03
      0.225000          0.282033E-03
      0.230000          0.274152E-03
      0.235000          0.266112E-03
      0.240000          0.258053E-03
      0.245000          0.250132E-03
      0.250000          0.242502E-03
      0.255000          0.235299E-03
      0.260000          0.228625E-03
      0.265000          0.222548E-03
      0.270000          0.217094E-03
      0.275000          0.212257E-03
      0.280000          0.207992E-03
      0.285000          0.204234E-03
      0.290000          0.200892E-03
      0.295000          0.197869E-03
      0.300000          0.195059E-03
      0.305000          0.192361E-03
      0.310000          0.189681E-03
      0.315000          0.186938E-03
      0.320000          0.184065E-03
      0.325000          0.181013E-03
      0.330000          0.177750E-03
      0.335000          0.174264E-03
      0.340000          0.170553E-03
      0.345000          0.166635E-03
      0.350000          0.162533E-03
      0.355000          0.158283E-03
      0.360000          0.153923E-03
      0.365000          0.149496E-03
      0.370000          0.145045E-03
      0.375000          0.140613E-03
      0.380000          0.136239E-03
      0.385000          0.131960E-03
      0.390000          0.127807E-03
      0.395000          0.123810E-03
      0.400000          0.119993E-03
      0.405000          0.116374E-03
      0.410000          0.112970E-03
      0.415000          0.109795E-03
      0.420000          0.106859E-03
      0.425000          0.104168E-03
      0.430000          0.101728E-03
      0.435000          0.995411E-04
      0.440000          0.976075E-04
      0.445000          0.959246E-04
      0.450000          0.944871E-04
      0.455000          0.932868E-04
      0.460000          0.923125E-04
      0.465000          0.915495E-04
      0.470000          0.909803E-04
      0.475000          0.905841E-04
      0.480000          0.903374E-04
      0.485000          0.902144E-04
      0.490000          0.901874E-04
      0.495000          0.902278E-04
      0.500000          0.903065E-04
