 I_abs(s)[cm^-1]/c[mg/ml]
       0.00000          0.148556E-01
      0.500000E-02      0.148107E-01
      0.100000E-01      0.146769E-01
      0.150000E-01      0.144564E-01
      0.200000E-01      0.141529E-01
      0.250000E-01      0.137713E-01
      0.300000E-01      0.133179E-01
      0.350000E-01      0.127999E-01
      0.400000E-01      0.122255E-01
      0.450000E-01      0.116035E-01
      0.500000E-01      0.109432E-01
      0.550000E-01      0.102541E-01
      0.600000E-01      0.954577E-02
      0.650000E-01      0.882767E-02
      0.700000E-01      0.810883E-02
      0.750000E-01      0.739778E-02
      0.800000E-01      0.670235E-02
      0.850000E-01      0.602956E-02
      0.900000E-01      0.538553E-02
      0.950000E-01      0.477538E-02
      0.100000          0.420325E-02
      0.105000          0.367223E-02
      0.110000          0.318440E-02
      0.115000          0.274089E-02
      0.120000          0.234193E-02
      0.125000          0.198692E-02
      0.130000          0.167455E-02
      0.135000          0.140293E-02
      0.140000          0.116962E-02
      0.145000          0.971837E-03
      0.150000          0.806507E-03
      0.155000          0.670399E-03
      0.160000          0.560215E-03
      0.165000          0.472680E-03
      0.170000          0.404615E-03
      0.175000          0.353004E-03
      0.180000          0.315042E-03
      0.185000          0.288169E-03
      0.190000          0.270093E-03
      0.195000          0.258806E-03
      0.200000          0.252579E-03
      0.205000          0.249957E-03
      0.210000          0.249744E-03
      0.215000          0.250980E-03
      0.220000          0.252920E-03
      0.225000          0.255003E-03
      0.230000          0.256829E-03
      0.235000          0.258127E-03
      0.240000          0.258735E-03
      0.245000          0.258569E-03
      0.250000          0.257611E-03
      0.255000          0.255884E-03
      0.260000          0.253439E-03
      0.265000          0.250347E-03
      0.270000          0.246684E-03
      0.275000          0.242531E-03
      0.280000          0.237965E-03
      0.285000          0.233057E-03
      0.290000          0.227875E-03
      0.295000          0.222478E-03
      0.300000          0.216920E-03
      0.305000          0.211250E-03
      0.310000          0.205512E-03
      0.315000          0.199746E-03
      0.320000          0.193990E-03
      0.325000          0.188276E-03
      0.330000          0.182636E-03
      0.335000          0.177098E-03
      0.340000          0.171685E-03
      0.345000          0.166418E-03
      0.350000          0.161314E-03
      0.355000          0.156385E-03
      0.360000          0.151639E-03
      0.365000          0.147080E-03
      0.370000          0.142710E-03
      0.375000          0.138524E-03
      0.380000          0.134518E-03
      0.385000          0.130685E-03
      0.390000          0.127015E-03
      0.395000          0.123499E-03
      0.400000          0.120130E-03
      0.405000          0.116900E-03
      0.410000          0.113802E-03
      0.415000          0.110833E-03
      0.420000          0.107990E-03
      0.425000          0.105274E-03
      0.430000          0.102684E-03
      0.435000          0.100225E-03
      0.440000          0.978995E-04
      0.445000          0.957111E-04
      0.450000          0.936631E-04
      0.455000          0.917581E-04
      0.460000          0.899970E-04
      0.465000          0.883787E-04
      0.470000          0.869001E-04
      0.475000          0.855559E-04
      0.480000          0.843382E-04
      0.485000          0.832370E-04
      0.490000          0.822407E-04
      0.495000          0.813360E-04
      0.500000          0.805086E-04
