 I_abs(s)[cm^-1]/c[mg/ml]
       0.00000          0.149599E-01
      0.500000E-02      0.149177E-01
      0.100000E-01      0.147915E-01
      0.150000E-01      0.145835E-01
      0.200000E-01      0.142967E-01
      0.250000E-01      0.139355E-01
      0.300000E-01      0.135055E-01
      0.350000E-01      0.130129E-01
      0.400000E-01      0.124651E-01
      0.450000E-01      0.118698E-01
      0.500000E-01      0.112354E-01
      0.550000E-01      0.105705E-01
      0.600000E-01      0.988374E-02
      0.650000E-01      0.918388E-02
      0.700000E-01      0.847934E-02
      0.750000E-01      0.777814E-02
      0.800000E-01      0.708782E-02
      0.850000E-01      0.641525E-02
      0.900000E-01      0.576656E-02
      0.950000E-01      0.514706E-02
      0.100000          0.456119E-02
      0.105000          0.401248E-02
      0.110000          0.350357E-02
      0.115000          0.303618E-02
      0.120000          0.261123E-02
      0.125000          0.222879E-02
      0.130000          0.188826E-02
      0.135000          0.158836E-02
      0.140000          0.132727E-02
      0.145000          0.110274E-02
      0.150000          0.912126E-03
      0.155000          0.752562E-03
      0.160000          0.621003E-03
      0.165000          0.514336E-03
      0.170000          0.429455E-03
      0.175000          0.363332E-03
      0.180000          0.313077E-03
      0.185000          0.275988E-03
      0.190000          0.249589E-03
      0.195000          0.231653E-03
      0.200000          0.220221E-03
      0.205000          0.213607E-03
      0.210000          0.210392E-03
      0.215000          0.209414E-03
      0.220000          0.209752E-03
      0.225000          0.210705E-03
      0.230000          0.211762E-03
      0.235000          0.212579E-03
      0.240000          0.212951E-03
      0.245000          0.212782E-03
      0.250000          0.212059E-03
      0.255000          0.210832E-03
      0.260000          0.209187E-03
      0.265000          0.207231E-03
      0.270000          0.205078E-03
      0.275000          0.202833E-03
      0.280000          0.200588E-03
      0.285000          0.198414E-03
      0.290000          0.196359E-03
      0.295000          0.194447E-03
      0.300000          0.192679E-03
      0.305000          0.191037E-03
      0.310000          0.189486E-03
      0.315000          0.187979E-03
      0.320000          0.186464E-03
      0.325000          0.184882E-03
      0.330000          0.183177E-03
      0.335000          0.181297E-03
      0.340000          0.179197E-03
      0.345000          0.176842E-03
      0.350000          0.174207E-03
      0.355000          0.171278E-03
      0.360000          0.168053E-03
      0.365000          0.164540E-03
      0.370000          0.160758E-03
      0.375000          0.156731E-03
      0.380000          0.152494E-03
      0.385000          0.148084E-03
      0.390000          0.143543E-03
      0.395000          0.138913E-03
      0.400000          0.134238E-03
      0.405000          0.129561E-03
      0.410000          0.124923E-03
      0.415000          0.120362E-03
      0.420000          0.115914E-03
      0.425000          0.111611E-03
      0.430000          0.107482E-03
      0.435000          0.103552E-03
      0.440000          0.998433E-04
      0.445000          0.963753E-04
      0.450000          0.931641E-04
      0.455000          0.902233E-04
      0.460000          0.875638E-04
      0.465000          0.851943E-04
      0.470000          0.831209E-04
      0.475000          0.813471E-04
      0.480000          0.798739E-04
      0.485000          0.786995E-04
      0.490000          0.778188E-04
      0.495000          0.772238E-04
      0.500000          0.769029E-04
