 I_abs(s)[cm^-1]/c[mg/ml]
       0.00000          0.144654E-01
      0.500000E-02      0.144111E-01
      0.100000E-01      0.142492E-01
      0.150000E-01      0.139836E-01
      0.200000E-01      0.136202E-01
      0.250000E-01      0.131672E-01
      0.300000E-01      0.126344E-01
      0.350000E-01      0.120333E-01
      0.400000E-01      0.113762E-01
      0.450000E-01      0.106764E-01
      0.500000E-01      0.994720E-02
      0.550000E-01      0.920174E-02
      0.600000E-01      0.845270E-02
      0.650000E-01      0.771181E-02
      0.700000E-01      0.698962E-02
      0.750000E-01      0.629528E-02
      0.800000E-01      0.563637E-02
      0.850000E-01      0.501882E-02
      0.900000E-01      0.444690E-02
      0.950000E-01      0.392325E-02
      0.100000          0.344900E-02
      0.105000          0.302393E-02
      0.110000          0.264663E-02
      0.115000          0.231473E-02
      0.120000          0.202512E-02
      0.125000          0.177418E-02
      0.130000          0.155798E-02
      0.135000          0.137247E-02
      0.140000          0.121367E-02
      0.145000          0.107778E-02
      0.150000          0.961313E-03
      0.155000          0.861149E-03
      0.160000          0.774578E-03
      0.165000          0.699312E-03
      0.170000          0.633475E-03
      0.175000          0.575566E-03
      0.180000          0.524417E-03
      0.185000          0.479137E-03
      0.190000          0.439050E-03
      0.195000          0.403646E-03
      0.200000          0.372521E-03
      0.205000          0.345336E-03
      0.210000          0.321784E-03
      0.215000          0.301561E-03
      0.220000          0.284349E-03
      0.225000          0.269817E-03
      0.230000          0.257613E-03
      0.235000          0.247377E-03
      0.240000          0.238749E-03
      0.245000          0.231381E-03
      0.250000          0.224954E-03
      0.255000          0.219181E-03
      0.260000          0.213825E-03
      0.265000          0.208698E-03
      0.270000          0.203665E-03
      0.275000          0.198643E-03
      0.280000          0.193595E-03
      0.285000          0.188524E-03
      0.290000          0.183463E-03
      0.295000          0.178465E-03
      0.300000          0.173594E-03
      0.305000          0.168917E-03
      0.310000          0.164491E-03
      0.315000          0.160364E-03
      0.320000          0.156566E-03
      0.325000          0.153108E-03
      0.330000          0.149984E-03
      0.335000          0.147172E-03
      0.340000          0.144633E-03
      0.345000          0.142324E-03
      0.350000          0.140192E-03
      0.355000          0.138188E-03
      0.360000          0.136263E-03
      0.365000          0.134377E-03
      0.370000          0.132498E-03
      0.375000          0.130606E-03
      0.380000          0.128690E-03
      0.385000          0.126751E-03
      0.390000          0.124799E-03
      0.395000          0.122848E-03
      0.400000          0.120921E-03
      0.405000          0.119036E-03
      0.410000          0.117216E-03
      0.415000          0.115478E-03
      0.420000          0.113833E-03
      0.425000          0.112289E-03
      0.430000          0.110843E-03
      0.435000          0.109489E-03
      0.440000          0.108212E-03
      0.445000          0.106995E-03
      0.450000          0.105815E-03
      0.455000          0.104648E-03
      0.460000          0.103469E-03
      0.465000          0.102258E-03
      0.470000          0.100994E-03
      0.475000          0.996626E-04
      0.480000          0.982557E-04
      0.485000          0.967701E-04
      0.490000          0.952090E-04
      0.495000          0.935818E-04
      0.500000          0.919031E-04
