 I_abs(s)[cm^-1]/c[mg/ml]
       0.00000          0.145843E-01
      0.500000E-02      0.145346E-01
      0.100000E-01      0.143864E-01
      0.150000E-01      0.141427E-01
      0.200000E-01      0.138085E-01
      0.250000E-01      0.133903E-01
      0.300000E-01      0.128962E-01
      0.350000E-01      0.123357E-01
      0.400000E-01      0.117191E-01
      0.450000E-01      0.110573E-01
      0.500000E-01      0.103619E-01
      0.550000E-01      0.964406E-02
      0.600000E-01      0.891508E-02
      0.650000E-01      0.818550E-02
      0.700000E-01      0.746514E-02
      0.750000E-01      0.676283E-02
      0.800000E-01      0.608628E-02
      0.850000E-01      0.544199E-02
      0.900000E-01      0.483515E-02
      0.950000E-01      0.426969E-02
      0.100000          0.374825E-02
      0.105000          0.327231E-02
      0.110000          0.284228E-02
      0.115000          0.245759E-02
      0.120000          0.211684E-02
      0.125000          0.181799E-02
      0.130000          0.155847E-02
      0.135000          0.133530E-02
      0.140000          0.114531E-02
      0.145000          0.985154E-03
      0.150000          0.851516E-03
      0.155000          0.741131E-03
      0.160000          0.650885E-03
      0.165000          0.577859E-03
      0.170000          0.519372E-03
      0.175000          0.472997E-03
      0.180000          0.436575E-03
      0.185000          0.408210E-03
      0.190000          0.386265E-03
      0.195000          0.369339E-03
      0.200000          0.356255E-03
      0.205000          0.346033E-03
      0.210000          0.337872E-03
      0.215000          0.331121E-03
      0.220000          0.325265E-03
      0.225000          0.319897E-03
      0.230000          0.314709E-03
      0.235000          0.309467E-03
      0.240000          0.304003E-03
      0.245000          0.298201E-03
      0.250000          0.291988E-03
      0.255000          0.285325E-03
      0.260000          0.278200E-03
      0.265000          0.270625E-03
      0.270000          0.262627E-03
      0.275000          0.254249E-03
      0.280000          0.245547E-03
      0.285000          0.236584E-03
      0.290000          0.227432E-03
      0.295000          0.218168E-03
      0.300000          0.208874E-03
      0.305000          0.199634E-03
      0.310000          0.190534E-03
      0.315000          0.181656E-03
      0.320000          0.173081E-03
      0.325000          0.164885E-03
      0.330000          0.157134E-03
      0.335000          0.149887E-03
      0.340000          0.143190E-03
      0.345000          0.137076E-03
      0.350000          0.131566E-03
      0.355000          0.126663E-03
      0.360000          0.122356E-03
      0.365000          0.118621E-03
      0.370000          0.115420E-03
      0.375000          0.112704E-03
      0.380000          0.110413E-03
      0.385000          0.108483E-03
      0.390000          0.106844E-03
      0.395000          0.105428E-03
      0.400000          0.104166E-03
      0.405000          0.102998E-03
      0.410000          0.101866E-03
      0.415000          0.100725E-03
      0.420000          0.995402E-04
      0.425000          0.982857E-04
      0.430000          0.969483E-04
      0.435000          0.955250E-04
      0.440000          0.940228E-04
      0.445000          0.924567E-04
      0.450000          0.908485E-04
      0.455000          0.892243E-04
      0.460000          0.876132E-04
      0.465000          0.860447E-04
      0.470000          0.845472E-04
      0.475000          0.831464E-04
      0.480000          0.818637E-04
      0.485000          0.807155E-04
      0.490000          0.797127E-04
      0.495000          0.788599E-04
      0.500000          0.781561E-04
