 I_abs(s)[cm^-1]/c[mg/ml]
       0.00000          0.144496E-01
      0.500000E-02      0.143986E-01
      0.100000E-01      0.142465E-01
      0.150000E-01      0.139965E-01
      0.200000E-01      0.136537E-01
      0.250000E-01      0.132248E-01
      0.300000E-01      0.127184E-01
      0.350000E-01      0.121441E-01
      0.400000E-01      0.115129E-01
      0.450000E-01      0.108363E-01
      0.500000E-01      0.101262E-01
      0.550000E-01      0.939456E-02
      0.600000E-01      0.865316E-02
      0.650000E-01      0.791318E-02
      0.700000E-01      0.718499E-02
      0.750000E-01      0.647796E-02
      0.800000E-01      0.580021E-02
      0.850000E-01      0.515856E-02
      0.900000E-01      0.455842E-02
      0.950000E-01      0.400374E-02
      0.100000          0.349710E-02
      0.105000          0.303975E-02
      0.110000          0.263168E-02
      0.115000          0.227180E-02
      0.120000          0.195811E-02
      0.125000          0.168782E-02
      0.130000          0.145757E-02
      0.135000          0.126361E-02
      0.140000          0.110195E-02
      0.145000          0.968520E-03
      0.150000          0.859316E-03
      0.155000          0.770517E-03
      0.160000          0.698568E-03
      0.165000          0.640254E-03
      0.170000          0.592739E-03
      0.175000          0.553590E-03
      0.180000          0.520777E-03
      0.185000          0.492659E-03
      0.190000          0.467952E-03
      0.195000          0.445693E-03
      0.200000          0.425192E-03
      0.205000          0.405987E-03
      0.210000          0.387796E-03
      0.215000          0.370466E-03
      0.220000          0.353942E-03
      0.225000          0.338222E-03
      0.230000          0.323335E-03
      0.235000          0.309319E-03
      0.240000          0.296199E-03
      0.245000          0.283989E-03
      0.250000          0.272678E-03
      0.255000          0.262234E-03
      0.260000          0.252610E-03
      0.265000          0.243742E-03
      0.270000          0.235561E-03
      0.275000          0.227994E-03
      0.280000          0.220972E-03
      0.285000          0.214432E-03
      0.290000          0.208322E-03
      0.295000          0.202599E-03
      0.300000          0.197228E-03
      0.305000          0.192187E-03
      0.310000          0.187457E-03
      0.315000          0.183022E-03
      0.320000          0.178869E-03
      0.325000          0.174982E-03
      0.330000          0.171342E-03
      0.335000          0.167925E-03
      0.340000          0.164700E-03
      0.345000          0.161632E-03
      0.350000          0.158682E-03
      0.355000          0.155808E-03
      0.360000          0.152969E-03
      0.365000          0.150126E-03
      0.370000          0.147244E-03
      0.375000          0.144295E-03
      0.380000          0.141263E-03
      0.385000          0.138138E-03
      0.390000          0.134922E-03
      0.395000          0.131630E-03
      0.400000          0.128284E-03
      0.405000          0.124916E-03
      0.410000          0.121563E-03
      0.415000          0.118268E-03
      0.420000          0.115075E-03
      0.425000          0.112025E-03
      0.430000          0.109159E-03
      0.435000          0.106509E-03
      0.440000          0.104102E-03
      0.445000          0.101954E-03
      0.450000          0.100075E-03
      0.455000          0.984613E-04
      0.460000          0.971027E-04
      0.465000          0.959795E-04
      0.470000          0.950656E-04
      0.475000          0.943291E-04
      0.480000          0.937349E-04
      0.485000          0.932464E-04
      0.490000          0.928273E-04
      0.495000          0.924435E-04
      0.500000          0.920648E-04
