 I_abs(s)[cm^-1]/c[mg/ml]
       0.00000          0.148075E-01
      0.500000E-02      0.147592E-01
      0.100000E-01      0.146151E-01
      0.150000E-01      0.143779E-01
      0.200000E-01      0.140520E-01
      0.250000E-01      0.136433E-01
      0.300000E-01      0.131592E-01
      0.350000E-01      0.126081E-01
      0.400000E-01      0.119997E-01
      0.450000E-01      0.113441E-01
      0.500000E-01      0.106520E-01
      0.550000E-01      0.993406E-02
      0.600000E-01      0.920111E-02
      0.650000E-01      0.846346E-02
      0.700000E-01      0.773091E-02
      0.750000E-01      0.701246E-02
      0.800000E-01      0.631619E-02
      0.850000E-01      0.564913E-02
      0.900000E-01      0.501717E-02
      0.950000E-01      0.442500E-02
      0.100000          0.387612E-02
      0.105000          0.337285E-02
      0.110000          0.291642E-02
      0.115000          0.250701E-02
      0.120000          0.214389E-02
      0.125000          0.182552E-02
      0.130000          0.154971E-02
      0.135000          0.131370E-02
      0.140000          0.111435E-02
      0.145000          0.948260E-03
      0.150000          0.811860E-03
      0.155000          0.701547E-03
      0.160000          0.613771E-03
      0.165000          0.545115E-03
      0.170000          0.492361E-03
      0.175000          0.452539E-03
      0.180000          0.422962E-03
      0.185000          0.401243E-03
      0.190000          0.385310E-03
      0.195000          0.373399E-03
      0.200000          0.364050E-03
      0.205000          0.356085E-03
      0.210000          0.348592E-03
      0.215000          0.340894E-03
      0.220000          0.332530E-03
      0.225000          0.323220E-03
      0.230000          0.312840E-03
      0.235000          0.301397E-03
      0.240000          0.288998E-03
      0.245000          0.275829E-03
      0.250000          0.262131E-03
      0.255000          0.248179E-03
      0.260000          0.234266E-03
      0.265000          0.220681E-03
      0.270000          0.207701E-03
      0.275000          0.195573E-03
      0.280000          0.184510E-03
      0.285000          0.174681E-03
      0.290000          0.166205E-03
      0.295000          0.159152E-03
      0.300000          0.153539E-03
      0.305000          0.149332E-03
      0.310000          0.146454E-03
      0.315000          0.144783E-03
      0.320000          0.144167E-03
      0.325000          0.144424E-03
      0.330000          0.145354E-03
      0.335000          0.146751E-03
      0.340000          0.148403E-03
      0.345000          0.150109E-03
      0.350000          0.151682E-03
      0.355000          0.152954E-03
      0.360000          0.153786E-03
      0.365000          0.154066E-03
      0.370000          0.153717E-03
      0.375000          0.152691E-03
      0.380000          0.150975E-03
      0.385000          0.148584E-03
      0.390000          0.145562E-03
      0.395000          0.141975E-03
      0.400000          0.137907E-03
      0.405000          0.133456E-03
      0.410000          0.128728E-03
      0.415000          0.123836E-03
      0.420000          0.118887E-03
      0.425000          0.113989E-03
      0.430000          0.109237E-03
      0.435000          0.104718E-03
      0.440000          0.100505E-03
      0.445000          0.966566E-04
      0.450000          0.932168E-04
      0.455000          0.902148E-04
      0.460000          0.876651E-04
      0.465000          0.855689E-04
      0.470000          0.839153E-04
      0.475000          0.826828E-04
      0.480000          0.818410E-04
      0.485000          0.813524E-04
      0.490000          0.811740E-04
      0.495000          0.812592E-04
      0.500000          0.815595E-04
