 I_abs(s)[cm^-1]/c[mg/ml]
       0.00000          0.147755E-01
      0.500000E-02      0.147193E-01
      0.100000E-01      0.145520E-01
      0.150000E-01      0.142774E-01
      0.200000E-01      0.139017E-01
      0.250000E-01      0.134331E-01
      0.300000E-01      0.128820E-01
      0.350000E-01      0.122600E-01
      0.400000E-01      0.115797E-01
      0.450000E-01      0.108548E-01
      0.500000E-01      0.100987E-01
      0.550000E-01      0.932490E-02
      0.600000E-01      0.854635E-02
      0.650000E-01      0.777499E-02
      0.700000E-01      0.702162E-02
      0.750000E-01      0.629565E-02
      0.800000E-01      0.560495E-02
      0.850000E-01      0.495582E-02
      0.900000E-01      0.435291E-02
      0.950000E-01      0.379935E-02
      0.100000          0.329678E-02
      0.105000          0.284557E-02
      0.110000          0.244490E-02
      0.115000          0.209302E-02
      0.120000          0.178740E-02
      0.125000          0.152493E-02
      0.130000          0.130208E-02
      0.135000          0.111511E-02
      0.140000          0.960139E-03
      0.145000          0.833327E-03
      0.150000          0.730933E-03
      0.155000          0.649404E-03
      0.160000          0.585419E-03
      0.165000          0.535930E-03
      0.170000          0.498183E-03
      0.175000          0.469723E-03
      0.180000          0.448397E-03
      0.185000          0.432345E-03
      0.190000          0.419991E-03
      0.195000          0.410026E-03
      0.200000          0.401391E-03
      0.205000          0.393258E-03
      0.210000          0.385011E-03
      0.215000          0.376221E-03
      0.220000          0.366626E-03
      0.225000          0.356109E-03
      0.230000          0.344670E-03
      0.235000          0.332406E-03
      0.240000          0.319483E-03
      0.245000          0.306118E-03
      0.250000          0.292553E-03
      0.255000          0.279039E-03
      0.260000          0.265818E-03
      0.265000          0.253110E-03
      0.270000          0.241100E-03
      0.275000          0.229936E-03
      0.280000          0.219719E-03
      0.285000          0.210510E-03
      0.290000          0.202323E-03
      0.295000          0.195137E-03
      0.300000          0.188899E-03
      0.305000          0.183527E-03
      0.310000          0.178923E-03
      0.315000          0.174976E-03
      0.320000          0.171572E-03
      0.325000          0.168593E-03
      0.330000          0.165932E-03
      0.335000          0.163487E-03
      0.340000          0.161172E-03
      0.345000          0.158911E-03
      0.350000          0.156646E-03
      0.355000          0.154333E-03
      0.360000          0.151940E-03
      0.365000          0.149453E-03
      0.370000          0.146864E-03
      0.375000          0.144181E-03
      0.380000          0.141417E-03
      0.385000          0.138593E-03
      0.390000          0.135733E-03
      0.395000          0.132865E-03
      0.400000          0.130019E-03
      0.405000          0.127222E-03
      0.410000          0.124500E-03
      0.415000          0.121875E-03
      0.420000          0.119365E-03
      0.425000          0.116982E-03
      0.430000          0.114734E-03
      0.435000          0.112622E-03
      0.440000          0.110643E-03
      0.445000          0.108788E-03
      0.450000          0.107046E-03
      0.455000          0.105403E-03
      0.460000          0.103844E-03
      0.465000          0.102354E-03
      0.470000          0.100919E-03
      0.475000          0.995274E-04
      0.480000          0.981701E-04
      0.485000          0.968413E-04
      0.490000          0.955385E-04
      0.495000          0.942626E-04
      0.500000          0.930173E-04
