 I_abs(s)[cm^-1]/c[mg/ml]
       0.00000          0.144971E-01
      0.500000E-02      0.144497E-01
      0.100000E-01      0.143087E-01
      0.150000E-01      0.140768E-01
      0.200000E-01      0.137586E-01
      0.250000E-01      0.133603E-01
      0.300000E-01      0.128895E-01
      0.350000E-01      0.123552E-01
      0.400000E-01      0.117669E-01
      0.450000E-01      0.111351E-01
      0.500000E-01      0.104706E-01
      0.550000E-01      0.978398E-02
      0.600000E-01      0.908580E-02
      0.650000E-01      0.838604E-02
      0.700000E-01      0.769396E-02
      0.750000E-01      0.701791E-02
      0.800000E-01      0.636518E-02
      0.850000E-01      0.574189E-02
      0.900000E-01      0.515298E-02
      0.950000E-01      0.460216E-02
      0.100000          0.409196E-02
      0.105000          0.362379E-02
      0.110000          0.319804E-02
      0.115000          0.281422E-02
      0.120000          0.247104E-02
      0.125000          0.216659E-02
      0.130000          0.189847E-02
      0.135000          0.166393E-02
      0.140000          0.146002E-02
      0.145000          0.128365E-02
      0.150000          0.113177E-02
      0.155000          0.100139E-02
      0.160000          0.889692E-03
      0.165000          0.794040E-03
      0.170000          0.712056E-03
      0.175000          0.641615E-03
      0.180000          0.580858E-03
      0.185000          0.528188E-03
      0.190000          0.482258E-03
      0.195000          0.441952E-03
      0.200000          0.406359E-03
      0.205000          0.374753E-03
      0.210000          0.346559E-03
      0.215000          0.321334E-03
      0.220000          0.298733E-03
      0.225000          0.278494E-03
      0.230000          0.260413E-03
      0.235000          0.244326E-03
      0.240000          0.230094E-03
      0.245000          0.217594E-03
      0.250000          0.206707E-03
      0.255000          0.197311E-03
      0.260000          0.189280E-03
      0.265000          0.182482E-03
      0.270000          0.176776E-03
      0.275000          0.172014E-03
      0.280000          0.168049E-03
      0.285000          0.164730E-03
      0.290000          0.161912E-03
      0.295000          0.159457E-03
      0.300000          0.157238E-03
      0.305000          0.155144E-03
      0.310000          0.153077E-03
      0.315000          0.150961E-03
      0.320000          0.148738E-03
      0.325000          0.146370E-03
      0.330000          0.143836E-03
      0.335000          0.141133E-03
      0.340000          0.138274E-03
      0.345000          0.135283E-03
      0.350000          0.132193E-03
      0.355000          0.129044E-03
      0.360000          0.125880E-03
      0.365000          0.122745E-03
      0.370000          0.119681E-03
      0.375000          0.116728E-03
      0.380000          0.113919E-03
      0.385000          0.111282E-03
      0.390000          0.108837E-03
      0.395000          0.106598E-03
      0.400000          0.104571E-03
      0.405000          0.102757E-03
      0.410000          0.101151E-03
      0.415000          0.997419E-04
      0.420000          0.985161E-04
      0.425000          0.974562E-04
      0.430000          0.965427E-04
      0.435000          0.957546E-04
      0.440000          0.950702E-04
      0.445000          0.944678E-04
      0.450000          0.939260E-04
      0.455000          0.934245E-04
      0.460000          0.929440E-04
      0.465000          0.924672E-04
      0.470000          0.919784E-04
      0.475000          0.914643E-04
      0.480000          0.909140E-04
      0.485000          0.903190E-04
      0.490000          0.896736E-04
      0.495000          0.889744E-04
      0.500000          0.882209E-04
