 I_abs(s)[cm^-1]/c[mg/ml]
       0.00000          0.145605E-01
      0.500000E-02      0.145116E-01
      0.100000E-01      0.143662E-01
      0.150000E-01      0.141271E-01
      0.200000E-01      0.137995E-01
      0.250000E-01      0.133900E-01
      0.300000E-01      0.129068E-01
      0.350000E-01      0.123596E-01
      0.400000E-01      0.117586E-01
      0.450000E-01      0.111148E-01
      0.500000E-01      0.104396E-01
      0.550000E-01      0.974396E-02
      0.600000E-01      0.903875E-02
      0.650000E-01      0.833407E-02
      0.700000E-01      0.763914E-02
      0.750000E-01      0.696215E-02
      0.800000E-01      0.631007E-02
      0.850000E-01      0.568864E-02
      0.900000E-01      0.510233E-02
      0.950000E-01      0.455433E-02
      0.100000          0.404669E-02
      0.105000          0.358037E-02
      0.110000          0.315537E-02
      0.115000          0.277091E-02
      0.120000          0.242554E-02
      0.125000          0.211729E-02
      0.130000          0.184386E-02
      0.135000          0.160267E-02
      0.140000          0.139107E-02
      0.145000          0.120634E-02
      0.150000          0.104585E-02
      0.155000          0.907044E-03
      0.160000          0.787534E-03
      0.165000          0.685100E-03
      0.170000          0.597704E-03
      0.175000          0.523494E-03
      0.180000          0.460799E-03
      0.185000          0.408113E-03
      0.190000          0.364090E-03
      0.195000          0.327526E-03
      0.200000          0.297343E-03
      0.205000          0.272585E-03
      0.210000          0.252400E-03
      0.215000          0.236037E-03
      0.220000          0.222835E-03
      0.225000          0.212218E-03
      0.230000          0.203691E-03
      0.235000          0.196833E-03
      0.240000          0.191290E-03
      0.245000          0.186774E-03
      0.250000          0.183050E-03
      0.255000          0.179933E-03
      0.260000          0.177281E-03
      0.265000          0.174987E-03
      0.270000          0.172969E-03
      0.275000          0.171170E-03
      0.280000          0.169545E-03
      0.285000          0.168062E-03
      0.290000          0.166693E-03
      0.295000          0.165414E-03
      0.300000          0.164203E-03
      0.305000          0.163038E-03
      0.310000          0.161897E-03
      0.315000          0.160757E-03
      0.320000          0.159599E-03
      0.325000          0.158403E-03
      0.330000          0.157153E-03
      0.335000          0.155833E-03
      0.340000          0.154434E-03
      0.345000          0.152948E-03
      0.350000          0.151373E-03
      0.355000          0.149706E-03
      0.360000          0.147950E-03
      0.365000          0.146109E-03
      0.370000          0.144188E-03
      0.375000          0.142193E-03
      0.380000          0.140130E-03
      0.385000          0.138006E-03
      0.390000          0.135826E-03
      0.395000          0.133596E-03
      0.400000          0.131323E-03
      0.405000          0.129013E-03
      0.410000          0.126673E-03
      0.415000          0.124309E-03
      0.420000          0.121930E-03
      0.425000          0.119545E-03
      0.430000          0.117164E-03
      0.435000          0.114797E-03
      0.440000          0.112454E-03
      0.445000          0.110147E-03
      0.450000          0.107884E-03
      0.455000          0.105676E-03
      0.460000          0.103529E-03
      0.465000          0.101448E-03
      0.470000          0.994359E-04
      0.475000          0.974926E-04
      0.480000          0.956155E-04
      0.485000          0.937997E-04
      0.490000          0.920384E-04
      0.495000          0.903230E-04
      0.500000          0.886445E-04
