 I_abs(s)[cm^-1]/c[mg/ml]
       0.00000          0.149117E-01
      0.500000E-02      0.148644E-01
      0.100000E-01      0.147233E-01
      0.150000E-01      0.144912E-01
      0.200000E-01      0.141723E-01
      0.250000E-01      0.137726E-01
      0.300000E-01      0.132994E-01
      0.350000E-01      0.127610E-01
      0.400000E-01      0.121669E-01
      0.450000E-01      0.115271E-01
      0.500000E-01      0.108518E-01
      0.550000E-01      0.101515E-01
      0.600000E-01      0.943653E-02
      0.650000E-01      0.871669E-02
      0.700000E-01      0.800124E-02
      0.750000E-01      0.729861E-02
      0.800000E-01      0.661627E-02
      0.850000E-01      0.596065E-02
      0.900000E-01      0.533710E-02
      0.950000E-01      0.474979E-02
      0.100000          0.420184E-02
      0.105000          0.369526E-02
      0.110000          0.323109E-02
      0.115000          0.280950E-02
      0.120000          0.242985E-02
      0.125000          0.209088E-02
      0.130000          0.179076E-02
      0.135000          0.152730E-02
      0.140000          0.129798E-02
      0.145000          0.110011E-02
      0.150000          0.930903E-03
      0.155000          0.787564E-03
      0.160000          0.667347E-03
      0.165000          0.567609E-03
      0.170000          0.485851E-03
      0.175000          0.419735E-03
      0.180000          0.367109E-03
      0.185000          0.326002E-03
      0.190000          0.294633E-03
      0.195000          0.271401E-03
      0.200000          0.254876E-03
      0.205000          0.243791E-03
      0.210000          0.237027E-03
      0.215000          0.233607E-03
      0.220000          0.232680E-03
      0.225000          0.233512E-03
      0.230000          0.235482E-03
      0.235000          0.238063E-03
      0.240000          0.240826E-03
      0.245000          0.243422E-03
      0.250000          0.245582E-03
      0.255000          0.247105E-03
      0.260000          0.247851E-03
      0.265000          0.247738E-03
      0.270000          0.246726E-03
      0.275000          0.244819E-03
      0.280000          0.242047E-03
      0.285000          0.238470E-03
      0.290000          0.234163E-03
      0.295000          0.229212E-03
      0.300000          0.223713E-03
      0.305000          0.217761E-03
      0.310000          0.211451E-03
      0.315000          0.204875E-03
      0.320000          0.198118E-03
      0.325000          0.191259E-03
      0.330000          0.184368E-03
      0.335000          0.177509E-03
      0.340000          0.170735E-03
      0.345000          0.164096E-03
      0.350000          0.157630E-03
      0.355000          0.151373E-03
      0.360000          0.145351E-03
      0.365000          0.139588E-03
      0.370000          0.134100E-03
      0.375000          0.128899E-03
      0.380000          0.123992E-03
      0.385000          0.119383E-03
      0.390000          0.115070E-03
      0.395000          0.111049E-03
      0.400000          0.107312E-03
      0.405000          0.103849E-03
      0.410000          0.100648E-03
      0.415000          0.976950E-04
      0.420000          0.949756E-04
      0.425000          0.924746E-04
      0.430000          0.901772E-04
      0.435000          0.880693E-04
      0.440000          0.861374E-04
      0.445000          0.843694E-04
      0.450000          0.827545E-04
      0.455000          0.812834E-04
      0.460000          0.799478E-04
      0.465000          0.787410E-04
      0.470000          0.776574E-04
      0.475000          0.766921E-04
      0.480000          0.758413E-04
      0.485000          0.751018E-04
      0.490000          0.744706E-04
      0.495000          0.739455E-04
      0.500000          0.735241E-04
