 I_abs(s)[cm^-1]/c[mg/ml]
       0.00000          0.145446E-01
      0.500000E-02      0.145036E-01
      0.100000E-01      0.143814E-01
      0.150000E-01      0.141797E-01
      0.200000E-01      0.139020E-01
      0.250000E-01      0.135524E-01
      0.300000E-01      0.131365E-01
      0.350000E-01      0.126607E-01
      0.400000E-01      0.121320E-01
      0.450000E-01      0.115583E-01
      0.500000E-01      0.109478E-01
      0.550000E-01      0.103088E-01
      0.600000E-01      0.964990E-02
      0.650000E-01      0.897954E-02
      0.700000E-01      0.830582E-02
      0.750000E-01      0.763647E-02
      0.800000E-01      0.697860E-02
      0.850000E-01      0.633870E-02
      0.900000E-01      0.572246E-02
      0.950000E-01      0.513474E-02
      0.100000          0.457956E-02
      0.105000          0.406001E-02
      0.110000          0.357834E-02
      0.115000          0.313593E-02
      0.120000          0.273337E-02
      0.125000          0.237051E-02
      0.130000          0.204654E-02
      0.135000          0.176008E-02
      0.140000          0.150928E-02
      0.145000          0.129190E-02
      0.150000          0.110542E-02
      0.155000          0.947123E-03
      0.160000          0.814179E-03
      0.165000          0.703739E-03
      0.170000          0.612990E-03
      0.175000          0.539220E-03
      0.180000          0.479868E-03
      0.185000          0.432560E-03
      0.190000          0.395135E-03
      0.195000          0.365662E-03
      0.200000          0.342450E-03
      0.205000          0.324046E-03
      0.210000          0.309226E-03
      0.215000          0.296985E-03
      0.220000          0.286518E-03
      0.225000          0.277200E-03
      0.230000          0.268563E-03
      0.235000          0.260274E-03
      0.240000          0.252117E-03
      0.245000          0.243961E-03
      0.250000          0.235750E-03
      0.255000          0.227482E-03
      0.260000          0.219188E-03
      0.265000          0.210929E-03
      0.270000          0.202773E-03
      0.275000          0.194795E-03
      0.280000          0.187069E-03
      0.285000          0.179658E-03
      0.290000          0.172616E-03
      0.295000          0.165985E-03
      0.300000          0.159794E-03
      0.305000          0.154059E-03
      0.310000          0.148783E-03
      0.315000          0.143959E-03
      0.320000          0.139572E-03
      0.325000          0.135596E-03
      0.330000          0.132003E-03
      0.335000          0.128758E-03
      0.340000          0.125826E-03
      0.345000          0.123168E-03
      0.350000          0.120749E-03
      0.355000          0.118533E-03
      0.360000          0.116486E-03
      0.365000          0.114578E-03
      0.370000          0.112784E-03
      0.375000          0.111080E-03
      0.380000          0.109450E-03
      0.385000          0.107881E-03
      0.390000          0.106362E-03
      0.395000          0.104889E-03
      0.400000          0.103460E-03
      0.405000          0.102076E-03
      0.410000          0.100741E-03
      0.415000          0.994596E-04
      0.420000          0.982385E-04
      0.425000          0.970836E-04
      0.430000          0.960005E-04
      0.435000          0.949938E-04
      0.440000          0.940663E-04
      0.445000          0.932187E-04
      0.450000          0.924497E-04
      0.455000          0.917553E-04
      0.460000          0.911292E-04
      0.465000          0.905629E-04
      0.470000          0.900462E-04
      0.475000          0.895674E-04
      0.480000          0.891137E-04
      0.485000          0.886723E-04
      0.490000          0.882304E-04
      0.495000          0.877761E-04
      0.500000          0.872990E-04
