 I_abs(s)[cm^-1]/c[mg/ml]
       0.00000          0.145922E-01
      0.500000E-02      0.145443E-01
      0.100000E-01      0.144014E-01
      0.150000E-01      0.141663E-01
      0.200000E-01      0.138438E-01
      0.250000E-01      0.134400E-01
      0.300000E-01      0.129628E-01
      0.350000E-01      0.124209E-01
      0.400000E-01      0.118244E-01
      0.450000E-01      0.111836E-01
      0.500000E-01      0.105095E-01
      0.550000E-01      0.981285E-02
      0.600000E-01      0.910440E-02
      0.650000E-01      0.839426E-02
      0.700000E-01      0.769182E-02
      0.750000E-01      0.700558E-02
      0.800000E-01      0.634292E-02
      0.850000E-01      0.571009E-02
      0.900000E-01      0.511207E-02
      0.950000E-01      0.455263E-02
      0.100000          0.403433E-02
      0.105000          0.355857E-02
      0.110000          0.312575E-02
      0.115000          0.273533E-02
      0.120000          0.238600E-02
      0.125000          0.207584E-02
      0.130000          0.180243E-02
      0.135000          0.156305E-02
      0.140000          0.135475E-02
      0.145000          0.117452E-02
      0.150000          0.101938E-02
      0.155000          0.886440E-03
      0.160000          0.773000E-03
      0.165000          0.676564E-03
      0.170000          0.594876E-03
      0.175000          0.525929E-03
      0.180000          0.467961E-03
      0.185000          0.419442E-03
      0.190000          0.379049E-03
      0.195000          0.345644E-03
      0.200000          0.318247E-03
      0.205000          0.296005E-03
      0.210000          0.278172E-03
      0.215000          0.264085E-03
      0.220000          0.253151E-03
      0.225000          0.244830E-03
      0.230000          0.238631E-03
      0.235000          0.234105E-03
      0.240000          0.230846E-03
      0.245000          0.228490E-03
      0.250000          0.226716E-03
      0.255000          0.225253E-03
      0.260000          0.223875E-03
      0.265000          0.222409E-03
      0.270000          0.220727E-03
      0.275000          0.218749E-03
      0.280000          0.216436E-03
      0.285000          0.213787E-03
      0.290000          0.210828E-03
      0.295000          0.207612E-03
      0.300000          0.204204E-03
      0.305000          0.200675E-03
      0.310000          0.197100E-03
      0.315000          0.193546E-03
      0.320000          0.190071E-03
      0.325000          0.186718E-03
      0.330000          0.183517E-03
      0.335000          0.180479E-03
      0.340000          0.177601E-03
      0.345000          0.174868E-03
      0.350000          0.172251E-03
      0.355000          0.169715E-03
      0.360000          0.167220E-03
      0.365000          0.164725E-03
      0.370000          0.162191E-03
      0.375000          0.159583E-03
      0.380000          0.156871E-03
      0.385000          0.154036E-03
      0.390000          0.151066E-03
      0.395000          0.147956E-03
      0.400000          0.144712E-03
      0.405000          0.141347E-03
      0.410000          0.137878E-03
      0.415000          0.134328E-03
      0.420000          0.130725E-03
      0.425000          0.127095E-03
      0.430000          0.123468E-03
      0.435000          0.119870E-03
      0.440000          0.116326E-03
      0.445000          0.112860E-03
      0.450000          0.109491E-03
      0.455000          0.106236E-03
      0.460000          0.103108E-03
      0.465000          0.100117E-03
      0.470000          0.972704E-04
      0.475000          0.945745E-04
      0.480000          0.920325E-04
      0.485000          0.896464E-04
      0.490000          0.874173E-04
      0.495000          0.853457E-04
      0.500000          0.834313E-04
