 I_abs(s)[cm^-1]/c[mg/ml]
       0.00000          0.146399E-01
      0.500000E-02      0.145874E-01
      0.100000E-01      0.144310E-01
      0.150000E-01      0.141738E-01
      0.200000E-01      0.138210E-01
      0.250000E-01      0.133796E-01
      0.300000E-01      0.128582E-01
      0.350000E-01      0.122668E-01
      0.400000E-01      0.116165E-01
      0.450000E-01      0.109191E-01
      0.500000E-01      0.101868E-01
      0.550000E-01      0.943188E-02
      0.600000E-01      0.866648E-02
      0.650000E-01      0.790210E-02
      0.700000E-01      0.714945E-02
      0.750000E-01      0.641821E-02
      0.800000E-01      0.571685E-02
      0.850000E-01      0.505248E-02
      0.900000E-01      0.443081E-02
      0.950000E-01      0.385608E-02
      0.100000          0.333109E-02
      0.105000          0.285730E-02
      0.110000          0.243489E-02
      0.115000          0.206293E-02
      0.120000          0.173950E-02
      0.125000          0.146190E-02
      0.130000          0.122682E-02
      0.135000          0.103049E-02
      0.140000          0.868888E-03
      0.145000          0.737889E-03
      0.150000          0.633390E-03
      0.155000          0.551438E-03
      0.160000          0.488324E-03
      0.165000          0.440653E-03
      0.170000          0.405387E-03
      0.175000          0.379872E-03
      0.180000          0.361840E-03
      0.185000          0.349397E-03
      0.190000          0.341001E-03
      0.195000          0.335420E-03
      0.200000          0.331698E-03
      0.205000          0.329107E-03
      0.210000          0.327104E-03
      0.215000          0.325293E-03
      0.220000          0.323386E-03
      0.225000          0.321174E-03
      0.230000          0.318504E-03
      0.235000          0.315259E-03
      0.240000          0.311352E-03
      0.245000          0.306714E-03
      0.250000          0.301293E-03
      0.255000          0.295062E-03
      0.260000          0.288012E-03
      0.265000          0.280164E-03
      0.270000          0.271567E-03
      0.275000          0.262304E-03
      0.280000          0.252488E-03
      0.285000          0.242263E-03
      0.290000          0.231799E-03
      0.295000          0.221285E-03
      0.300000          0.210921E-03
      0.305000          0.200911E-03
      0.310000          0.191450E-03
      0.315000          0.182717E-03
      0.320000          0.174863E-03
      0.325000          0.168010E-03
      0.330000          0.162236E-03
      0.335000          0.157582E-03
      0.340000          0.154040E-03
      0.345000          0.151563E-03
      0.350000          0.150065E-03
      0.355000          0.149425E-03
      0.360000          0.149496E-03
      0.365000          0.150112E-03
      0.370000          0.151097E-03
      0.375000          0.152274E-03
      0.380000          0.153471E-03
      0.385000          0.154533E-03
      0.390000          0.155324E-03
      0.395000          0.155733E-03
      0.400000          0.155677E-03
      0.405000          0.155106E-03
      0.410000          0.153995E-03
      0.415000          0.152351E-03
      0.420000          0.150204E-03
      0.425000          0.147604E-03
      0.430000          0.144620E-03
      0.435000          0.141330E-03
      0.440000          0.137817E-03
      0.445000          0.134166E-03
      0.450000          0.130459E-03
      0.455000          0.126770E-03
      0.460000          0.123162E-03
      0.465000          0.119686E-03
      0.470000          0.116380E-03
      0.475000          0.113266E-03
      0.480000          0.110357E-03
      0.485000          0.107651E-03
      0.490000          0.105137E-03
      0.495000          0.102797E-03
      0.500000          0.100609E-03
