 I_abs(s)[cm^-1]/c[mg/ml]
       0.00000          0.146559E-01
      0.500000E-02      0.146120E-01
      0.100000E-01      0.144811E-01
      0.150000E-01      0.142655E-01
      0.200000E-01      0.139686E-01
      0.250000E-01      0.135954E-01
      0.300000E-01      0.131520E-01
      0.350000E-01      0.126455E-01
      0.400000E-01      0.120839E-01
      0.450000E-01      0.114758E-01
      0.500000E-01      0.108303E-01
      0.550000E-01      0.101568E-01
      0.600000E-01      0.946473E-02
      0.650000E-01      0.876329E-02
      0.700000E-01      0.806138E-02
      0.750000E-01      0.736739E-02
      0.800000E-01      0.668900E-02
      0.850000E-01      0.603313E-02
      0.900000E-01      0.540576E-02
      0.950000E-01      0.481194E-02
      0.100000          0.425569E-02
      0.105000          0.374001E-02
      0.110000          0.326691E-02
      0.115000          0.283742E-02
      0.120000          0.245169E-02
      0.125000          0.210905E-02
      0.130000          0.180810E-02
      0.135000          0.154682E-02
      0.140000          0.132272E-02
      0.145000          0.113291E-02
      0.150000          0.974205E-03
      0.155000          0.843300E-03
      0.160000          0.736809E-03
      0.165000          0.651386E-03
      0.170000          0.583798E-03
      0.175000          0.530992E-03
      0.180000          0.490147E-03
      0.185000          0.458716E-03
      0.190000          0.434449E-03
      0.195000          0.415407E-03
      0.200000          0.399960E-03
      0.205000          0.386784E-03
      0.210000          0.374839E-03
      0.215000          0.363348E-03
      0.220000          0.351767E-03
      0.225000          0.339754E-03
      0.230000          0.327137E-03
      0.235000          0.313879E-03
      0.240000          0.300047E-03
      0.245000          0.285784E-03
      0.250000          0.271277E-03
      0.255000          0.256742E-03
      0.260000          0.242396E-03
      0.265000          0.228447E-03
      0.270000          0.215082E-03
      0.275000          0.202457E-03
      0.280000          0.190694E-03
      0.285000          0.179878E-03
      0.290000          0.170059E-03
      0.295000          0.161252E-03
      0.300000          0.153446E-03
      0.305000          0.146603E-03
      0.310000          0.140665E-03
      0.315000          0.135561E-03
      0.320000          0.131212E-03
      0.325000          0.127532E-03
      0.330000          0.124437E-03
      0.335000          0.121844E-03
      0.340000          0.119678E-03
      0.345000          0.117870E-03
      0.350000          0.116358E-03
      0.355000          0.115091E-03
      0.360000          0.114025E-03
      0.365000          0.113126E-03
      0.370000          0.112364E-03
      0.375000          0.111717E-03
      0.380000          0.111168E-03
      0.385000          0.110702E-03
      0.390000          0.110308E-03
      0.395000          0.109975E-03
      0.400000          0.109692E-03
      0.405000          0.109450E-03
      0.410000          0.109237E-03
      0.415000          0.109042E-03
      0.420000          0.108850E-03
      0.425000          0.108650E-03
      0.430000          0.108425E-03
      0.435000          0.108162E-03
      0.440000          0.107846E-03
      0.445000          0.107463E-03
      0.450000          0.107002E-03
      0.455000          0.106451E-03
      0.460000          0.105802E-03
      0.465000          0.105048E-03
      0.470000          0.104185E-03
      0.475000          0.103214E-03
      0.480000          0.102134E-03
      0.485000          0.100951E-03
      0.490000          0.996716E-04
      0.495000          0.983048E-04
      0.500000          0.968615E-04
