 I_abs(s)[cm^-1]/c[mg/ml]
       0.00000          0.146559E-01
      0.500000E-02      0.146104E-01
      0.100000E-01      0.144749E-01
      0.150000E-01      0.142517E-01
      0.200000E-01      0.139448E-01
      0.250000E-01      0.135598E-01
      0.300000E-01      0.131034E-01
      0.350000E-01      0.125833E-01
      0.400000E-01      0.120084E-01
      0.450000E-01      0.113880E-01
      0.500000E-01      0.107320E-01
      0.550000E-01      0.100502E-01
      0.600000E-01      0.935265E-02
      0.650000E-01      0.864889E-02
      0.700000E-01      0.794801E-02
      0.750000E-01      0.725839E-02
      0.800000E-01      0.658758E-02
      0.850000E-01      0.594216E-02
      0.900000E-01      0.532765E-02
      0.950000E-01      0.474851E-02
      0.100000          0.420808E-02
      0.105000          0.370863E-02
      0.110000          0.325141E-02
      0.115000          0.283673E-02
      0.120000          0.246405E-02
      0.125000          0.213211E-02
      0.130000          0.183903E-02
      0.135000          0.158246E-02
      0.140000          0.135972E-02
      0.145000          0.116789E-02
      0.150000          0.100392E-02
      0.155000          0.864769E-03
      0.160000          0.747467E-03
      0.165000          0.649180E-03
      0.170000          0.567275E-03
      0.175000          0.499349E-03
      0.180000          0.443256E-03
      0.185000          0.397113E-03
      0.190000          0.359294E-03
      0.195000          0.328417E-03
      0.200000          0.303326E-03
      0.205000          0.283060E-03
      0.210000          0.266829E-03
      0.215000          0.253979E-03
      0.220000          0.243969E-03
      0.225000          0.236345E-03
      0.230000          0.230714E-03
      0.235000          0.226727E-03
      0.240000          0.224069E-03
      0.245000          0.222447E-03
      0.250000          0.221582E-03
      0.255000          0.221215E-03
      0.260000          0.221097E-03
      0.265000          0.221003E-03
      0.270000          0.220728E-03
      0.275000          0.220096E-03
      0.280000          0.218960E-03
      0.285000          0.217210E-03
      0.290000          0.214771E-03
      0.295000          0.211608E-03
      0.300000          0.207720E-03
      0.305000          0.203140E-03
      0.310000          0.197930E-03
      0.315000          0.192179E-03
      0.320000          0.185993E-03
      0.325000          0.179490E-03
      0.330000          0.172794E-03
      0.335000          0.166029E-03
      0.340000          0.159313E-03
      0.345000          0.152753E-03
      0.350000          0.146443E-03
      0.355000          0.140457E-03
      0.360000          0.134855E-03
      0.365000          0.129675E-03
      0.370000          0.124939E-03
      0.375000          0.120653E-03
      0.380000          0.116807E-03
      0.385000          0.113383E-03
      0.390000          0.110351E-03
      0.395000          0.107679E-03
      0.400000          0.105331E-03
      0.405000          0.103271E-03
      0.410000          0.101463E-03
      0.415000          0.998789E-04
      0.420000          0.984910E-04
      0.425000          0.972784E-04
      0.430000          0.962249E-04
      0.435000          0.953188E-04
      0.440000          0.945519E-04
      0.445000          0.939191E-04
      0.450000          0.934166E-04
      0.455000          0.930410E-04
      0.460000          0.927883E-04
      0.465000          0.926528E-04
      0.470000          0.926265E-04
      0.475000          0.926983E-04
      0.480000          0.928540E-04
      0.485000          0.930765E-04
      0.490000          0.933458E-04
      0.495000          0.936395E-04
      0.500000          0.939342E-04
