 I_abs(s)[cm^-1]/c[mg/ml]
       0.00000          0.145525E-01
      0.500000E-02      0.145017E-01
      0.100000E-01      0.143503E-01
      0.150000E-01      0.141017E-01
      0.200000E-01      0.137613E-01
      0.250000E-01      0.133365E-01
      0.300000E-01      0.128362E-01
      0.350000E-01      0.122706E-01
      0.400000E-01      0.116509E-01
      0.450000E-01      0.109887E-01
      0.500000E-01      0.102961E-01
      0.550000E-01      0.958460E-02
      0.600000E-01      0.886541E-02
      0.650000E-01      0.814891E-02
      0.700000E-01      0.744443E-02
      0.750000E-01      0.676013E-02
      0.800000E-01      0.610285E-02
      0.850000E-01      0.547812E-02
      0.900000E-01      0.489012E-02
      0.950000E-01      0.434178E-02
      0.100000          0.383485E-02
      0.105000          0.337007E-02
      0.110000          0.294728E-02
      0.115000          0.256557E-02
      0.120000          0.222348E-02
      0.125000          0.191910E-02
      0.130000          0.165023E-02
      0.135000          0.141445E-02
      0.140000          0.120928E-02
      0.145000          0.103218E-02
      0.150000          0.880659E-03
      0.155000          0.752285E-03
      0.160000          0.644714E-03
      0.165000          0.555706E-03
      0.170000          0.483129E-03
      0.175000          0.424970E-03
      0.180000          0.379326E-03
      0.185000          0.344418E-03
      0.190000          0.318581E-03
      0.195000          0.300276E-03
      0.200000          0.288092E-03
      0.205000          0.280747E-03
      0.210000          0.277095E-03
      0.215000          0.276129E-03
      0.220000          0.276977E-03
      0.225000          0.278900E-03
      0.230000          0.281289E-03
      0.235000          0.283657E-03
      0.240000          0.285623E-03
      0.245000          0.286906E-03
      0.250000          0.287311E-03
      0.255000          0.286712E-03
      0.260000          0.285046E-03
      0.265000          0.282294E-03
      0.270000          0.278479E-03
      0.275000          0.273653E-03
      0.280000          0.267889E-03
      0.285000          0.261285E-03
      0.290000          0.253948E-03
      0.295000          0.246002E-03
      0.300000          0.237579E-03
      0.305000          0.228817E-03
      0.310000          0.219858E-03
      0.315000          0.210845E-03
      0.320000          0.201918E-03
      0.325000          0.193208E-03
      0.330000          0.184834E-03
      0.335000          0.176899E-03
      0.340000          0.169486E-03
      0.345000          0.162658E-03
      0.350000          0.156452E-03
      0.355000          0.150885E-03
      0.360000          0.145949E-03
      0.365000          0.141619E-03
      0.370000          0.137853E-03
      0.375000          0.134598E-03
      0.380000          0.131795E-03
      0.385000          0.129380E-03
      0.390000          0.127294E-03
      0.395000          0.125479E-03
      0.400000          0.123887E-03
      0.405000          0.122476E-03
      0.410000          0.121213E-03
      0.415000          0.120072E-03
      0.420000          0.119033E-03
      0.425000          0.118080E-03
      0.430000          0.117196E-03
      0.435000          0.116367E-03
      0.440000          0.115574E-03
      0.445000          0.114795E-03
      0.450000          0.114005E-03
      0.455000          0.113175E-03
      0.460000          0.112275E-03
      0.465000          0.111276E-03
      0.470000          0.110150E-03
      0.475000          0.108872E-03
      0.480000          0.107429E-03
      0.485000          0.105812E-03
      0.490000          0.104024E-03
      0.495000          0.102079E-03
      0.500000          0.100001E-03
