 I_abs(s)[cm^-1]/c[mg/ml]
       0.00000          0.145525E-01
      0.500000E-02      0.145080E-01
      0.100000E-01      0.143752E-01
      0.150000E-01      0.141564E-01
      0.200000E-01      0.138555E-01
      0.250000E-01      0.134777E-01
      0.300000E-01      0.130294E-01
      0.350000E-01      0.125183E-01
      0.400000E-01      0.119526E-01
      0.450000E-01      0.113416E-01
      0.500000E-01      0.106947E-01
      0.550000E-01      0.100217E-01
      0.600000E-01      0.933220E-02
      0.650000E-01      0.863570E-02
      0.700000E-01      0.794121E-02
      0.750000E-01      0.725710E-02
      0.800000E-01      0.659097E-02
      0.850000E-01      0.594951E-02
      0.900000E-01      0.533843E-02
      0.950000E-01      0.476237E-02
      0.100000          0.422489E-02
      0.105000          0.372851E-02
      0.110000          0.327469E-02
      0.115000          0.286395E-02
      0.120000          0.249590E-02
      0.125000          0.216939E-02
      0.130000          0.188260E-02
      0.135000          0.163317E-02
      0.140000          0.141834E-02
      0.145000          0.123504E-02
      0.150000          0.108004E-02
      0.155000          0.950041E-03
      0.160000          0.841794E-03
      0.165000          0.752157E-03
      0.170000          0.678178E-03
      0.175000          0.617145E-03
      0.180000          0.566621E-03
      0.185000          0.524470E-03
      0.190000          0.488857E-03
      0.195000          0.458250E-03
      0.200000          0.431405E-03
      0.205000          0.407340E-03
      0.210000          0.385313E-03
      0.215000          0.364782E-03
      0.220000          0.345380E-03
      0.225000          0.326877E-03
      0.230000          0.309148E-03
      0.235000          0.292145E-03
      0.240000          0.275871E-03
      0.245000          0.260358E-03
      0.250000          0.245651E-03
      0.255000          0.231795E-03
      0.260000          0.218824E-03
      0.265000          0.206758E-03
      0.270000          0.195601E-03
      0.275000          0.185341E-03
      0.280000          0.175950E-03
      0.285000          0.167390E-03
      0.290000          0.159615E-03
      0.295000          0.152578E-03
      0.300000          0.146229E-03
      0.305000          0.140523E-03
      0.310000          0.135417E-03
      0.315000          0.130878E-03
      0.320000          0.126874E-03
      0.325000          0.123383E-03
      0.330000          0.120383E-03
      0.335000          0.117856E-03
      0.340000          0.115784E-03
      0.345000          0.114147E-03
      0.350000          0.112922E-03
      0.355000          0.112079E-03
      0.360000          0.111583E-03
      0.365000          0.111393E-03
      0.370000          0.111459E-03
      0.375000          0.111727E-03
      0.380000          0.112139E-03
      0.385000          0.112631E-03
      0.390000          0.113140E-03
      0.395000          0.113604E-03
      0.400000          0.113963E-03
      0.405000          0.114164E-03
      0.410000          0.114159E-03
      0.415000          0.113912E-03
      0.420000          0.113393E-03
      0.425000          0.112587E-03
      0.430000          0.111486E-03
      0.435000          0.110097E-03
      0.440000          0.108434E-03
      0.445000          0.106521E-03
      0.450000          0.104392E-03
      0.455000          0.102085E-03
      0.460000          0.996432E-04
      0.465000          0.971136E-04
      0.470000          0.945429E-04
      0.475000          0.919775E-04
      0.480000          0.894613E-04
      0.485000          0.870345E-04
      0.490000          0.847325E-04
      0.495000          0.825849E-04
      0.500000          0.806151E-04
