 I_abs(s)[cm^-1]/c[mg/ml]
       0.00000          0.148556E-01
      0.500000E-02      0.148079E-01
      0.100000E-01      0.146657E-01
      0.150000E-01      0.144320E-01
      0.200000E-01      0.141114E-01
      0.250000E-01      0.137102E-01
      0.300000E-01      0.132361E-01
      0.350000E-01      0.126982E-01
      0.400000E-01      0.121061E-01
      0.450000E-01      0.114704E-01
      0.500000E-01      0.108018E-01
      0.550000E-01      0.101108E-01
      0.600000E-01      0.940803E-02
      0.650000E-01      0.870317E-02
      0.700000E-01      0.800530E-02
      0.750000E-01      0.732252E-02
      0.800000E-01      0.666184E-02
      0.850000E-01      0.602912E-02
      0.900000E-01      0.542903E-02
      0.950000E-01      0.486508E-02
      0.100000          0.433963E-02
      0.105000          0.385403E-02
      0.110000          0.340868E-02
      0.115000          0.300320E-02
      0.120000          0.263653E-02
      0.125000          0.230709E-02
      0.130000          0.201290E-02
      0.135000          0.175170E-02
      0.140000          0.152110E-02
      0.145000          0.131862E-02
      0.150000          0.114178E-02
      0.155000          0.988174E-03
      0.160000          0.855510E-03
      0.165000          0.741614E-03
      0.170000          0.644460E-03
      0.175000          0.562169E-03
      0.180000          0.493004E-03
      0.185000          0.435363E-03
      0.190000          0.387768E-03
      0.195000          0.348856E-03
      0.200000          0.317367E-03
      0.205000          0.292142E-03
      0.210000          0.272114E-03
      0.215000          0.256311E-03
      0.220000          0.243853E-03
      0.225000          0.233953E-03
      0.230000          0.225926E-03
      0.235000          0.219182E-03
      0.240000          0.213233E-03
      0.245000          0.207688E-03
      0.250000          0.202253E-03
      0.255000          0.196724E-03
      0.260000          0.190979E-03
      0.265000          0.184968E-03
      0.270000          0.178699E-03
      0.275000          0.172229E-03
      0.280000          0.165650E-03
      0.285000          0.159075E-03
      0.290000          0.152623E-03
      0.295000          0.146414E-03
      0.300000          0.140557E-03
      0.305000          0.135144E-03
      0.310000          0.130242E-03
      0.315000          0.125897E-03
      0.320000          0.122127E-03
      0.325000          0.118929E-03
      0.330000          0.116278E-03
      0.335000          0.114131E-03
      0.340000          0.112434E-03
      0.345000          0.111122E-03
      0.350000          0.110129E-03
      0.355000          0.109389E-03
      0.360000          0.108837E-03
      0.365000          0.108418E-03
      0.370000          0.108082E-03
      0.375000          0.107788E-03
      0.380000          0.107506E-03
      0.385000          0.107212E-03
      0.390000          0.106891E-03
      0.395000          0.106534E-03
      0.400000          0.106135E-03
      0.405000          0.105693E-03
      0.410000          0.105208E-03
      0.415000          0.104679E-03
      0.420000          0.104107E-03
      0.425000          0.103490E-03
      0.430000          0.102826E-03
      0.435000          0.102112E-03
      0.440000          0.101343E-03
      0.445000          0.100514E-03
      0.450000          0.996205E-04
      0.455000          0.986595E-04
      0.460000          0.976287E-04
      0.465000          0.965281E-04
      0.470000          0.953603E-04
      0.475000          0.941304E-04
      0.480000          0.928466E-04
      0.485000          0.915195E-04
      0.490000          0.901620E-04
      0.495000          0.887891E-04
      0.500000          0.874168E-04
