 I_abs(s)[cm^-1]/c[mg/ml]
       0.00000          0.144654E-01
      0.500000E-02      0.144196E-01
      0.100000E-01      0.142832E-01
      0.150000E-01      0.140587E-01
      0.200000E-01      0.137503E-01
      0.250000E-01      0.133637E-01
      0.300000E-01      0.129060E-01
      0.350000E-01      0.123854E-01
      0.400000E-01      0.118111E-01
      0.450000E-01      0.111928E-01
      0.500000E-01      0.105407E-01
      0.550000E-01      0.986502E-02
      0.600000E-01      0.917604E-02
      0.650000E-01      0.848353E-02
      0.700000E-01      0.779668E-02
      0.750000E-01      0.712393E-02
      0.800000E-01      0.647275E-02
      0.850000E-01      0.584955E-02
      0.900000E-01      0.525961E-02
      0.950000E-01      0.470702E-02
      0.100000          0.419469E-02
      0.105000          0.372440E-02
      0.110000          0.329684E-02
      0.115000          0.291173E-02
      0.120000          0.256794E-02
      0.125000          0.226360E-02
      0.130000          0.199629E-02
      0.135000          0.176311E-02
      0.140000          0.156092E-02
      0.145000          0.138640E-02
      0.150000          0.123620E-02
      0.155000          0.110708E-02
      0.160000          0.995940E-03
      0.165000          0.899939E-03
      0.170000          0.816526E-03
      0.175000          0.743478E-03
      0.180000          0.678906E-03
      0.185000          0.621259E-03
      0.190000          0.569304E-03
      0.195000          0.522096E-03
      0.200000          0.478944E-03
      0.205000          0.439366E-03
      0.210000          0.403051E-03
      0.215000          0.369808E-03
      0.220000          0.339533E-03
      0.225000          0.312164E-03
      0.230000          0.287657E-03
      0.235000          0.265957E-03
      0.240000          0.246982E-03
      0.245000          0.230613E-03
      0.250000          0.216685E-03
      0.255000          0.204995E-03
      0.260000          0.195299E-03
      0.265000          0.187327E-03
      0.270000          0.180792E-03
      0.275000          0.175401E-03
      0.280000          0.170869E-03
      0.285000          0.166930E-03
      0.290000          0.163345E-03
      0.295000          0.159912E-03
      0.300000          0.156472E-03
      0.305000          0.152908E-03
      0.310000          0.149146E-03
      0.315000          0.145156E-03
      0.320000          0.140944E-03
      0.325000          0.136548E-03
      0.330000          0.132029E-03
      0.335000          0.127468E-03
      0.340000          0.122952E-03
      0.345000          0.118572E-03
      0.350000          0.114416E-03
      0.355000          0.110559E-03
      0.360000          0.107065E-03
      0.365000          0.103980E-03
      0.370000          0.101333E-03
      0.375000          0.991334E-04
      0.380000          0.973725E-04
      0.385000          0.960269E-04
      0.390000          0.950596E-04
      0.395000          0.944233E-04
      0.400000          0.940638E-04
      0.405000          0.939234E-04
      0.410000          0.939436E-04
      0.415000          0.940683E-04
      0.420000          0.942459E-04
      0.425000          0.944312E-04
      0.430000          0.945862E-04
      0.435000          0.946810E-04
      0.440000          0.946941E-04
      0.445000          0.946113E-04
      0.450000          0.944256E-04
      0.455000          0.941359E-04
      0.460000          0.937458E-04
      0.465000          0.932624E-04
      0.470000          0.926950E-04
      0.475000          0.920540E-04
      0.480000          0.913502E-04
      0.485000          0.905936E-04
      0.490000          0.897933E-04
      0.495000          0.889571E-04
      0.500000          0.880914E-04
