 I_abs(s)[cm^-1]/c[mg/ml]
       0.00000          0.147995E-01
      0.500000E-02      0.147527E-01
      0.100000E-01      0.146132E-01
      0.150000E-01      0.143836E-01
      0.200000E-01      0.140684E-01
      0.250000E-01      0.136735E-01
      0.300000E-01      0.132060E-01
      0.350000E-01      0.126745E-01
      0.400000E-01      0.120882E-01
      0.450000E-01      0.114569E-01
      0.500000E-01      0.107910E-01
      0.550000E-01      0.101006E-01
      0.600000E-01      0.939576E-02
      0.650000E-01      0.868617E-02
      0.700000E-01      0.798075E-02
      0.750000E-01      0.728764E-02
      0.800000E-01      0.661405E-02
      0.850000E-01      0.596617E-02
      0.900000E-01      0.534911E-02
      0.950000E-01      0.476690E-02
      0.100000          0.422253E-02
      0.105000          0.371801E-02
      0.110000          0.325442E-02
      0.115000          0.283201E-02
      0.120000          0.245034E-02
      0.125000          0.210836E-02
      0.130000          0.180451E-02
      0.135000          0.153686E-02
      0.140000          0.130318E-02
      0.145000          0.110105E-02
      0.150000          0.927918E-03
      0.155000          0.781177E-03
      0.160000          0.658226E-03
      0.165000          0.556509E-03
      0.170000          0.473552E-03
      0.175000          0.406993E-03
      0.180000          0.354604E-03
      0.185000          0.314303E-03
      0.190000          0.284169E-03
      0.195000          0.262449E-03
      0.200000          0.247557E-03
      0.205000          0.238081E-03
      0.210000          0.232775E-03
      0.215000          0.230559E-03
      0.220000          0.230512E-03
      0.225000          0.231862E-03
      0.230000          0.233975E-03
      0.235000          0.236346E-03
      0.240000          0.238582E-03
      0.245000          0.240393E-03
      0.250000          0.241572E-03
      0.255000          0.241989E-03
      0.260000          0.241568E-03
      0.265000          0.240286E-03
      0.270000          0.238151E-03
      0.275000          0.235204E-03
      0.280000          0.231501E-03
      0.285000          0.227117E-03
      0.290000          0.222132E-03
      0.295000          0.216637E-03
      0.300000          0.210723E-03
      0.305000          0.204486E-03
      0.310000          0.198023E-03
      0.315000          0.191427E-03
      0.320000          0.184795E-03
      0.325000          0.178217E-03
      0.330000          0.171778E-03
      0.335000          0.165558E-03
      0.340000          0.159626E-03
      0.345000          0.154041E-03
      0.350000          0.148848E-03
      0.355000          0.144079E-03
      0.360000          0.139749E-03
      0.365000          0.135860E-03
      0.370000          0.132397E-03
      0.375000          0.129333E-03
      0.380000          0.126630E-03
      0.385000          0.124240E-03
      0.390000          0.122108E-03
      0.395000          0.120176E-03
      0.400000          0.118389E-03
      0.405000          0.116691E-03
      0.410000          0.115031E-03
      0.415000          0.113367E-03
      0.420000          0.111666E-03
      0.425000          0.109899E-03
      0.430000          0.108053E-03
      0.435000          0.106118E-03
      0.440000          0.104094E-03
      0.445000          0.101989E-03
      0.450000          0.998137E-04
      0.455000          0.975830E-04
      0.460000          0.953144E-04
      0.465000          0.930261E-04
      0.470000          0.907359E-04
      0.475000          0.884603E-04
      0.480000          0.862146E-04
      0.485000          0.840118E-04
      0.490000          0.818634E-04
      0.495000          0.797789E-04
      0.500000          0.777667E-04
