 I_abs(s)[cm^-1]/c[mg/ml]
       0.00000          0.146957E-01
      0.500000E-02      0.146479E-01
      0.100000E-01      0.145054E-01
      0.150000E-01      0.142710E-01
      0.200000E-01      0.139492E-01
      0.250000E-01      0.135460E-01
      0.300000E-01      0.130690E-01
      0.350000E-01      0.125267E-01
      0.400000E-01      0.119290E-01
      0.450000E-01      0.112860E-01
      0.500000E-01      0.106084E-01
      0.550000E-01      0.990700E-02
      0.600000E-01      0.919237E-02
      0.650000E-01      0.847465E-02
      0.700000E-01      0.776330E-02
      0.750000E-01      0.706695E-02
      0.800000E-01      0.639320E-02
      0.850000E-01      0.574853E-02
      0.900000E-01      0.513824E-02
      0.950000E-01      0.456641E-02
      0.100000          0.403593E-02
      0.105000          0.354854E-02
      0.110000          0.310492E-02
      0.115000          0.270481E-02
      0.120000          0.234712E-02
      0.125000          0.203007E-02
      0.130000          0.175136E-02
      0.135000          0.150826E-02
      0.140000          0.129780E-02
      0.145000          0.111689E-02
      0.150000          0.962366E-03
      0.155000          0.831178E-03
      0.160000          0.720394E-03
      0.165000          0.627284E-03
      0.170000          0.549355E-03
      0.175000          0.484371E-03
      0.180000          0.430360E-03
      0.185000          0.385611E-03
      0.190000          0.348654E-03
      0.195000          0.318244E-03
      0.200000          0.293332E-03
      0.205000          0.273038E-03
      0.210000          0.256627E-03
      0.215000          0.243476E-03
      0.220000          0.233058E-03
      0.225000          0.224921E-03
      0.230000          0.218672E-03
      0.235000          0.213965E-03
      0.240000          0.210493E-03
      0.245000          0.207986E-03
      0.250000          0.206204E-03
      0.255000          0.204940E-03
      0.260000          0.204015E-03
      0.265000          0.203282E-03
      0.270000          0.202624E-03
      0.275000          0.201950E-03
      0.280000          0.201201E-03
      0.285000          0.200337E-03
      0.290000          0.199342E-03
      0.295000          0.198214E-03
      0.300000          0.196963E-03
      0.305000          0.195607E-03
      0.310000          0.194164E-03
      0.315000          0.192652E-03
      0.320000          0.191084E-03
      0.325000          0.189466E-03
      0.330000          0.187793E-03
      0.335000          0.186054E-03
      0.340000          0.184228E-03
      0.345000          0.182290E-03
      0.350000          0.180206E-03
      0.355000          0.177945E-03
      0.360000          0.175474E-03
      0.365000          0.172764E-03
      0.370000          0.169793E-03
      0.375000          0.166544E-03
      0.380000          0.163014E-03
      0.385000          0.159207E-03
      0.390000          0.155139E-03
      0.395000          0.150835E-03
      0.400000          0.146331E-03
      0.405000          0.141667E-03
      0.410000          0.136892E-03
      0.415000          0.132057E-03
      0.420000          0.127214E-03
      0.425000          0.122415E-03
      0.430000          0.117710E-03
      0.435000          0.113144E-03
      0.440000          0.108754E-03
      0.445000          0.104575E-03
      0.450000          0.100632E-03
      0.455000          0.969437E-04
      0.460000          0.935220E-04
      0.465000          0.903726E-04
      0.470000          0.874955E-04
      0.475000          0.848861E-04
      0.480000          0.825365E-04
      0.485000          0.804359E-04
      0.490000          0.785718E-04
      0.495000          0.769311E-04
      0.500000          0.755005E-04
