 I_abs(s)[cm^-1]/c[mg/ml]
       0.00000          0.149037E-01
      0.500000E-02      0.148562E-01
      0.100000E-01      0.147148E-01
      0.150000E-01      0.144820E-01
      0.200000E-01      0.141623E-01
      0.250000E-01      0.137615E-01
      0.300000E-01      0.132870E-01
      0.350000E-01      0.127472E-01
      0.400000E-01      0.121515E-01
      0.450000E-01      0.115099E-01
      0.500000E-01      0.108329E-01
      0.550000E-01      0.101310E-01
      0.600000E-01      0.941457E-02
      0.650000E-01      0.869353E-02
      0.700000E-01      0.797726E-02
      0.750000E-01      0.727430E-02
      0.800000E-01      0.659222E-02
      0.850000E-01      0.593757E-02
      0.900000E-01      0.531577E-02
      0.950000E-01      0.473106E-02
      0.100000          0.418659E-02
      0.105000          0.368439E-02
      0.110000          0.322546E-02
      0.115000          0.280990E-02
      0.120000          0.243699E-02
      0.125000          0.210530E-02
      0.130000          0.181287E-02
      0.135000          0.155727E-02
      0.140000          0.133578E-02
      0.145000          0.114548E-02
      0.150000          0.983345E-03
      0.155000          0.846341E-03
      0.160000          0.731502E-03
      0.165000          0.635989E-03
      0.170000          0.557131E-03
      0.175000          0.492461E-03
      0.180000          0.439733E-03
      0.185000          0.396937E-03
      0.190000          0.362296E-03
      0.195000          0.334261E-03
      0.200000          0.311507E-03
      0.205000          0.292910E-03
      0.210000          0.277539E-03
      0.215000          0.264635E-03
      0.220000          0.253591E-03
      0.225000          0.243938E-03
      0.230000          0.235324E-03
      0.235000          0.227501E-03
      0.240000          0.220300E-03
      0.245000          0.213625E-03
      0.250000          0.207431E-03
      0.255000          0.201714E-03
      0.260000          0.196496E-03
      0.265000          0.191813E-03
      0.270000          0.187707E-03
      0.275000          0.184213E-03
      0.280000          0.181357E-03
      0.285000          0.179145E-03
      0.290000          0.177564E-03
      0.295000          0.176576E-03
      0.300000          0.176121E-03
      0.305000          0.176117E-03
      0.310000          0.176464E-03
      0.315000          0.177046E-03
      0.320000          0.177740E-03
      0.325000          0.178418E-03
      0.330000          0.178955E-03
      0.335000          0.179232E-03
      0.340000          0.179145E-03
      0.345000          0.178606E-03
      0.350000          0.177547E-03
      0.355000          0.175925E-03
      0.360000          0.173718E-03
      0.365000          0.170928E-03
      0.370000          0.167580E-03
      0.375000          0.163716E-03
      0.380000          0.159397E-03
      0.385000          0.154696E-03
      0.390000          0.149694E-03
      0.395000          0.144480E-03
      0.400000          0.139139E-03
      0.405000          0.133758E-03
      0.410000          0.128416E-03
      0.415000          0.123186E-03
      0.420000          0.118128E-03
      0.425000          0.113294E-03
      0.430000          0.108725E-03
      0.435000          0.104449E-03
      0.440000          0.100485E-03
      0.445000          0.968427E-04
      0.450000          0.935235E-04
      0.455000          0.905224E-04
      0.460000          0.878296E-04
      0.465000          0.854318E-04
      0.470000          0.833132E-04
      0.475000          0.814571E-04
      0.480000          0.798464E-04
      0.485000          0.784643E-04
      0.490000          0.772945E-04
      0.495000          0.763215E-04
      0.500000          0.755304E-04
