 I_abs(s)[cm^-1]/c[mg/ml]
       0.00000          0.146479E-01
      0.500000E-02      0.145717E-01
      0.100000E-01      0.143457E-01
      0.150000E-01      0.139774E-01
      0.200000E-01      0.134791E-01
      0.250000E-01      0.128668E-01
      0.300000E-01      0.121599E-01
      0.350000E-01      0.113798E-01
      0.400000E-01      0.105489E-01
      0.450000E-01      0.968976E-02
      0.500000E-01      0.882402E-02
      0.550000E-01      0.797136E-02
      0.600000E-01      0.714895E-02
      0.650000E-01      0.637087E-02
      0.700000E-01      0.564782E-02
      0.750000E-01      0.498703E-02
      0.800000E-01      0.439238E-02
      0.850000E-01      0.386470E-02
      0.900000E-01      0.340218E-02
      0.950000E-01      0.300091E-02
      0.100000          0.265544E-02
      0.105000          0.235939E-02
      0.110000          0.210596E-02
      0.115000          0.188839E-02
      0.120000          0.170039E-02
      0.125000          0.153635E-02
      0.130000          0.139156E-02
      0.135000          0.126227E-02
      0.140000          0.114561E-02
      0.145000          0.103959E-02
      0.150000          0.942873E-03
      0.155000          0.854673E-03
      0.160000          0.774553E-03
      0.165000          0.702277E-03
      0.170000          0.637676E-03
      0.175000          0.580548E-03
      0.180000          0.530595E-03
      0.185000          0.487393E-03
      0.190000          0.450394E-03
      0.195000          0.418951E-03
      0.200000          0.392352E-03
      0.205000          0.369868E-03
      0.210000          0.350797E-03
      0.215000          0.334495E-03
      0.220000          0.320407E-03
      0.225000          0.308074E-03
      0.230000          0.297138E-03
      0.235000          0.287332E-03
      0.240000          0.278460E-03
      0.245000          0.270383E-03
      0.250000          0.262993E-03
      0.255000          0.256201E-03
      0.260000          0.249918E-03
      0.265000          0.244054E-03
      0.270000          0.238516E-03
      0.275000          0.233207E-03
      0.280000          0.228037E-03
      0.285000          0.222932E-03
      0.290000          0.217837E-03
      0.295000          0.212724E-03
      0.300000          0.207597E-03
      0.305000          0.202484E-03
      0.310000          0.197437E-03
      0.315000          0.192522E-03
      0.320000          0.187809E-03
      0.325000          0.183364E-03
      0.330000          0.179233E-03
      0.335000          0.175446E-03
      0.340000          0.172001E-03
      0.345000          0.168874E-03
      0.350000          0.166016E-03
      0.355000          0.163362E-03
      0.360000          0.160835E-03
      0.365000          0.158362E-03
      0.370000          0.155879E-03
      0.375000          0.153337E-03
      0.380000          0.150712E-03
      0.385000          0.148001E-03
      0.390000          0.145228E-03
      0.395000          0.142436E-03
      0.400000          0.139684E-03
      0.405000          0.137034E-03
      0.410000          0.134549E-03
      0.415000          0.132283E-03
      0.420000          0.130269E-03
      0.425000          0.128522E-03
      0.430000          0.127034E-03
      0.435000          0.125770E-03
      0.440000          0.124678E-03
      0.445000          0.123687E-03
      0.450000          0.122721E-03
      0.455000          0.121698E-03
      0.460000          0.120544E-03
      0.465000          0.119196E-03
      0.470000          0.117606E-03
      0.475000          0.115750E-03
      0.480000          0.113622E-03
      0.485000          0.111237E-03
      0.490000          0.108631E-03
      0.495000          0.105850E-03
      0.500000          0.102952E-03
