 I_abs(s)[cm^-1]/c[mg/ml]
       0.00000          0.145922E-01
      0.500000E-02      0.145477E-01
      0.100000E-01      0.144150E-01
      0.150000E-01      0.141962E-01
      0.200000E-01      0.138950E-01
      0.250000E-01      0.135165E-01
      0.300000E-01      0.130669E-01
      0.350000E-01      0.125534E-01
      0.400000E-01      0.119841E-01
      0.450000E-01      0.113680E-01
      0.500000E-01      0.107142E-01
      0.550000E-01      0.100323E-01
      0.600000E-01      0.933189E-02
      0.650000E-01      0.862229E-02
      0.700000E-01      0.791254E-02
      0.750000E-01      0.721114E-02
      0.800000E-01      0.652586E-02
      0.850000E-01      0.586367E-02
      0.900000E-01      0.523063E-02
      0.950000E-01      0.463180E-02
      0.100000          0.407124E-02
      0.105000          0.355196E-02
      0.110000          0.307596E-02
      0.115000          0.264430E-02
      0.120000          0.225712E-02
      0.125000          0.191375E-02
      0.130000          0.161280E-02
      0.135000          0.135229E-02
      0.140000          0.112973E-02
      0.145000          0.942250E-03
      0.150000          0.786726E-03
      0.155000          0.659871E-03
      0.160000          0.558334E-03
      0.165000          0.478800E-03
      0.170000          0.418054E-03
      0.175000          0.373052E-03
      0.180000          0.340966E-03
      0.185000          0.319224E-03
      0.190000          0.305528E-03
      0.195000          0.297870E-03
      0.200000          0.294530E-03
      0.205000          0.294069E-03
      0.210000          0.295313E-03
      0.215000          0.297331E-03
      0.220000          0.299414E-03
      0.225000          0.301043E-03
      0.230000          0.301863E-03
      0.235000          0.301654E-03
      0.240000          0.300309E-03
      0.245000          0.297803E-03
      0.250000          0.294176E-03
      0.255000          0.289513E-03
      0.260000          0.283926E-03
      0.265000          0.277547E-03
      0.270000          0.270511E-03
      0.275000          0.262954E-03
      0.280000          0.255006E-03
      0.285000          0.246788E-03
      0.290000          0.238410E-03
      0.295000          0.229969E-03
      0.300000          0.221553E-03
      0.305000          0.213236E-03
      0.310000          0.205084E-03
      0.315000          0.197149E-03
      0.320000          0.189479E-03
      0.325000          0.182108E-03
      0.330000          0.175065E-03
      0.335000          0.168369E-03
      0.340000          0.162034E-03
      0.345000          0.156064E-03
      0.350000          0.150457E-03
      0.355000          0.145205E-03
      0.360000          0.140293E-03
      0.365000          0.135701E-03
      0.370000          0.131407E-03
      0.375000          0.127385E-03
      0.380000          0.123606E-03
      0.385000          0.120043E-03
      0.390000          0.116669E-03
      0.395000          0.113460E-03
      0.400000          0.110394E-03
      0.405000          0.107456E-03
      0.410000          0.104634E-03
      0.415000          0.101923E-03
      0.420000          0.993225E-04
      0.425000          0.968382E-04
      0.430000          0.944805E-04
      0.435000          0.922639E-04
      0.440000          0.902060E-04
      0.445000          0.883260E-04
      0.450000          0.866437E-04
      0.455000          0.851780E-04
      0.460000          0.839453E-04
      0.465000          0.829586E-04
      0.470000          0.822259E-04
      0.475000          0.817497E-04
      0.480000          0.815260E-04
      0.485000          0.815445E-04
      0.490000          0.817875E-04
      0.495000          0.822314E-04
      0.500000          0.828463E-04
