 I_abs(s)[cm^-1]/c[mg/ml]
       0.00000          0.148957E-01
      0.500000E-02      0.148495E-01
      0.100000E-01      0.147119E-01
      0.150000E-01      0.144853E-01
      0.200000E-01      0.141740E-01
      0.250000E-01      0.137834E-01
      0.300000E-01      0.133206E-01
      0.350000E-01      0.127935E-01
      0.400000E-01      0.122112E-01
      0.450000E-01      0.115830E-01
      0.500000E-01      0.109191E-01
      0.550000E-01      0.102294E-01
      0.600000E-01      0.952382E-02
      0.650000E-01      0.881198E-02
      0.700000E-01      0.810288E-02
      0.750000E-01      0.740479E-02
      0.800000E-01      0.672513E-02
      0.850000E-01      0.607032E-02
      0.900000E-01      0.544575E-02
      0.950000E-01      0.485576E-02
      0.100000          0.430361E-02
      0.105000          0.379154E-02
      0.110000          0.332083E-02
      0.115000          0.289191E-02
      0.120000          0.250441E-02
      0.125000          0.215730E-02
      0.130000          0.184902E-02
      0.135000          0.157754E-02
      0.140000          0.134055E-02
      0.145000          0.113549E-02
      0.150000          0.959674E-03
      0.155000          0.810375E-03
      0.160000          0.684878E-03
      0.165000          0.580541E-03
      0.170000          0.494832E-03
      0.175000          0.425366E-03
      0.180000          0.369919E-03
      0.185000          0.326442E-03
      0.190000          0.293067E-03
      0.195000          0.268103E-03
      0.200000          0.250035E-03
      0.205000          0.237518E-03
      0.210000          0.229364E-03
      0.215000          0.224538E-03
      0.220000          0.222146E-03
      0.225000          0.221427E-03
      0.230000          0.221745E-03
      0.235000          0.222576E-03
      0.240000          0.223505E-03
      0.245000          0.224210E-03
      0.250000          0.224462E-03
      0.255000          0.224104E-03
      0.260000          0.223053E-03
      0.265000          0.221280E-03
      0.270000          0.218805E-03
      0.275000          0.215687E-03
      0.280000          0.212011E-03
      0.285000          0.207881E-03
      0.290000          0.203410E-03
      0.295000          0.198714E-03
      0.300000          0.193902E-03
      0.305000          0.189077E-03
      0.310000          0.184324E-03
      0.315000          0.179715E-03
      0.320000          0.175305E-03
      0.325000          0.171129E-03
      0.330000          0.167209E-03
      0.335000          0.163549E-03
      0.340000          0.160143E-03
      0.345000          0.156974E-03
      0.350000          0.154018E-03
      0.355000          0.151248E-03
      0.360000          0.148632E-03
      0.365000          0.146140E-03
      0.370000          0.143743E-03
      0.375000          0.141415E-03
      0.380000          0.139134E-03
      0.385000          0.136882E-03
      0.390000          0.134645E-03
      0.395000          0.132414E-03
      0.400000          0.130185E-03
      0.405000          0.127954E-03
      0.410000          0.125724E-03
      0.415000          0.123498E-03
      0.420000          0.121279E-03
      0.425000          0.119075E-03
      0.430000          0.116890E-03
      0.435000          0.114732E-03
      0.440000          0.112605E-03
      0.445000          0.110515E-03
      0.450000          0.108465E-03
      0.455000          0.106457E-03
      0.460000          0.104494E-03
      0.465000          0.102575E-03
      0.470000          0.100700E-03
      0.475000          0.988664E-04
      0.480000          0.970718E-04
      0.485000          0.953133E-04
      0.490000          0.935873E-04
      0.495000          0.918909E-04
      0.500000          0.902213E-04
