 I_abs(s)[cm^-1]/c[mg/ml]
       0.00000          0.146002E-01
      0.500000E-02      0.145498E-01
      0.100000E-01      0.143998E-01
      0.150000E-01      0.141532E-01
      0.200000E-01      0.138148E-01
      0.250000E-01      0.133913E-01
      0.300000E-01      0.128909E-01
      0.350000E-01      0.123230E-01
      0.400000E-01      0.116983E-01
      0.450000E-01      0.110279E-01
      0.500000E-01      0.103233E-01
      0.550000E-01      0.959641E-02
      0.600000E-01      0.885855E-02
      0.650000E-01      0.812068E-02
      0.700000E-01      0.739298E-02
      0.750000E-01      0.668467E-02
      0.800000E-01      0.600378E-02
      0.850000E-01      0.535711E-02
      0.900000E-01      0.475010E-02
      0.950000E-01      0.418681E-02
      0.100000          0.366998E-02
      0.105000          0.320104E-02
      0.110000          0.278025E-02
      0.115000          0.240679E-02
      0.120000          0.207894E-02
      0.125000          0.179422E-02
      0.130000          0.154957E-02
      0.135000          0.134151E-02
      0.140000          0.116631E-02
      0.145000          0.102010E-02
      0.150000          0.899083E-03
      0.155000          0.799552E-03
      0.160000          0.718042E-03
      0.165000          0.651380E-03
      0.170000          0.596728E-03
      0.175000          0.551614E-03
      0.180000          0.513936E-03
      0.185000          0.481957E-03
      0.190000          0.454281E-03
      0.195000          0.429822E-03
      0.200000          0.407770E-03
      0.205000          0.387547E-03
      0.210000          0.368762E-03
      0.215000          0.351175E-03
      0.220000          0.334656E-03
      0.225000          0.319151E-03
      0.230000          0.304652E-03
      0.235000          0.291175E-03
      0.240000          0.278739E-03
      0.245000          0.267355E-03
      0.250000          0.257020E-03
      0.255000          0.247707E-03
      0.260000          0.239368E-03
      0.265000          0.231934E-03
      0.270000          0.225322E-03
      0.275000          0.219432E-03
      0.280000          0.214160E-03
      0.285000          0.209398E-03
      0.290000          0.205038E-03
      0.295000          0.200980E-03
      0.300000          0.197132E-03
      0.305000          0.193412E-03
      0.310000          0.189754E-03
      0.315000          0.186103E-03
      0.320000          0.182416E-03
      0.325000          0.178668E-03
      0.330000          0.174843E-03
      0.335000          0.170936E-03
      0.340000          0.166955E-03
      0.345000          0.162914E-03
      0.350000          0.158834E-03
      0.355000          0.154741E-03
      0.360000          0.150665E-03
      0.365000          0.146639E-03
      0.370000          0.142693E-03
      0.375000          0.138859E-03
      0.380000          0.135166E-03
      0.385000          0.131639E-03
      0.390000          0.128297E-03
      0.395000          0.125158E-03
      0.400000          0.122232E-03
      0.405000          0.119522E-03
      0.410000          0.117027E-03
      0.415000          0.114742E-03
      0.420000          0.112653E-03
      0.425000          0.110744E-03
      0.430000          0.108997E-03
      0.435000          0.107390E-03
      0.440000          0.105898E-03
      0.445000          0.104497E-03
      0.450000          0.103164E-03
      0.455000          0.101877E-03
      0.460000          0.100616E-03
      0.465000          0.993639E-04
      0.470000          0.981061E-04
      0.475000          0.968326E-04
      0.480000          0.955366E-04
      0.485000          0.942151E-04
      0.490000          0.928684E-04
      0.495000          0.914996E-04
      0.500000          0.901148E-04
