 I_abs(s)[cm^-1]/c[mg/ml]
       0.00000          0.146479E-01
      0.500000E-02      0.145935E-01
      0.100000E-01      0.144314E-01
      0.150000E-01      0.141653E-01
      0.200000E-01      0.138010E-01
      0.250000E-01      0.133467E-01
      0.300000E-01      0.128120E-01
      0.350000E-01      0.122081E-01
      0.400000E-01      0.115473E-01
      0.450000E-01      0.108424E-01
      0.500000E-01      0.101067E-01
      0.550000E-01      0.935295E-02
      0.600000E-01      0.859376E-02
      0.650000E-01      0.784065E-02
      0.700000E-01      0.710412E-02
      0.750000E-01      0.639328E-02
      0.800000E-01      0.571582E-02
      0.850000E-01      0.507783E-02
      0.900000E-01      0.448389E-02
      0.950000E-01      0.393702E-02
      0.100000          0.343885E-02
      0.105000          0.298973E-02
      0.110000          0.258888E-02
      0.115000          0.223458E-02
      0.120000          0.192440E-02
      0.125000          0.165533E-02
      0.130000          0.142400E-02
      0.135000          0.122683E-02
      0.140000          0.106018E-02
      0.145000          0.920441E-03
      0.150000          0.804169E-03
      0.155000          0.708123E-03
      0.160000          0.629321E-03
      0.165000          0.565061E-03
      0.170000          0.512939E-03
      0.175000          0.470835E-03
      0.180000          0.436909E-03
      0.185000          0.409576E-03
      0.190000          0.387484E-03
      0.195000          0.369493E-03
      0.200000          0.354649E-03
      0.205000          0.342165E-03
      0.210000          0.331397E-03
      0.215000          0.321830E-03
      0.220000          0.313063E-03
      0.225000          0.304791E-03
      0.230000          0.296794E-03
      0.235000          0.288927E-03
      0.240000          0.281105E-03
      0.245000          0.273294E-03
      0.250000          0.265498E-03
      0.255000          0.257751E-03
      0.260000          0.250104E-03
      0.265000          0.242618E-03
      0.270000          0.235353E-03
      0.275000          0.228364E-03
      0.280000          0.221697E-03
      0.285000          0.215382E-03
      0.290000          0.209433E-03
      0.295000          0.203849E-03
      0.300000          0.198616E-03
      0.305000          0.193706E-03
      0.310000          0.189084E-03
      0.315000          0.184710E-03
      0.320000          0.180541E-03
      0.325000          0.176537E-03
      0.330000          0.172662E-03
      0.335000          0.168887E-03
      0.340000          0.165188E-03
      0.345000          0.161551E-03
      0.350000          0.157968E-03
      0.355000          0.154435E-03
      0.360000          0.150956E-03
      0.365000          0.147533E-03
      0.370000          0.144174E-03
      0.375000          0.140883E-03
      0.380000          0.137663E-03
      0.385000          0.134516E-03
      0.390000          0.131439E-03
      0.395000          0.128430E-03
      0.400000          0.125483E-03
      0.405000          0.122593E-03
      0.410000          0.119755E-03
      0.415000          0.116967E-03
      0.420000          0.114228E-03
      0.425000          0.111544E-03
      0.430000          0.108922E-03
      0.435000          0.106378E-03
      0.440000          0.103929E-03
      0.445000          0.101595E-03
      0.450000          0.993996E-04
      0.455000          0.973677E-04
      0.460000          0.955218E-04
      0.465000          0.938823E-04
      0.470000          0.924654E-04
      0.475000          0.912815E-04
      0.480000          0.903348E-04
      0.485000          0.896222E-04
      0.490000          0.891335E-04
      0.495000          0.888519E-04
      0.500000          0.887548E-04
