 I_abs(s)[cm^-1]/c[mg/ml]
       0.00000          0.141664E-01
      0.500000E-02      0.140632E-01
      0.100000E-01      0.137587E-01
      0.150000E-01      0.132673E-01
      0.200000E-01      0.126122E-01
      0.250000E-01      0.118232E-01
      0.300000E-01      0.109349E-01
      0.350000E-01      0.998374E-02
      0.400000E-01      0.900621E-02
      0.450000E-01      0.803608E-02
      0.500000E-01      0.710269E-02
      0.550000E-01      0.622948E-02
      0.600000E-01      0.543326E-02
      0.650000E-01      0.472392E-02
      0.700000E-01      0.410487E-02
      0.750000E-01      0.357389E-02
      0.800000E-01      0.312429E-02
      0.850000E-01      0.274635E-02
      0.900000E-01      0.242869E-02
      0.950000E-01      0.215966E-02
      0.100000          0.192837E-02
      0.105000          0.172553E-02
      0.110000          0.154391E-02
      0.115000          0.137845E-02
      0.120000          0.122620E-02
      0.125000          0.108587E-02
      0.130000          0.957424E-03
      0.135000          0.841537E-03
      0.140000          0.739075E-03
      0.145000          0.650715E-03
      0.150000          0.576660E-03
      0.155000          0.516504E-03
      0.160000          0.469233E-03
      0.165000          0.433332E-03
      0.170000          0.406958E-03
      0.175000          0.388157E-03
      0.180000          0.375056E-03
      0.185000          0.366031E-03
      0.190000          0.359803E-03
      0.195000          0.355478E-03
      0.200000          0.352517E-03
      0.205000          0.350661E-03
      0.210000          0.349827E-03
      0.215000          0.349998E-03
      0.220000          0.351120E-03
      0.225000          0.353039E-03
      0.230000          0.355465E-03
      0.235000          0.357975E-03
      0.240000          0.360060E-03
      0.245000          0.361177E-03
      0.250000          0.360829E-03
      0.255000          0.358629E-03
      0.260000          0.354350E-03
      0.265000          0.347957E-03
      0.270000          0.339606E-03
      0.275000          0.329618E-03
      0.280000          0.318434E-03
      0.285000          0.306555E-03
      0.290000          0.294480E-03
      0.295000          0.282650E-03
      0.300000          0.271403E-03
      0.305000          0.260949E-03
      0.310000          0.251370E-03
      0.315000          0.242628E-03
      0.320000          0.234600E-03
      0.325000          0.227112E-03
      0.330000          0.219980E-03
      0.335000          0.213045E-03
      0.340000          0.206205E-03
      0.345000          0.199424E-03
      0.350000          0.192735E-03
      0.355000          0.186232E-03
      0.360000          0.180048E-03
      0.365000          0.174329E-03
      0.370000          0.169208E-03
      0.375000          0.164782E-03
      0.380000          0.161096E-03
      0.385000          0.158131E-03
      0.390000          0.155806E-03
      0.395000          0.153989E-03
      0.400000          0.152509E-03
      0.405000          0.151176E-03
      0.410000          0.149806E-03
      0.415000          0.148235E-03
      0.420000          0.146336E-03
      0.425000          0.144030E-03
      0.430000          0.141289E-03
      0.435000          0.138134E-03
      0.440000          0.134625E-03
      0.445000          0.130857E-03
      0.450000          0.126939E-03
      0.455000          0.122988E-03
      0.460000          0.119110E-03
      0.465000          0.115400E-03
      0.470000          0.111925E-03
      0.475000          0.108730E-03
      0.480000          0.105836E-03
      0.485000          0.103238E-03
      0.490000          0.100918E-03
      0.495000          0.988442E-04
      0.500000          0.969779E-04
