 I_abs(s)[cm^-1]/c[mg/ml]
       0.00000          0.145525E-01
      0.500000E-02      0.145066E-01
      0.100000E-01      0.143697E-01
      0.150000E-01      0.141442E-01
      0.200000E-01      0.138342E-01
      0.250000E-01      0.134454E-01
      0.300000E-01      0.129846E-01
      0.350000E-01      0.124597E-01
      0.400000E-01      0.118797E-01
      0.450000E-01      0.112541E-01
      0.500000E-01      0.105930E-01
      0.550000E-01      0.990633E-02
      0.600000E-01      0.920429E-02
      0.650000E-01      0.849660E-02
      0.700000E-01      0.779246E-02
      0.750000E-01      0.710037E-02
      0.800000E-01      0.642797E-02
      0.850000E-01      0.578190E-02
      0.900000E-01      0.516775E-02
      0.950000E-01      0.458999E-02
      0.100000          0.405197E-02
      0.105000          0.355595E-02
      0.110000          0.310313E-02
      0.115000          0.269378E-02
      0.120000          0.232731E-02
      0.125000          0.200236E-02
      0.130000          0.171699E-02
      0.135000          0.146876E-02
      0.140000          0.125488E-02
      0.145000          0.107233E-02
      0.150000          0.917960E-03
      0.155000          0.788628E-03
      0.160000          0.681249E-03
      0.165000          0.592883E-03
      0.170000          0.520787E-03
      0.175000          0.462454E-03
      0.180000          0.415635E-03
      0.185000          0.378345E-03
      0.190000          0.348866E-03
      0.195000          0.325732E-03
      0.200000          0.307707E-03
      0.205000          0.293767E-03
      0.210000          0.283066E-03
      0.215000          0.274915E-03
      0.220000          0.268747E-03
      0.225000          0.264102E-03
      0.230000          0.260596E-03
      0.235000          0.257910E-03
      0.240000          0.255771E-03
      0.245000          0.253944E-03
      0.250000          0.252226E-03
      0.255000          0.250439E-03
      0.260000          0.248433E-03
      0.265000          0.246081E-03
      0.270000          0.243283E-03
      0.275000          0.239968E-03
      0.280000          0.236092E-03
      0.285000          0.231641E-03
      0.290000          0.226630E-03
      0.295000          0.221101E-03
      0.300000          0.215118E-03
      0.305000          0.208769E-03
      0.310000          0.202154E-03
      0.315000          0.195384E-03
      0.320000          0.188574E-03
      0.325000          0.181840E-03
      0.330000          0.175289E-03
      0.335000          0.169018E-03
      0.340000          0.163108E-03
      0.345000          0.157624E-03
      0.350000          0.152611E-03
      0.355000          0.148094E-03
      0.360000          0.144079E-03
      0.365000          0.140554E-03
      0.370000          0.137491E-03
      0.375000          0.134850E-03
      0.380000          0.132581E-03
      0.385000          0.130627E-03
      0.390000          0.128930E-03
      0.395000          0.127429E-03
      0.400000          0.126070E-03
      0.405000          0.124801E-03
      0.410000          0.123579E-03
      0.415000          0.122366E-03
      0.420000          0.121135E-03
      0.425000          0.119868E-03
      0.430000          0.118551E-03
      0.435000          0.117180E-03
      0.440000          0.115756E-03
      0.445000          0.114285E-03
      0.450000          0.112775E-03
      0.455000          0.111235E-03
      0.460000          0.109677E-03
      0.465000          0.108110E-03
      0.470000          0.106542E-03
      0.475000          0.104978E-03
      0.480000          0.103424E-03
      0.485000          0.101881E-03
      0.490000          0.100348E-03
      0.495000          0.988219E-04
      0.500000          0.973001E-04
