 I_abs(s)[cm^-1]/c[mg/ml]
       0.00000          0.143313E-01
      0.500000E-02      0.142783E-01
      0.100000E-01      0.141204E-01
      0.150000E-01      0.138610E-01
      0.200000E-01      0.135056E-01
      0.250000E-01      0.130616E-01
      0.300000E-01      0.125382E-01
      0.350000E-01      0.119459E-01
      0.400000E-01      0.112966E-01
      0.450000E-01      0.106025E-01
      0.500000E-01      0.987646E-02
      0.550000E-01      0.913136E-02
      0.600000E-01      0.837966E-02
      0.650000E-01      0.763319E-02
      0.700000E-01      0.690282E-02
      0.750000E-01      0.619825E-02
      0.800000E-01      0.552781E-02
      0.850000E-01      0.489829E-02
      0.900000E-01      0.431496E-02
      0.950000E-01      0.378144E-02
      0.100000          0.329985E-02
      0.105000          0.287080E-02
      0.110000          0.249360E-02
      0.115000          0.216637E-02
      0.120000          0.188628E-02
      0.125000          0.164969E-02
      0.130000          0.145242E-02
      0.135000          0.128990E-02
      0.140000          0.115744E-02
      0.145000          0.105034E-02
      0.150000          0.964059E-03
      0.155000          0.894390E-03
      0.160000          0.837508E-03
      0.165000          0.790068E-03
      0.170000          0.749235E-03
      0.175000          0.712708E-03
      0.180000          0.678703E-03
      0.185000          0.645928E-03
      0.190000          0.613530E-03
      0.195000          0.581043E-03
      0.200000          0.548319E-03
      0.205000          0.515455E-03
      0.210000          0.482729E-03
      0.215000          0.450530E-03
      0.220000          0.419301E-03
      0.225000          0.389488E-03
      0.230000          0.361499E-03
      0.235000          0.335671E-03
      0.240000          0.312252E-03
      0.245000          0.291388E-03
      0.250000          0.273120E-03
      0.255000          0.257394E-03
      0.260000          0.244063E-03
      0.265000          0.232913E-03
      0.270000          0.223670E-03
      0.275000          0.216029E-03
      0.280000          0.209667E-03
      0.285000          0.204262E-03
      0.290000          0.199509E-03
      0.295000          0.195135E-03
      0.300000          0.190906E-03
      0.305000          0.186632E-03
      0.310000          0.182177E-03
      0.315000          0.177452E-03
      0.320000          0.172414E-03
      0.325000          0.167065E-03
      0.330000          0.161444E-03
      0.335000          0.155616E-03
      0.340000          0.149671E-03
      0.345000          0.143709E-03
      0.350000          0.137837E-03
      0.355000          0.132161E-03
      0.360000          0.126779E-03
      0.365000          0.121779E-03
      0.370000          0.117229E-03
      0.375000          0.113182E-03
      0.380000          0.109672E-03
      0.385000          0.106711E-03
      0.390000          0.104295E-03
      0.395000          0.102401E-03
      0.400000          0.100992E-03
      0.405000          0.100021E-03
      0.410000          0.994287E-04
      0.415000          0.991523E-04
      0.420000          0.991251E-04
      0.425000          0.992803E-04
      0.430000          0.995536E-04
      0.435000          0.998849E-04
      0.440000          0.100220E-03
      0.445000          0.100514E-03
      0.450000          0.100726E-03
      0.455000          0.100829E-03
      0.460000          0.100801E-03
      0.465000          0.100629E-03
      0.470000          0.100310E-03
      0.475000          0.998459E-04
      0.480000          0.992442E-04
      0.485000          0.985183E-04
      0.490000          0.976851E-04
      0.495000          0.967635E-04
      0.500000          0.957738E-04
