 I_abs(s)[cm^-1]/c[mg/ml]
       0.00000          0.143943E-01
      0.500000E-02      0.143200E-01
      0.100000E-01      0.140998E-01
      0.150000E-01      0.137415E-01
      0.200000E-01      0.132575E-01
      0.250000E-01      0.126643E-01
      0.300000E-01      0.119814E-01
      0.350000E-01      0.112302E-01
      0.400000E-01      0.104330E-01
      0.450000E-01      0.961201E-02
      0.500000E-01      0.878788E-02
      0.550000E-01      0.797927E-02
      0.600000E-01      0.720201E-02
      0.650000E-01      0.646865E-02
      0.700000E-01      0.578833E-02
      0.750000E-01      0.516676E-02
      0.800000E-01      0.460646E-02
      0.850000E-01      0.410717E-02
      0.900000E-01      0.366637E-02
      0.950000E-01      0.327981E-02
      0.100000          0.294212E-02
      0.105000          0.264734E-02
      0.110000          0.238944E-02
      0.115000          0.216266E-02
      0.120000          0.196184E-02
      0.125000          0.178254E-02
      0.130000          0.162119E-02
      0.135000          0.147501E-02
      0.140000          0.134196E-02
      0.145000          0.122062E-02
      0.150000          0.111003E-02
      0.155000          0.100956E-02
      0.160000          0.918720E-03
      0.165000          0.837107E-03
      0.170000          0.764275E-03
      0.175000          0.699694E-03
      0.180000          0.642731E-03
      0.185000          0.592648E-03
      0.190000          0.548633E-03
      0.195000          0.509835E-03
      0.200000          0.475413E-03
      0.205000          0.444580E-03
      0.210000          0.416639E-03
      0.215000          0.391021E-03
      0.220000          0.367294E-03
      0.225000          0.345171E-03
      0.230000          0.324501E-03
      0.235000          0.305249E-03
      0.240000          0.287469E-03
      0.245000          0.271270E-03
      0.250000          0.256780E-03
      0.255000          0.244116E-03
      0.260000          0.233352E-03
      0.265000          0.224498E-03
      0.270000          0.217488E-03
      0.275000          0.212175E-03
      0.280000          0.208336E-03
      0.285000          0.205687E-03
      0.290000          0.203900E-03
      0.295000          0.202630E-03
      0.300000          0.201538E-03
      0.305000          0.200314E-03
      0.310000          0.198700E-03
      0.315000          0.196504E-03
      0.320000          0.193608E-03
      0.325000          0.189972E-03
      0.330000          0.185629E-03
      0.335000          0.180672E-03
      0.340000          0.175242E-03
      0.345000          0.169511E-03
      0.350000          0.163661E-03
      0.355000          0.157871E-03
      0.360000          0.152301E-03
      0.365000          0.147081E-03
      0.370000          0.142303E-03
      0.375000          0.138023E-03
      0.380000          0.134255E-03
      0.385000          0.130983E-03
      0.390000          0.128162E-03
      0.395000          0.125728E-03
      0.400000          0.123603E-03
      0.405000          0.121708E-03
      0.410000          0.119964E-03
      0.415000          0.118301E-03
      0.420000          0.116657E-03
      0.425000          0.114986E-03
      0.430000          0.113255E-03
      0.435000          0.111446E-03
      0.440000          0.109552E-03
      0.445000          0.107582E-03
      0.450000          0.105549E-03
      0.455000          0.103479E-03
      0.460000          0.101401E-03
      0.465000          0.993461E-04
      0.470000          0.973462E-04
      0.475000          0.954304E-04
      0.480000          0.936227E-04
      0.485000          0.919396E-04
      0.490000          0.903887E-04
      0.495000          0.889679E-04
      0.500000          0.876653E-04
