 I_abs(s)[cm^-1]/c[mg/ml]
       0.00000          0.145684E-01
      0.500000E-02      0.145090E-01
      0.100000E-01      0.143325E-01
      0.150000E-01      0.140433E-01
      0.200000E-01      0.136491E-01
      0.250000E-01      0.131596E-01
      0.300000E-01      0.125870E-01
      0.350000E-01      0.119450E-01
      0.400000E-01      0.112482E-01
      0.450000E-01      0.105119E-01
      0.500000E-01      0.975115E-02
      0.550000E-01      0.898055E-02
      0.600000E-01      0.821365E-02
      0.650000E-01      0.746261E-02
      0.700000E-01      0.673793E-02
      0.750000E-01      0.604831E-02
      0.800000E-01      0.540052E-02
      0.850000E-01      0.479944E-02
      0.900000E-01      0.424812E-02
      0.950000E-01      0.374795E-02
      0.100000          0.329886E-02
      0.105000          0.289950E-02
      0.110000          0.254755E-02
      0.115000          0.223988E-02
      0.120000          0.197284E-02
      0.125000          0.174247E-02
      0.130000          0.154465E-02
      0.135000          0.137528E-02
      0.140000          0.123043E-02
      0.145000          0.110639E-02
      0.150000          0.999812E-03
      0.155000          0.907690E-03
      0.160000          0.827431E-03
      0.165000          0.756839E-03
      0.170000          0.694114E-03
      0.175000          0.637824E-03
      0.180000          0.586869E-03
      0.185000          0.540441E-03
      0.190000          0.497976E-03
      0.195000          0.459105E-03
      0.200000          0.423600E-03
      0.205000          0.391334E-03
      0.210000          0.362234E-03
      0.215000          0.336246E-03
      0.220000          0.313307E-03
      0.225000          0.293323E-03
      0.230000          0.276162E-03
      0.235000          0.261643E-03
      0.240000          0.249541E-03
      0.245000          0.239597E-03
      0.250000          0.231524E-03
      0.255000          0.225025E-03
      0.260000          0.219801E-03
      0.265000          0.215570E-03
      0.270000          0.212067E-03
      0.275000          0.209064E-03
      0.280000          0.206363E-03
      0.285000          0.203806E-03
      0.290000          0.201268E-03
      0.295000          0.198661E-03
      0.300000          0.195924E-03
      0.305000          0.193023E-03
      0.310000          0.189944E-03
      0.315000          0.186691E-03
      0.320000          0.183279E-03
      0.325000          0.179735E-03
      0.330000          0.176090E-03
      0.335000          0.172382E-03
      0.340000          0.168648E-03
      0.345000          0.164926E-03
      0.350000          0.161250E-03
      0.355000          0.157648E-03
      0.360000          0.154141E-03
      0.365000          0.150741E-03
      0.370000          0.147450E-03
      0.375000          0.144262E-03
      0.380000          0.141159E-03
      0.385000          0.138119E-03
      0.390000          0.135114E-03
      0.395000          0.132116E-03
      0.400000          0.129098E-03
      0.405000          0.126040E-03
      0.410000          0.122930E-03
      0.415000          0.119768E-03
      0.420000          0.116563E-03
      0.425000          0.113339E-03
      0.430000          0.110127E-03
      0.435000          0.106967E-03
      0.440000          0.103903E-03
      0.445000          0.100980E-03
      0.450000          0.982399E-04
      0.455000          0.957194E-04
      0.460000          0.934456E-04
      0.465000          0.914353E-04
      0.470000          0.896940E-04
      0.475000          0.882162E-04
      0.480000          0.869861E-04
      0.485000          0.859801E-04
      0.490000          0.851689E-04
      0.495000          0.845198E-04
      0.500000          0.839994E-04
