 I_abs(s)[cm^-1]/c[mg/ml]
       0.00000          0.144971E-01
      0.500000E-02      0.144357E-01
      0.100000E-01      0.142532E-01
      0.150000E-01      0.139544E-01
      0.200000E-01      0.135470E-01
      0.250000E-01      0.130412E-01
      0.300000E-01      0.124498E-01
      0.350000E-01      0.117869E-01
      0.400000E-01      0.110681E-01
      0.450000E-01      0.103094E-01
      0.500000E-01      0.952687E-02
      0.550000E-01      0.873606E-02
      0.600000E-01      0.795149E-02
      0.650000E-01      0.718622E-02
      0.700000E-01      0.645155E-02
      0.750000E-01      0.575678E-02
      0.800000E-01      0.510908E-02
      0.850000E-01      0.451346E-02
      0.900000E-01      0.397288E-02
      0.950000E-01      0.348834E-02
      0.100000          0.305914E-02
      0.105000          0.268314E-02
      0.110000          0.235706E-02
      0.115000          0.207674E-02
      0.120000          0.183751E-02
      0.125000          0.163442E-02
      0.130000          0.146251E-02
      0.135000          0.131700E-02
      0.140000          0.119345E-02
      0.145000          0.108790E-02
      0.150000          0.996887E-03
      0.155000          0.917524E-03
      0.160000          0.847449E-03
      0.165000          0.784806E-03
      0.170000          0.728181E-03
      0.175000          0.676536E-03
      0.180000          0.629130E-03
      0.185000          0.585450E-03
      0.190000          0.545141E-03
      0.195000          0.507953E-03
      0.200000          0.473692E-03
      0.205000          0.442188E-03
      0.210000          0.413276E-03
      0.215000          0.386783E-03
      0.220000          0.362526E-03
      0.225000          0.340314E-03
      0.230000          0.319955E-03
      0.235000          0.301266E-03
      0.240000          0.284077E-03
      0.245000          0.268240E-03
      0.250000          0.253631E-03
      0.255000          0.240154E-03
      0.260000          0.227733E-03
      0.265000          0.216317E-03
      0.270000          0.205868E-03
      0.275000          0.196360E-03
      0.280000          0.187770E-03
      0.285000          0.180074E-03
      0.290000          0.173244E-03
      0.295000          0.167244E-03
      0.300000          0.162027E-03
      0.305000          0.157540E-03
      0.310000          0.153719E-03
      0.315000          0.150496E-03
      0.320000          0.147794E-03
      0.325000          0.145539E-03
      0.330000          0.143654E-03
      0.335000          0.142064E-03
      0.340000          0.140697E-03
      0.345000          0.139485E-03
      0.350000          0.138366E-03
      0.355000          0.137280E-03
      0.360000          0.136174E-03
      0.365000          0.135002E-03
      0.370000          0.133720E-03
      0.375000          0.132294E-03
      0.380000          0.130696E-03
      0.385000          0.128906E-03
      0.390000          0.126914E-03
      0.395000          0.124721E-03
      0.400000          0.122337E-03
      0.405000          0.119786E-03
      0.410000          0.117100E-03
      0.415000          0.114320E-03
      0.420000          0.111498E-03
      0.425000          0.108689E-03
      0.430000          0.105951E-03
      0.435000          0.103340E-03
      0.440000          0.100910E-03
      0.445000          0.987056E-04
      0.450000          0.967621E-04
      0.455000          0.951021E-04
      0.460000          0.937342E-04
      0.465000          0.926527E-04
      0.470000          0.918380E-04
      0.475000          0.912578E-04
      0.480000          0.908697E-04
      0.485000          0.906239E-04
      0.490000          0.904666E-04
      0.495000          0.903432E-04
      0.500000          0.902025E-04
