 I_abs(s)[cm^-1]/c[mg/ml]
       0.00000          0.144891E-01
      0.500000E-02      0.144429E-01
      0.100000E-01      0.143051E-01
      0.150000E-01      0.140783E-01
      0.200000E-01      0.137668E-01
      0.250000E-01      0.133762E-01
      0.300000E-01      0.129137E-01
      0.350000E-01      0.123876E-01
      0.400000E-01      0.118069E-01
      0.450000E-01      0.111817E-01
      0.500000E-01      0.105220E-01
      0.550000E-01      0.983828E-02
      0.600000E-01      0.914081E-02
      0.650000E-01      0.843948E-02
      0.700000E-01      0.774360E-02
      0.750000E-01      0.706171E-02
      0.800000E-01      0.640138E-02
      0.850000E-01      0.576918E-02
      0.900000E-01      0.517050E-02
      0.950000E-01      0.460955E-02
      0.100000          0.408939E-02
      0.105000          0.361190E-02
      0.110000          0.317791E-02
      0.115000          0.278723E-02
      0.120000          0.243884E-02
      0.125000          0.213094E-02
      0.130000          0.186115E-02
      0.135000          0.162663E-02
      0.140000          0.142423E-02
      0.145000          0.125063E-02
      0.150000          0.110244E-02
      0.155000          0.976343E-03
      0.160000          0.869151E-03
      0.165000          0.777911E-03
      0.170000          0.699943E-03
      0.175000          0.632875E-03
      0.180000          0.574666E-03
      0.185000          0.523607E-03
      0.190000          0.478306E-03
      0.195000          0.437670E-03
      0.200000          0.400871E-03
      0.205000          0.367310E-03
      0.210000          0.336580E-03
      0.215000          0.308421E-03
      0.220000          0.282686E-03
      0.225000          0.259301E-03
      0.230000          0.238238E-03
      0.235000          0.219486E-03
      0.240000          0.203032E-03
      0.245000          0.188843E-03
      0.250000          0.176861E-03
      0.255000          0.166995E-03
      0.260000          0.159120E-03
      0.265000          0.153081E-03
      0.270000          0.148700E-03
      0.275000          0.145777E-03
      0.280000          0.144102E-03
      0.285000          0.143464E-03
      0.290000          0.143651E-03
      0.295000          0.144463E-03
      0.300000          0.145715E-03
      0.305000          0.147240E-03
      0.310000          0.148891E-03
      0.315000          0.150543E-03
      0.320000          0.152092E-03
      0.325000          0.153456E-03
      0.330000          0.154570E-03
      0.335000          0.155389E-03
      0.340000          0.155879E-03
      0.345000          0.156022E-03
      0.350000          0.155806E-03
      0.355000          0.155230E-03
      0.360000          0.154301E-03
      0.365000          0.153027E-03
      0.370000          0.151425E-03
      0.375000          0.149513E-03
      0.380000          0.147314E-03
      0.385000          0.144853E-03
      0.390000          0.142160E-03
      0.395000          0.139265E-03
      0.400000          0.136202E-03
      0.405000          0.133009E-03
      0.410000          0.129723E-03
      0.415000          0.126382E-03
      0.420000          0.123028E-03
      0.425000          0.119698E-03
      0.430000          0.116431E-03
      0.435000          0.113263E-03
      0.440000          0.110227E-03
      0.445000          0.107352E-03
      0.450000          0.104664E-03
      0.455000          0.102182E-03
      0.460000          0.999219E-04
      0.465000          0.978933E-04
      0.470000          0.961009E-04
      0.475000          0.945437E-04
      0.480000          0.932164E-04
      0.485000          0.921087E-04
      0.490000          0.912065E-04
      0.495000          0.904924E-04
      0.500000          0.899460E-04
