 I_abs(s)[cm^-1]/c[mg/ml]
       0.00000          0.147116E-01
      0.500000E-02      0.146621E-01
      0.100000E-01      0.145146E-01
      0.150000E-01      0.142723E-01
      0.200000E-01      0.139402E-01
      0.250000E-01      0.135252E-01
      0.300000E-01      0.130357E-01
      0.350000E-01      0.124813E-01
      0.400000E-01      0.118728E-01
      0.450000E-01      0.112212E-01
      0.500000E-01      0.105380E-01
      0.550000E-01      0.983459E-02
      0.600000E-01      0.912191E-02
      0.650000E-01      0.841024E-02
      0.700000E-01      0.770896E-02
      0.750000E-01      0.702638E-02
      0.800000E-01      0.636955E-02
      0.850000E-01      0.574428E-02
      0.900000E-01      0.515504E-02
      0.950000E-01      0.460504E-02
      0.100000          0.409628E-02
      0.105000          0.362966E-02
      0.110000          0.320510E-02
      0.115000          0.282171E-02
      0.120000          0.247791E-02
      0.125000          0.217160E-02
      0.130000          0.190034E-02
      0.135000          0.166142E-02
      0.140000          0.145201E-02
      0.145000          0.126930E-02
      0.150000          0.111050E-02
      0.155000          0.972973E-03
      0.160000          0.854229E-03
      0.165000          0.751984E-03
      0.170000          0.664158E-03
      0.175000          0.588878E-03
      0.180000          0.524480E-03
      0.185000          0.469487E-03
      0.190000          0.422604E-03
      0.195000          0.382694E-03
      0.200000          0.348764E-03
      0.205000          0.319951E-03
      0.210000          0.295503E-03
      0.215000          0.274767E-03
      0.220000          0.257180E-03
      0.225000          0.242254E-03
      0.230000          0.229571E-03
      0.235000          0.218771E-03
      0.240000          0.209548E-03
      0.245000          0.201643E-03
      0.250000          0.194836E-03
      0.255000          0.188940E-03
      0.260000          0.183800E-03
      0.265000          0.179282E-03
      0.270000          0.175276E-03
      0.275000          0.171689E-03
      0.280000          0.168440E-03
      0.285000          0.165464E-03
      0.290000          0.162704E-03
      0.295000          0.160114E-03
      0.300000          0.157659E-03
      0.305000          0.155308E-03
      0.310000          0.153041E-03
      0.315000          0.150844E-03
      0.320000          0.148709E-03
      0.325000          0.146634E-03
      0.330000          0.144622E-03
      0.335000          0.142675E-03
      0.340000          0.140802E-03
      0.345000          0.139008E-03
      0.350000          0.137299E-03
      0.355000          0.135678E-03
      0.360000          0.134145E-03
      0.365000          0.132698E-03
      0.370000          0.131329E-03
      0.375000          0.130027E-03
      0.380000          0.128779E-03
      0.385000          0.127567E-03
      0.390000          0.126373E-03
      0.395000          0.125178E-03
      0.400000          0.123961E-03
      0.405000          0.122705E-03
      0.410000          0.121393E-03
      0.415000          0.120011E-03
      0.420000          0.118549E-03
      0.425000          0.116998E-03
      0.430000          0.115356E-03
      0.435000          0.113622E-03
      0.440000          0.111798E-03
      0.445000          0.109889E-03
      0.450000          0.107905E-03
      0.455000          0.105854E-03
      0.460000          0.103748E-03
      0.465000          0.101599E-03
      0.470000          0.994188E-04
      0.475000          0.972205E-04
      0.480000          0.950164E-04
      0.485000          0.928188E-04
      0.490000          0.906393E-04
      0.495000          0.884889E-04
      0.500000          0.863781E-04
