 I_abs(s)[cm^-1]/c[mg/ml]
       0.00000          0.146399E-01
      0.500000E-02      0.145877E-01
      0.100000E-01      0.144322E-01
      0.150000E-01      0.141766E-01
      0.200000E-01      0.138264E-01
      0.250000E-01      0.133890E-01
      0.300000E-01      0.128732E-01
      0.350000E-01      0.122895E-01
      0.400000E-01      0.116492E-01
      0.450000E-01      0.109643E-01
      0.500000E-01      0.102472E-01
      0.550000E-01      0.951024E-02
      0.600000E-01      0.876525E-02
      0.650000E-01      0.802345E-02
      0.700000E-01      0.729510E-02
      0.750000E-01      0.658926E-02
      0.800000E-01      0.591370E-02
      0.850000E-01      0.527472E-02
      0.900000E-01      0.467721E-02
      0.950000E-01      0.412457E-02
      0.100000          0.361885E-02
      0.105000          0.316080E-02
      0.110000          0.275005E-02
      0.115000          0.238524E-02
      0.120000          0.206422E-02
      0.125000          0.178424E-02
      0.130000          0.154209E-02
      0.135000          0.133430E-02
      0.140000          0.115727E-02
      0.145000          0.100743E-02
      0.150000          0.881318E-03
      0.155000          0.775669E-03
      0.160000          0.687483E-03
      0.165000          0.614057E-03
      0.170000          0.552997E-03
      0.175000          0.502220E-03
      0.180000          0.459942E-03
      0.185000          0.424652E-03
      0.190000          0.395085E-03
      0.195000          0.370189E-03
      0.200000          0.349091E-03
      0.205000          0.331070E-03
      0.210000          0.315528E-03
      0.215000          0.301965E-03
      0.220000          0.289968E-03
      0.225000          0.279189E-03
      0.230000          0.269341E-03
      0.235000          0.260185E-03
      0.240000          0.251534E-03
      0.245000          0.243243E-03
      0.250000          0.235207E-03
      0.255000          0.227361E-03
      0.260000          0.219676E-03
      0.265000          0.212154E-03
      0.270000          0.204822E-03
      0.275000          0.197729E-03
      0.280000          0.190936E-03
      0.285000          0.184512E-03
      0.290000          0.178527E-03
      0.295000          0.173043E-03
      0.300000          0.168113E-03
      0.305000          0.163774E-03
      0.310000          0.160044E-03
      0.315000          0.156924E-03
      0.320000          0.154392E-03
      0.325000          0.152411E-03
      0.330000          0.150924E-03
      0.335000          0.149864E-03
      0.340000          0.149153E-03
      0.345000          0.148707E-03
      0.350000          0.148442E-03
      0.355000          0.148274E-03
      0.360000          0.148124E-03
      0.365000          0.147922E-03
      0.370000          0.147605E-03
      0.375000          0.147124E-03
      0.380000          0.146439E-03
      0.385000          0.145523E-03
      0.390000          0.144360E-03
      0.395000          0.142943E-03
      0.400000          0.141275E-03
      0.405000          0.139369E-03
      0.410000          0.137240E-03
      0.415000          0.134913E-03
      0.420000          0.132413E-03
      0.425000          0.129771E-03
      0.430000          0.127018E-03
      0.435000          0.124187E-03
      0.440000          0.121309E-03
      0.445000          0.118416E-03
      0.450000          0.115539E-03
      0.455000          0.112707E-03
      0.460000          0.109947E-03
      0.465000          0.107282E-03
      0.470000          0.104736E-03
      0.475000          0.102325E-03
      0.480000          0.100064E-03
      0.485000          0.979668E-04
      0.490000          0.960395E-04
      0.495000          0.942867E-04
      0.500000          0.927091E-04
