 I_abs(s)[cm^-1]/c[mg/ml]
       0.00000          0.145525E-01
      0.500000E-02      0.145041E-01
      0.100000E-01      0.143599E-01
      0.150000E-01      0.141224E-01
      0.200000E-01      0.137960E-01
      0.250000E-01      0.133868E-01
      0.300000E-01      0.129021E-01
      0.350000E-01      0.123505E-01
      0.400000E-01      0.117415E-01
      0.450000E-01      0.110854E-01
      0.500000E-01      0.103931E-01
      0.550000E-01      0.967532E-02
      0.600000E-01      0.894307E-02
      0.650000E-01      0.820684E-02
      0.700000E-01      0.747659E-02
      0.750000E-01      0.676152E-02
      0.800000E-01      0.606988E-02
      0.850000E-01      0.540882E-02
      0.900000E-01      0.478435E-02
      0.950000E-01      0.420122E-02
      0.100000          0.366292E-02
      0.105000          0.317172E-02
      0.110000          0.272871E-02
      0.115000          0.233388E-02
      0.120000          0.198625E-02
      0.125000          0.168397E-02
      0.130000          0.142449E-02
      0.135000          0.120469E-02
      0.140000          0.102107E-02
      0.145000          0.869835E-03
      0.150000          0.747089E-03
      0.155000          0.648939E-03
      0.160000          0.571607E-03
      0.165000          0.511528E-03
      0.170000          0.465416E-03
      0.175000          0.430320E-03
      0.180000          0.403657E-03
      0.185000          0.383228E-03
      0.190000          0.367213E-03
      0.195000          0.354160E-03
      0.200000          0.342954E-03
      0.205000          0.332783E-03
      0.210000          0.323096E-03
      0.215000          0.313559E-03
      0.220000          0.304007E-03
      0.225000          0.294404E-03
      0.230000          0.284800E-03
      0.235000          0.275297E-03
      0.240000          0.266018E-03
      0.245000          0.257086E-03
      0.250000          0.248603E-03
      0.255000          0.240642E-03
      0.260000          0.233239E-03
      0.265000          0.226397E-03
      0.270000          0.220084E-03
      0.275000          0.214240E-03
      0.280000          0.208790E-03
      0.285000          0.203644E-03
      0.290000          0.198713E-03
      0.295000          0.193914E-03
      0.300000          0.189178E-03
      0.305000          0.184454E-03
      0.310000          0.179710E-03
      0.315000          0.174939E-03
      0.320000          0.170155E-03
      0.325000          0.165389E-03
      0.330000          0.160691E-03
      0.335000          0.156118E-03
      0.340000          0.151735E-03
      0.345000          0.147605E-03
      0.350000          0.143787E-03
      0.355000          0.140331E-03
      0.360000          0.137271E-03
      0.365000          0.134628E-03
      0.370000          0.132404E-03
      0.375000          0.130583E-03
      0.380000          0.129132E-03
      0.385000          0.128005E-03
      0.390000          0.127140E-03
      0.395000          0.126469E-03
      0.400000          0.125916E-03
      0.405000          0.125405E-03
      0.410000          0.124861E-03
      0.415000          0.124216E-03
      0.420000          0.123409E-03
      0.425000          0.122391E-03
      0.430000          0.121125E-03
      0.435000          0.119591E-03
      0.440000          0.117778E-03
      0.445000          0.115693E-03
      0.450000          0.113355E-03
      0.455000          0.110793E-03
      0.460000          0.108046E-03
      0.465000          0.105160E-03
      0.470000          0.102186E-03
      0.475000          0.991778E-04
      0.480000          0.961875E-04
      0.485000          0.932663E-04
      0.490000          0.904612E-04
      0.495000          0.878134E-04
      0.500000          0.853579E-04
