 I_abs(s)[cm^-1]/c[mg/ml]
       0.00000          0.147196E-01
      0.500000E-02      0.146754E-01
      0.100000E-01      0.145433E-01
      0.150000E-01      0.143258E-01
      0.200000E-01      0.140263E-01
      0.250000E-01      0.136500E-01
      0.300000E-01      0.132031E-01
      0.350000E-01      0.126927E-01
      0.400000E-01      0.121270E-01
      0.450000E-01      0.115148E-01
      0.500000E-01      0.108653E-01
      0.550000E-01      0.101881E-01
      0.600000E-01      0.949251E-02
      0.650000E-01      0.878796E-02
      0.700000E-01      0.808338E-02
      0.750000E-01      0.738715E-02
      0.800000E-01      0.670696E-02
      0.850000E-01      0.604966E-02
      0.900000E-01      0.542120E-02
      0.950000E-01      0.482652E-02
      0.100000          0.426954E-02
      0.105000          0.375315E-02
      0.110000          0.327923E-02
      0.115000          0.284871E-02
      0.120000          0.246162E-02
      0.125000          0.211718E-02
      0.130000          0.181394E-02
      0.135000          0.154983E-02
      0.140000          0.132231E-02
      0.145000          0.112851E-02
      0.150000          0.965278E-03
      0.155000          0.829363E-03
      0.160000          0.717466E-03
      0.165000          0.626347E-03
      0.170000          0.552896E-03
      0.175000          0.494197E-03
      0.180000          0.447572E-03
      0.185000          0.410618E-03
      0.190000          0.381224E-03
      0.195000          0.357581E-03
      0.200000          0.338178E-03
      0.205000          0.321786E-03
      0.210000          0.307444E-03
      0.215000          0.294429E-03
      0.220000          0.282225E-03
      0.225000          0.270497E-03
      0.230000          0.259055E-03
      0.235000          0.247822E-03
      0.240000          0.236806E-03
      0.245000          0.226072E-03
      0.250000          0.215721E-03
      0.255000          0.205867E-03
      0.260000          0.196622E-03
      0.265000          0.188087E-03
      0.270000          0.180339E-03
      0.275000          0.173428E-03
      0.280000          0.167375E-03
      0.285000          0.162170E-03
      0.290000          0.157780E-03
      0.295000          0.154143E-03
      0.300000          0.151181E-03
      0.305000          0.148800E-03
      0.310000          0.146897E-03
      0.315000          0.145364E-03
      0.320000          0.144094E-03
      0.325000          0.142983E-03
      0.330000          0.141937E-03
      0.335000          0.140869E-03
      0.340000          0.139706E-03
      0.345000          0.138390E-03
      0.350000          0.136875E-03
      0.355000          0.135131E-03
      0.360000          0.133142E-03
      0.365000          0.130905E-03
      0.370000          0.128430E-03
      0.375000          0.125738E-03
      0.380000          0.122858E-03
      0.385000          0.119829E-03
      0.390000          0.116694E-03
      0.395000          0.113501E-03
      0.400000          0.110301E-03
      0.405000          0.107145E-03
      0.410000          0.104082E-03
      0.415000          0.101161E-03
      0.420000          0.984259E-04
      0.425000          0.959151E-04
      0.430000          0.936615E-04
      0.435000          0.916907E-04
      0.440000          0.900208E-04
      0.445000          0.886619E-04
      0.450000          0.876157E-04
      0.455000          0.868760E-04
      0.460000          0.864289E-04
      0.465000          0.862531E-04
      0.470000          0.863208E-04
      0.475000          0.865988E-04
      0.480000          0.870494E-04
      0.485000          0.876319E-04
      0.490000          0.883033E-04
      0.495000          0.890202E-04
      0.500000          0.897401E-04
