 I_abs(s)[cm^-1]/c[mg/ml]
       0.00000          0.146081E-01
      0.500000E-02      0.145584E-01
      0.100000E-01      0.144102E-01
      0.150000E-01      0.141663E-01
      0.200000E-01      0.138317E-01
      0.250000E-01      0.134126E-01
      0.300000E-01      0.129170E-01
      0.350000E-01      0.123542E-01
      0.400000E-01      0.117344E-01
      0.450000E-01      0.110685E-01
      0.500000E-01      0.103679E-01
      0.550000E-01      0.964412E-02
      0.600000E-01      0.890840E-02
      0.650000E-01      0.817162E-02
      0.700000E-01      0.744393E-02
      0.750000E-01      0.673458E-02
      0.800000E-01      0.605171E-02
      0.850000E-01      0.540225E-02
      0.900000E-01      0.479183E-02
      0.950000E-01      0.422474E-02
      0.100000          0.370393E-02
      0.105000          0.323107E-02
      0.110000          0.280663E-02
      0.115000          0.242998E-02
      0.120000          0.209955E-02
      0.125000          0.181297E-02
      0.130000          0.156723E-02
      0.135000          0.135886E-02
      0.140000          0.118407E-02
      0.145000          0.103895E-02
      0.150000          0.919529E-03
      0.155000          0.821978E-03
      0.160000          0.742660E-03
      0.165000          0.678226E-03
      0.170000          0.625670E-03
      0.175000          0.582365E-03
      0.180000          0.546075E-03
      0.185000          0.514960E-03
      0.190000          0.487550E-03
      0.195000          0.462724E-03
      0.200000          0.439669E-03
      0.205000          0.417835E-03
      0.210000          0.396891E-03
      0.215000          0.376678E-03
      0.220000          0.357163E-03
      0.225000          0.338400E-03
      0.230000          0.320491E-03
      0.235000          0.303561E-03
      0.240000          0.287730E-03
      0.245000          0.273100E-03
      0.250000          0.259738E-03
      0.255000          0.247675E-03
      0.260000          0.236903E-03
      0.265000          0.227377E-03
      0.270000          0.219019E-03
      0.275000          0.211728E-03
      0.280000          0.205381E-03
      0.285000          0.199850E-03
      0.290000          0.195001E-03
      0.295000          0.190704E-03
      0.300000          0.186840E-03
      0.305000          0.183302E-03
      0.310000          0.179996E-03
      0.315000          0.176847E-03
      0.320000          0.173797E-03
      0.325000          0.170800E-03
      0.330000          0.167827E-03
      0.335000          0.164859E-03
      0.340000          0.161886E-03
      0.345000          0.158906E-03
      0.350000          0.155920E-03
      0.355000          0.152931E-03
      0.360000          0.149946E-03
      0.365000          0.146969E-03
      0.370000          0.144004E-03
      0.375000          0.141055E-03
      0.380000          0.138124E-03
      0.385000          0.135211E-03
      0.390000          0.132317E-03
      0.395000          0.129444E-03
      0.400000          0.126593E-03
      0.405000          0.123768E-03
      0.410000          0.120973E-03
      0.415000          0.118214E-03
      0.420000          0.115501E-03
      0.425000          0.112842E-03
      0.430000          0.110251E-03
      0.435000          0.107739E-03
      0.440000          0.105320E-03
      0.445000          0.103007E-03
      0.450000          0.100812E-03
      0.455000          0.987467E-04
      0.460000          0.968191E-04
      0.465000          0.950360E-04
      0.470000          0.934008E-04
      0.475000          0.919139E-04
      0.480000          0.905725E-04
      0.485000          0.893704E-04
      0.490000          0.882984E-04
      0.495000          0.873445E-04
      0.500000          0.864943E-04
