 I_abs(s)[cm^-1]/c[mg/ml]
       0.00000          0.148235E-01
      0.500000E-02      0.147831E-01
      0.100000E-01      0.146622E-01
      0.150000E-01      0.144628E-01
      0.200000E-01      0.141878E-01
      0.250000E-01      0.138410E-01
      0.300000E-01      0.134275E-01
      0.350000E-01      0.129532E-01
      0.400000E-01      0.124246E-01
      0.450000E-01      0.118489E-01
      0.500000E-01      0.112338E-01
      0.550000E-01      0.105874E-01
      0.600000E-01      0.991771E-02
      0.650000E-01      0.923296E-02
      0.700000E-01      0.854112E-02
      0.750000E-01      0.784989E-02
      0.800000E-01      0.716653E-02
      0.850000E-01      0.649779E-02
      0.900000E-01      0.584975E-02
      0.950000E-01      0.522781E-02
      0.100000          0.463657E-02
      0.105000          0.407984E-02
      0.110000          0.356059E-02
      0.115000          0.308098E-02
      0.120000          0.264236E-02
      0.125000          0.224533E-02
      0.130000          0.188975E-02
      0.135000          0.157486E-02
      0.140000          0.129932E-02
      0.145000          0.106129E-02
      0.150000          0.858527E-03
      0.155000          0.688473E-03
      0.160000          0.548332E-03
      0.165000          0.435160E-03
      0.170000          0.345942E-03
      0.175000          0.277664E-03
      0.180000          0.227376E-03
      0.185000          0.192247E-03
      0.190000          0.169614E-03
      0.195000          0.157015E-03
      0.200000          0.152214E-03
      0.205000          0.153223E-03
      0.210000          0.158307E-03
      0.215000          0.165988E-03
      0.220000          0.175033E-03
      0.225000          0.184448E-03
      0.230000          0.193461E-03
      0.235000          0.201498E-03
      0.240000          0.208163E-03
      0.245000          0.213214E-03
      0.250000          0.216541E-03
      0.255000          0.218137E-03
      0.260000          0.218078E-03
      0.265000          0.216503E-03
      0.270000          0.213592E-03
      0.275000          0.209554E-03
      0.280000          0.204607E-03
      0.285000          0.198969E-03
      0.290000          0.192850E-03
      0.295000          0.186444E-03
      0.300000          0.179925E-03
      0.305000          0.173442E-03
      0.310000          0.167120E-03
      0.315000          0.161061E-03
      0.320000          0.155341E-03
      0.325000          0.150016E-03
      0.330000          0.145123E-03
      0.335000          0.140681E-03
      0.340000          0.136694E-03
      0.345000          0.133157E-03
      0.350000          0.130053E-03
      0.355000          0.127359E-03
      0.360000          0.125045E-03
      0.365000          0.123079E-03
      0.370000          0.121426E-03
      0.375000          0.120048E-03
      0.380000          0.118907E-03
      0.385000          0.117965E-03
      0.390000          0.117183E-03
      0.395000          0.116524E-03
      0.400000          0.115951E-03
      0.405000          0.115429E-03
      0.410000          0.114925E-03
      0.415000          0.114407E-03
      0.420000          0.113848E-03
      0.425000          0.113221E-03
      0.430000          0.112506E-03
      0.435000          0.111684E-03
      0.440000          0.110742E-03
      0.445000          0.109672E-03
      0.450000          0.108470E-03
      0.455000          0.107137E-03
      0.460000          0.105680E-03
      0.465000          0.104111E-03
      0.470000          0.102445E-03
      0.475000          0.100703E-03
      0.480000          0.989079E-04
      0.485000          0.970874E-04
      0.490000          0.952695E-04
      0.495000          0.934843E-04
      0.500000          0.917616E-04
