 I_abs(s)[cm^-1]/c[mg/ml]
       0.00000          0.142526E-01
      0.500000E-02      0.141756E-01
      0.100000E-01      0.139475E-01
      0.150000E-01      0.135778E-01
      0.200000E-01      0.130814E-01
      0.250000E-01      0.124774E-01
      0.300000E-01      0.117886E-01
      0.350000E-01      0.110389E-01
      0.400000E-01      0.102529E-01
      0.450000E-01      0.945384E-02
      0.500000E-01      0.866249E-02
      0.550000E-01      0.789648E-02
      0.600000E-01      0.716953E-02
      0.650000E-01      0.649131E-02
      0.700000E-01      0.586751E-02
      0.750000E-01      0.530023E-02
      0.800000E-01      0.478862E-02
      0.850000E-01      0.432950E-02
      0.900000E-01      0.391824E-02
      0.950000E-01      0.354938E-02
      0.100000          0.321734E-02
      0.105000          0.291687E-02
      0.110000          0.264338E-02
      0.115000          0.239315E-02
      0.120000          0.216335E-02
      0.125000          0.195197E-02
      0.130000          0.175767E-02
      0.135000          0.157959E-02
      0.140000          0.141717E-02
      0.145000          0.126999E-02
      0.150000          0.113760E-02
      0.155000          0.101946E-02
      0.160000          0.914902E-03
      0.165000          0.823102E-03
      0.170000          0.743114E-03
      0.175000          0.673903E-03
      0.180000          0.614389E-03
      0.185000          0.563484E-03
      0.190000          0.520127E-03
      0.195000          0.483304E-03
      0.200000          0.452064E-03
      0.205000          0.425529E-03
      0.210000          0.402892E-03
      0.215000          0.383428E-03
      0.220000          0.366492E-03
      0.225000          0.351527E-03
      0.230000          0.338065E-03
      0.235000          0.325728E-03
      0.240000          0.314233E-03
      0.245000          0.303376E-03
      0.250000          0.293029E-03
      0.255000          0.283118E-03
      0.260000          0.273610E-03
      0.265000          0.264488E-03
      0.270000          0.255735E-03
      0.275000          0.247323E-03
      0.280000          0.239204E-03
      0.285000          0.231309E-03
      0.290000          0.223554E-03
      0.295000          0.215852E-03
      0.300000          0.208125E-03
      0.305000          0.200318E-03
      0.310000          0.192408E-03
      0.315000          0.184416E-03
      0.320000          0.176401E-03
      0.325000          0.168459E-03
      0.330000          0.160711E-03
      0.335000          0.153289E-03
      0.340000          0.146321E-03
      0.345000          0.139913E-03
      0.350000          0.134142E-03
      0.355000          0.129040E-03
      0.360000          0.124600E-03
      0.365000          0.120769E-03
      0.370000          0.117464E-03
      0.375000          0.114575E-03
      0.380000          0.111984E-03
      0.385000          0.109572E-03
      0.390000          0.107235E-03
      0.395000          0.104890E-03
      0.400000          0.102482E-03
      0.405000          0.999892E-04
      0.410000          0.974154E-04
      0.415000          0.947922E-04
      0.420000          0.921702E-04
      0.425000          0.896123E-04
      0.430000          0.871864E-04
      0.435000          0.849578E-04
      0.440000          0.829828E-04
      0.445000          0.813040E-04
      0.450000          0.799462E-04
      0.455000          0.789151E-04
      0.460000          0.781961E-04
      0.465000          0.777560E-04
      0.470000          0.775449E-04
      0.475000          0.775004E-04
      0.480000          0.775510E-04
      0.485000          0.776221E-04
      0.490000          0.776406E-04
      0.495000          0.775406E-04
      0.500000          0.772676E-04
