 I_abs(s)[cm^-1]/c[mg/ml]
       0.00000          0.145684E-01
      0.500000E-02      0.145223E-01
      0.100000E-01      0.143849E-01
      0.150000E-01      0.141584E-01
      0.200000E-01      0.138470E-01
      0.250000E-01      0.134560E-01
      0.300000E-01      0.129921E-01
      0.350000E-01      0.124631E-01
      0.400000E-01      0.118777E-01
      0.450000E-01      0.112454E-01
      0.500000E-01      0.105761E-01
      0.550000E-01      0.987982E-02
      0.600000E-01      0.916677E-02
      0.650000E-01      0.844683E-02
      0.700000E-01      0.772943E-02
      0.750000E-01      0.702337E-02
      0.800000E-01      0.633667E-02
      0.850000E-01      0.567641E-02
      0.900000E-01      0.504866E-02
      0.950000E-01      0.445836E-02
      0.100000          0.390936E-02
      0.105000          0.340436E-02
      0.110000          0.294498E-02
      0.115000          0.253182E-02
      0.120000          0.216449E-02
      0.125000          0.184179E-02
      0.130000          0.156179E-02
      0.135000          0.132192E-02
      0.140000          0.111918E-02
      0.145000          0.950216E-03
      0.150000          0.811450E-03
      0.155000          0.699225E-03
      0.160000          0.609896E-03
      0.165000          0.539927E-03
      0.170000          0.485975E-03
      0.175000          0.444949E-03
      0.180000          0.414058E-03
      0.185000          0.390846E-03
      0.190000          0.373200E-03
      0.195000          0.359362E-03
      0.200000          0.347910E-03
      0.205000          0.337743E-03
      0.210000          0.328052E-03
      0.215000          0.318289E-03
      0.220000          0.308124E-03
      0.225000          0.297412E-03
      0.230000          0.286152E-03
      0.235000          0.274451E-03
      0.240000          0.262488E-03
      0.245000          0.250487E-03
      0.250000          0.238686E-03
      0.255000          0.227322E-03
      0.260000          0.216609E-03
      0.265000          0.206728E-03
      0.270000          0.197820E-03
      0.275000          0.189981E-03
      0.280000          0.183264E-03
      0.285000          0.177677E-03
      0.290000          0.173189E-03
      0.295000          0.169736E-03
      0.300000          0.167227E-03
      0.305000          0.165551E-03
      0.310000          0.164581E-03
      0.315000          0.164185E-03
      0.320000          0.164226E-03
      0.325000          0.164572E-03
      0.330000          0.165096E-03
      0.335000          0.165682E-03
      0.340000          0.166224E-03
      0.345000          0.166630E-03
      0.350000          0.166822E-03
      0.355000          0.166737E-03
      0.360000          0.166322E-03
      0.365000          0.165542E-03
      0.370000          0.164370E-03
      0.375000          0.162792E-03
      0.380000          0.160805E-03
      0.385000          0.158413E-03
      0.390000          0.155630E-03
      0.395000          0.152476E-03
      0.400000          0.148978E-03
      0.405000          0.145168E-03
      0.410000          0.141083E-03
      0.415000          0.136764E-03
      0.420000          0.132254E-03
      0.425000          0.127602E-03
      0.430000          0.122855E-03
      0.435000          0.118064E-03
      0.440000          0.113278E-03
      0.445000          0.108547E-03
      0.450000          0.103920E-03
      0.455000          0.994437E-04
      0.460000          0.951613E-04
      0.465000          0.911135E-04
      0.470000          0.873365E-04
      0.475000          0.838614E-04
      0.480000          0.807143E-04
      0.485000          0.779152E-04
      0.490000          0.754779E-04
      0.495000          0.734100E-04
      0.500000          0.717126E-04
