 I_abs(s)[cm^-1]/c[mg/ml]
       0.00000          0.147116E-01
      0.500000E-02      0.146650E-01
      0.100000E-01      0.145260E-01
      0.150000E-01      0.142970E-01
      0.200000E-01      0.139820E-01
      0.250000E-01      0.135863E-01
      0.300000E-01      0.131167E-01
      0.350000E-01      0.125810E-01
      0.400000E-01      0.119880E-01
      0.450000E-01      0.113471E-01
      0.500000E-01      0.106682E-01
      0.550000E-01      0.996160E-02
      0.600000E-01      0.923736E-02
      0.650000E-01      0.850549E-02
      0.700000E-01      0.777552E-02
      0.750000E-01      0.705635E-02
      0.800000E-01      0.635613E-02
      0.850000E-01      0.568207E-02
      0.900000E-01      0.504037E-02
      0.950000E-01      0.443616E-02
      0.100000          0.387346E-02
      0.105000          0.335516E-02
      0.110000          0.288307E-02
      0.115000          0.245796E-02
      0.120000          0.207967E-02
      0.125000          0.174717E-02
      0.130000          0.145870E-02
      0.135000          0.121187E-02
      0.140000          0.100380E-02
      0.145000          0.831269E-03
      0.150000          0.690780E-03
      0.155000          0.578731E-03
      0.160000          0.491498E-03
      0.165000          0.425525E-03
      0.170000          0.377410E-03
      0.175000          0.343966E-03
      0.180000          0.322268E-03
      0.185000          0.309686E-03
      0.190000          0.303906E-03
      0.195000          0.302936E-03
      0.200000          0.305099E-03
      0.205000          0.309024E-03
      0.210000          0.313619E-03
      0.215000          0.318050E-03
      0.220000          0.321710E-03
      0.225000          0.324184E-03
      0.230000          0.325224E-03
      0.235000          0.324713E-03
      0.240000          0.322638E-03
      0.245000          0.319066E-03
      0.250000          0.314121E-03
      0.255000          0.307963E-03
      0.260000          0.300775E-03
      0.265000          0.292748E-03
      0.270000          0.284077E-03
      0.275000          0.274945E-03
      0.280000          0.265529E-03
      0.285000          0.255988E-03
      0.290000          0.246469E-03
      0.295000          0.237098E-03
      0.300000          0.227988E-03
      0.305000          0.219234E-03
      0.310000          0.210916E-03
      0.315000          0.203095E-03
      0.320000          0.195820E-03
      0.325000          0.189122E-03
      0.330000          0.183020E-03
      0.335000          0.177516E-03
      0.340000          0.172600E-03
      0.345000          0.168248E-03
      0.350000          0.164423E-03
      0.355000          0.161081E-03
      0.360000          0.158165E-03
      0.365000          0.155615E-03
      0.370000          0.153364E-03
      0.375000          0.151343E-03
      0.380000          0.149483E-03
      0.385000          0.147719E-03
      0.390000          0.145988E-03
      0.395000          0.144237E-03
      0.400000          0.142417E-03
      0.405000          0.140492E-03
      0.410000          0.138435E-03
      0.415000          0.136229E-03
      0.420000          0.133868E-03
      0.425000          0.131355E-03
      0.430000          0.128703E-03
      0.435000          0.125930E-03
      0.440000          0.123063E-03
      0.445000          0.120131E-03
      0.450000          0.117167E-03
      0.455000          0.114201E-03
      0.460000          0.111266E-03
      0.465000          0.108391E-03
      0.470000          0.105601E-03
      0.475000          0.102916E-03
      0.480000          0.100353E-03
      0.485000          0.979211E-04
      0.490000          0.956252E-04
      0.495000          0.934651E-04
      0.500000          0.914360E-04
