 I_abs(s)[cm^-1]/c[mg/ml]
       0.00000          0.147835E-01
      0.500000E-02      0.147406E-01
      0.100000E-01      0.146127E-01
      0.150000E-01      0.144021E-01
      0.200000E-01      0.141122E-01
      0.250000E-01      0.137482E-01
      0.300000E-01      0.133160E-01
      0.350000E-01      0.128227E-01
      0.400000E-01      0.122763E-01
      0.450000E-01      0.116852E-01
      0.500000E-01      0.110582E-01
      0.550000E-01      0.104044E-01
      0.600000E-01      0.973252E-02
      0.650000E-01      0.905135E-02
      0.700000E-01      0.836908E-02
      0.750000E-01      0.769335E-02
      0.800000E-01      0.703106E-02
      0.850000E-01      0.638836E-02
      0.900000E-01      0.577051E-02
      0.950000E-01      0.518187E-02
      0.100000          0.462592E-02
      0.105000          0.410527E-02
      0.110000          0.362167E-02
      0.115000          0.317613E-02
      0.120000          0.276894E-02
      0.125000          0.239980E-02
      0.130000          0.206785E-02
      0.135000          0.177180E-02
      0.140000          0.151000E-02
      0.145000          0.128052E-02
      0.150000          0.108124E-02
      0.155000          0.909890E-03
      0.160000          0.764117E-03
      0.165000          0.641550E-03
      0.170000          0.539825E-03
      0.175000          0.456630E-03
      0.180000          0.389728E-03
      0.185000          0.336979E-03
      0.190000          0.296361E-03
      0.195000          0.265985E-03
      0.200000          0.244097E-03
      0.205000          0.229095E-03
      0.210000          0.219528E-03
      0.215000          0.214103E-03
      0.220000          0.211679E-03
      0.225000          0.211274E-03
      0.230000          0.212056E-03
      0.235000          0.213338E-03
      0.240000          0.214574E-03
      0.245000          0.215344E-03
      0.250000          0.215351E-03
      0.255000          0.214402E-03
      0.260000          0.212397E-03
      0.265000          0.209316E-03
      0.270000          0.205205E-03
      0.275000          0.200158E-03
      0.280000          0.194307E-03
      0.285000          0.187809E-03
      0.290000          0.180835E-03
      0.295000          0.173557E-03
      0.300000          0.166142E-03
      0.305000          0.158746E-03
      0.310000          0.151510E-03
      0.315000          0.144553E-03
      0.320000          0.137976E-03
      0.325000          0.131854E-03
      0.330000          0.126245E-03
      0.335000          0.121187E-03
      0.340000          0.116699E-03
      0.345000          0.112786E-03
      0.350000          0.109438E-03
      0.355000          0.106636E-03
      0.360000          0.104351E-03
      0.365000          0.102548E-03
      0.370000          0.101186E-03
      0.375000          0.100220E-03
      0.380000          0.996020E-04
      0.385000          0.992823E-04
      0.390000          0.992100E-04
      0.395000          0.993339E-04
      0.400000          0.996033E-04
      0.405000          0.999688E-04
      0.410000          0.100383E-03
      0.415000          0.100802E-03
      0.420000          0.101186E-03
      0.425000          0.101498E-03
      0.430000          0.101707E-03
      0.435000          0.101790E-03
      0.440000          0.101727E-03
      0.445000          0.101508E-03
      0.450000          0.101126E-03
      0.455000          0.100583E-03
      0.460000          0.998850E-04
      0.465000          0.990435E-04
      0.470000          0.980744E-04
      0.475000          0.969965E-04
      0.480000          0.958309E-04
      0.485000          0.945996E-04
      0.490000          0.933245E-04
      0.495000          0.920268E-04
      0.500000          0.907259E-04
