 I_abs(s)[cm^-1]/c[mg/ml]
       0.00000          0.147436E-01
      0.500000E-02      0.146992E-01
      0.100000E-01      0.145670E-01
      0.150000E-01      0.143492E-01
      0.200000E-01      0.140495E-01
      0.250000E-01      0.136730E-01
      0.300000E-01      0.132260E-01
      0.350000E-01      0.127159E-01
      0.400000E-01      0.121509E-01
      0.450000E-01      0.115399E-01
      0.500000E-01      0.108921E-01
      0.550000E-01      0.102169E-01
      0.600000E-01      0.952400E-02
      0.650000E-01      0.882246E-02
      0.700000E-01      0.812113E-02
      0.750000E-01      0.742824E-02
      0.800000E-01      0.675128E-02
      0.850000E-01      0.609687E-02
      0.900000E-01      0.547071E-02
      0.950000E-01      0.487751E-02
      0.100000          0.432098E-02
      0.105000          0.380381E-02
      0.110000          0.332775E-02
      0.115000          0.289362E-02
      0.120000          0.250144E-02
      0.125000          0.215046E-02
      0.130000          0.183932E-02
      0.135000          0.156614E-02
      0.140000          0.132860E-02
      0.145000          0.112411E-02
      0.150000          0.949850E-03
      0.155000          0.802907E-03
      0.160000          0.680342E-03
      0.165000          0.579267E-03
      0.170000          0.496902E-03
      0.175000          0.430626E-03
      0.180000          0.378008E-03
      0.185000          0.336832E-03
      0.190000          0.305110E-03
      0.195000          0.281086E-03
      0.200000          0.263227E-03
      0.205000          0.250218E-03
      0.210000          0.240947E-03
      0.215000          0.234482E-03
      0.220000          0.230060E-03
      0.225000          0.227058E-03
      0.230000          0.224981E-03
      0.235000          0.223440E-03
      0.240000          0.222134E-03
      0.245000          0.220840E-03
      0.250000          0.219392E-03
      0.255000          0.217678E-03
      0.260000          0.215626E-03
      0.265000          0.213196E-03
      0.270000          0.210376E-03
      0.275000          0.207175E-03
      0.280000          0.203620E-03
      0.285000          0.199749E-03
      0.290000          0.195613E-03
      0.295000          0.191267E-03
      0.300000          0.186774E-03
      0.305000          0.182194E-03
      0.310000          0.177591E-03
      0.315000          0.173024E-03
      0.320000          0.168546E-03
      0.325000          0.164206E-03
      0.330000          0.160044E-03
      0.335000          0.156092E-03
      0.340000          0.152373E-03
      0.345000          0.148898E-03
      0.350000          0.145672E-03
      0.355000          0.142691E-03
      0.360000          0.139942E-03
      0.365000          0.137406E-03
      0.370000          0.135059E-03
      0.375000          0.132874E-03
      0.380000          0.130821E-03
      0.385000          0.128870E-03
      0.390000          0.126992E-03
      0.395000          0.125157E-03
      0.400000          0.123343E-03
      0.405000          0.121528E-03
      0.410000          0.119695E-03
      0.415000          0.117831E-03
      0.420000          0.115930E-03
      0.425000          0.113988E-03
      0.430000          0.112005E-03
      0.435000          0.109986E-03
      0.440000          0.107937E-03
      0.445000          0.105868E-03
      0.450000          0.103789E-03
      0.455000          0.101712E-03
      0.460000          0.996475E-04
      0.465000          0.976078E-04
      0.470000          0.956030E-04
      0.475000          0.936424E-04
      0.480000          0.917336E-04
      0.485000          0.898829E-04
      0.490000          0.880949E-04
      0.495000          0.863726E-04
      0.500000          0.847175E-04
