 I_abs(s)[cm^-1]/c[mg/ml]
       0.00000          0.148315E-01
      0.500000E-02      0.147852E-01
      0.100000E-01      0.146469E-01
      0.150000E-01      0.144194E-01
      0.200000E-01      0.141067E-01
      0.250000E-01      0.137147E-01
      0.300000E-01      0.132503E-01
      0.350000E-01      0.127216E-01
      0.400000E-01      0.121378E-01
      0.450000E-01      0.115084E-01
      0.500000E-01      0.108435E-01
      0.550000E-01      0.101533E-01
      0.600000E-01      0.944780E-02
      0.650000E-01      0.873656E-02
      0.700000E-01      0.802864E-02
      0.750000E-01      0.733234E-02
      0.800000E-01      0.665504E-02
      0.850000E-01      0.600312E-02
      0.900000E-01      0.538191E-02
      0.950000E-01      0.479564E-02
      0.100000          0.424750E-02
      0.105000          0.373961E-02
      0.110000          0.327316E-02
      0.115000          0.284846E-02
      0.120000          0.246505E-02
      0.125000          0.212183E-02
      0.130000          0.181717E-02
      0.135000          0.154901E-02
      0.140000          0.131500E-02
      0.145000          0.111257E-02
      0.150000          0.939065E-03
      0.155000          0.791768E-03
      0.160000          0.668004E-03
      0.165000          0.565175E-03
      0.170000          0.480797E-03
      0.175000          0.412530E-03
      0.180000          0.358191E-03
      0.185000          0.315765E-03
      0.190000          0.283404E-03
      0.195000          0.259431E-03
      0.200000          0.242329E-03
      0.205000          0.230743E-03
      0.210000          0.223465E-03
      0.215000          0.219434E-03
      0.220000          0.217727E-03
      0.225000          0.217555E-03
      0.230000          0.218255E-03
      0.235000          0.219286E-03
      0.240000          0.220224E-03
      0.245000          0.220752E-03
      0.250000          0.220651E-03
      0.255000          0.219795E-03
      0.260000          0.218137E-03
      0.265000          0.215695E-03
      0.270000          0.212544E-03
      0.275000          0.208797E-03
      0.280000          0.204597E-03
      0.285000          0.200099E-03
      0.290000          0.195460E-03
      0.295000          0.190828E-03
      0.300000          0.186335E-03
      0.305000          0.182085E-03
      0.310000          0.178158E-03
      0.315000          0.174601E-03
      0.320000          0.171430E-03
      0.325000          0.168634E-03
      0.330000          0.166177E-03
      0.335000          0.164006E-03
      0.340000          0.162051E-03
      0.345000          0.160237E-03
      0.350000          0.158488E-03
      0.355000          0.156731E-03
      0.360000          0.154901E-03
      0.365000          0.152948E-03
      0.370000          0.150832E-03
      0.375000          0.148531E-03
      0.380000          0.146038E-03
      0.385000          0.143357E-03
      0.390000          0.140508E-03
      0.395000          0.137514E-03
      0.400000          0.134410E-03
      0.405000          0.131228E-03
      0.410000          0.128003E-03
      0.415000          0.124766E-03
      0.420000          0.121544E-03
      0.425000          0.118359E-03
      0.430000          0.115223E-03
      0.435000          0.112144E-03
      0.440000          0.109125E-03
      0.445000          0.106162E-03
      0.450000          0.103249E-03
      0.455000          0.100379E-03
      0.460000          0.975432E-04
      0.465000          0.947370E-04
      0.470000          0.919581E-04
      0.475000          0.892083E-04
      0.480000          0.864945E-04
      0.485000          0.838285E-04
      0.490000          0.812269E-04
      0.495000          0.787101E-04
      0.500000          0.763016E-04
