 I_abs(s)[cm^-1]/c[mg/ml]
       0.00000          0.146002E-01
      0.500000E-02      0.145461E-01
      0.100000E-01      0.143851E-01
      0.150000E-01      0.141209E-01
      0.200000E-01      0.137594E-01
      0.250000E-01      0.133087E-01
      0.300000E-01      0.127785E-01
      0.350000E-01      0.121801E-01
      0.400000E-01      0.115259E-01
      0.450000E-01      0.108286E-01
      0.500000E-01      0.101014E-01
      0.550000E-01      0.935722E-02
      0.600000E-01      0.860839E-02
      0.650000E-01      0.786635E-02
      0.700000E-01      0.714137E-02
      0.750000E-01      0.644232E-02
      0.800000E-01      0.577660E-02
      0.850000E-01      0.515001E-02
      0.900000E-01      0.456678E-02
      0.950000E-01      0.402962E-02
      0.100000          0.353984E-02
      0.105000          0.309751E-02
      0.110000          0.270160E-02
      0.115000          0.235024E-02
      0.120000          0.204086E-02
      0.125000          0.177044E-02
      0.130000          0.153566E-02
      0.135000          0.133307E-02
      0.140000          0.115925E-02
      0.145000          0.101086E-02
      0.150000          0.884789E-03
      0.155000          0.778173E-03
      0.160000          0.688418E-03
      0.165000          0.613215E-03
      0.170000          0.550532E-03
      0.175000          0.498588E-03
      0.180000          0.455828E-03
      0.185000          0.420887E-03
      0.190000          0.392564E-03
      0.195000          0.369793E-03
      0.200000          0.351616E-03
      0.205000          0.337172E-03
      0.210000          0.325684E-03
      0.215000          0.316451E-03
      0.220000          0.308850E-03
      0.225000          0.302333E-03
      0.230000          0.296435E-03
      0.235000          0.290772E-03
      0.240000          0.285044E-03
      0.245000          0.279036E-03
      0.250000          0.272614E-03
      0.255000          0.265716E-03
      0.260000          0.258348E-03
      0.265000          0.250570E-03
      0.270000          0.242483E-03
      0.275000          0.234219E-03
      0.280000          0.225924E-03
      0.285000          0.217747E-03
      0.290000          0.209829E-03
      0.295000          0.202296E-03
      0.300000          0.195249E-03
      0.305000          0.188763E-03
      0.310000          0.182882E-03
      0.315000          0.177624E-03
      0.320000          0.172979E-03
      0.325000          0.168915E-03
      0.330000          0.165385E-03
      0.335000          0.162325E-03
      0.340000          0.159667E-03
      0.345000          0.157340E-03
      0.350000          0.155273E-03
      0.355000          0.153400E-03
      0.360000          0.151664E-03
      0.365000          0.150015E-03
      0.370000          0.148411E-03
      0.375000          0.146821E-03
      0.380000          0.145222E-03
      0.385000          0.143598E-03
      0.390000          0.141938E-03
      0.395000          0.140237E-03
      0.400000          0.138494E-03
      0.405000          0.136708E-03
      0.410000          0.134881E-03
      0.415000          0.133015E-03
      0.420000          0.131112E-03
      0.425000          0.129172E-03
      0.430000          0.127198E-03
      0.435000          0.125190E-03
      0.440000          0.123147E-03
      0.445000          0.121070E-03
      0.450000          0.118957E-03
      0.455000          0.116809E-03
      0.460000          0.114626E-03
      0.465000          0.112406E-03
      0.470000          0.110151E-03
      0.475000          0.107862E-03
      0.480000          0.105540E-03
      0.485000          0.103190E-03
      0.490000          0.100816E-03
      0.495000          0.984229E-04
      0.500000          0.960191E-04
