 I_abs(s)[cm^-1]/c[mg/ml]
       0.00000          0.147755E-01
      0.500000E-02      0.147276E-01
      0.100000E-01      0.145847E-01
      0.150000E-01      0.143496E-01
      0.200000E-01      0.140270E-01
      0.250000E-01      0.136232E-01
      0.300000E-01      0.131456E-01
      0.350000E-01      0.126033E-01
      0.400000E-01      0.120060E-01
      0.450000E-01      0.113640E-01
      0.500000E-01      0.106882E-01
      0.550000E-01      0.998938E-02
      0.600000E-01      0.927799E-02
      0.650000E-01      0.856412E-02
      0.700000E-01      0.785709E-02
      0.750000E-01      0.716533E-02
      0.800000E-01      0.649622E-02
      0.850000E-01      0.585599E-02
      0.900000E-01      0.524969E-02
      0.950000E-01      0.468116E-02
      0.100000          0.415309E-02
      0.105000          0.366704E-02
      0.110000          0.322359E-02
      0.115000          0.282241E-02
      0.120000          0.246240E-02
      0.125000          0.214183E-02
      0.130000          0.185850E-02
      0.135000          0.160983E-02
      0.140000          0.139300E-02
      0.145000          0.120509E-02
      0.150000          0.104313E-02
      0.155000          0.904238E-03
      0.160000          0.785625E-03
      0.165000          0.684690E-03
      0.170000          0.599034E-03
      0.175000          0.526485E-03
      0.180000          0.465105E-03
      0.185000          0.413195E-03
      0.190000          0.369279E-03
      0.195000          0.332097E-03
      0.200000          0.300586E-03
      0.205000          0.273855E-03
      0.210000          0.251170E-03
      0.215000          0.231932E-03
      0.220000          0.215651E-03
      0.225000          0.201932E-03
      0.230000          0.190458E-03
      0.235000          0.180965E-03
      0.240000          0.173241E-03
      0.245000          0.167101E-03
      0.250000          0.162385E-03
      0.255000          0.158946E-03
      0.260000          0.156647E-03
      0.265000          0.155350E-03
      0.270000          0.154920E-03
      0.275000          0.155217E-03
      0.280000          0.156103E-03
      0.285000          0.157436E-03
      0.290000          0.159077E-03
      0.295000          0.160888E-03
      0.300000          0.162741E-03
      0.305000          0.164515E-03
      0.310000          0.166105E-03
      0.315000          0.167418E-03
      0.320000          0.168380E-03
      0.325000          0.168938E-03
      0.330000          0.169056E-03
      0.335000          0.168718E-03
      0.340000          0.167927E-03
      0.345000          0.166701E-03
      0.350000          0.165073E-03
      0.355000          0.163086E-03
      0.360000          0.160792E-03
      0.365000          0.158245E-03
      0.370000          0.155502E-03
      0.375000          0.152616E-03
      0.380000          0.149637E-03
      0.385000          0.146608E-03
      0.390000          0.143561E-03
      0.395000          0.140524E-03
      0.400000          0.137512E-03
      0.405000          0.134532E-03
      0.410000          0.131586E-03
      0.415000          0.128668E-03
      0.420000          0.125769E-03
      0.425000          0.122877E-03
      0.430000          0.119982E-03
      0.435000          0.117074E-03
      0.440000          0.114149E-03
      0.445000          0.111208E-03
      0.450000          0.108256E-03
      0.455000          0.105307E-03
      0.460000          0.102383E-03
      0.465000          0.995085E-04
      0.470000          0.967166E-04
      0.475000          0.940427E-04
      0.480000          0.915248E-04
      0.485000          0.892006E-04
      0.490000          0.871060E-04
      0.495000          0.852725E-04
      0.500000          0.837258E-04
