 I_abs(s)[cm^-1]/c[mg/ml]
       0.00000          0.147995E-01
      0.500000E-02      0.147542E-01
      0.100000E-01      0.146190E-01
      0.150000E-01      0.143966E-01
      0.200000E-01      0.140910E-01
      0.250000E-01      0.137078E-01
      0.300000E-01      0.132540E-01
      0.350000E-01      0.127375E-01
      0.400000E-01      0.121671E-01
      0.450000E-01      0.115523E-01
      0.500000E-01      0.109028E-01
      0.550000E-01      0.102284E-01
      0.600000E-01      0.953879E-02
      0.650000E-01      0.884323E-02
      0.700000E-01      0.815036E-02
      0.750000E-01      0.746810E-02
      0.800000E-01      0.680348E-02
      0.850000E-01      0.616256E-02
      0.900000E-01      0.555039E-02
      0.950000E-01      0.497099E-02
      0.100000          0.442736E-02
      0.105000          0.392159E-02
      0.110000          0.345483E-02
      0.115000          0.302747E-02
      0.120000          0.263920E-02
      0.125000          0.228912E-02
      0.130000          0.197585E-02
      0.135000          0.169765E-02
      0.140000          0.145248E-02
      0.145000          0.123811E-02
      0.150000          0.105219E-02
      0.155000          0.892331E-03
      0.160000          0.756118E-03
      0.165000          0.641191E-03
      0.170000          0.545255E-03
      0.175000          0.466107E-03
      0.180000          0.401658E-03
      0.185000          0.349939E-03
      0.190000          0.309113E-03
      0.195000          0.277480E-03
      0.200000          0.253481E-03
      0.205000          0.235701E-03
      0.210000          0.222867E-03
      0.215000          0.213857E-03
      0.220000          0.207691E-03
      0.225000          0.203533E-03
      0.230000          0.200687E-03
      0.235000          0.198590E-03
      0.240000          0.196806E-03
      0.245000          0.195012E-03
      0.250000          0.192990E-03
      0.255000          0.190611E-03
      0.260000          0.187822E-03
      0.265000          0.184627E-03
      0.270000          0.181076E-03
      0.275000          0.177248E-03
      0.280000          0.173239E-03
      0.285000          0.169147E-03
      0.290000          0.165070E-03
      0.295000          0.161090E-03
      0.300000          0.157276E-03
      0.305000          0.153677E-03
      0.310000          0.150324E-03
      0.315000          0.147229E-03
      0.320000          0.144394E-03
      0.325000          0.141805E-03
      0.330000          0.139444E-03
      0.335000          0.137290E-03
      0.340000          0.135320E-03
      0.345000          0.133516E-03
      0.350000          0.131862E-03
      0.355000          0.130348E-03
      0.360000          0.128969E-03
      0.365000          0.127723E-03
      0.370000          0.126611E-03
      0.375000          0.125632E-03
      0.380000          0.124786E-03
      0.385000          0.124067E-03
      0.390000          0.123463E-03
      0.395000          0.122958E-03
      0.400000          0.122529E-03
      0.405000          0.122146E-03
      0.410000          0.121774E-03
      0.415000          0.121375E-03
      0.420000          0.120910E-03
      0.425000          0.120340E-03
      0.430000          0.119631E-03
      0.435000          0.118754E-03
      0.440000          0.117688E-03
      0.445000          0.116419E-03
      0.450000          0.114946E-03
      0.455000          0.113275E-03
      0.460000          0.111423E-03
      0.465000          0.109417E-03
      0.470000          0.107289E-03
      0.475000          0.105076E-03
      0.480000          0.102819E-03
      0.485000          0.100559E-03
      0.490000          0.983349E-04
      0.495000          0.961826E-04
      0.500000          0.941327E-04
