 I_abs(s)[cm^-1]/c[mg/ml]
       0.00000          0.146320E-01
      0.500000E-02      0.145880E-01
      0.100000E-01      0.144566E-01
      0.150000E-01      0.142402E-01
      0.200000E-01      0.139422E-01
      0.250000E-01      0.135676E-01
      0.300000E-01      0.131224E-01
      0.350000E-01      0.126138E-01
      0.400000E-01      0.120497E-01
      0.450000E-01      0.114388E-01
      0.500000E-01      0.107901E-01
      0.550000E-01      0.101131E-01
      0.600000E-01      0.941726E-02
      0.650000E-01      0.871178E-02
      0.700000E-01      0.800563E-02
      0.750000E-01      0.730726E-02
      0.800000E-01      0.662444E-02
      0.850000E-01      0.596413E-02
      0.900000E-01      0.533243E-02
      0.950000E-01      0.473446E-02
      0.100000          0.417433E-02
      0.105000          0.365512E-02
      0.110000          0.317892E-02
      0.115000          0.274683E-02
      0.120000          0.235906E-02
      0.125000          0.201498E-02
      0.130000          0.171322E-02
      0.135000          0.145179E-02
      0.140000          0.122818E-02
      0.145000          0.103949E-02
      0.150000          0.882513E-03
      0.155000          0.753900E-03
      0.160000          0.650217E-03
      0.165000          0.568058E-03
      0.170000          0.504127E-03
      0.175000          0.455305E-03
      0.180000          0.418706E-03
      0.185000          0.391719E-03
      0.190000          0.372032E-03
      0.195000          0.357653E-03
      0.200000          0.346903E-03
      0.205000          0.338418E-03
      0.210000          0.331124E-03
      0.215000          0.324218E-03
      0.220000          0.317136E-03
      0.225000          0.309524E-03
      0.230000          0.301200E-03
      0.235000          0.292120E-03
      0.240000          0.282349E-03
      0.245000          0.272025E-03
      0.250000          0.261335E-03
      0.255000          0.250487E-03
      0.260000          0.239694E-03
      0.265000          0.229155E-03
      0.270000          0.219047E-03
      0.275000          0.209513E-03
      0.280000          0.200659E-03
      0.285000          0.192555E-03
      0.290000          0.185234E-03
      0.295000          0.178697E-03
      0.300000          0.172917E-03
      0.305000          0.167842E-03
      0.310000          0.163406E-03
      0.315000          0.159530E-03
      0.320000          0.156131E-03
      0.325000          0.153126E-03
      0.330000          0.150433E-03
      0.335000          0.147979E-03
      0.340000          0.145699E-03
      0.345000          0.143539E-03
      0.350000          0.141455E-03
      0.355000          0.139414E-03
      0.360000          0.137392E-03
      0.365000          0.135374E-03
      0.370000          0.133353E-03
      0.375000          0.131326E-03
      0.380000          0.129297E-03
      0.385000          0.127268E-03
      0.390000          0.125248E-03
      0.395000          0.123241E-03
      0.400000          0.121254E-03
      0.405000          0.119293E-03
      0.410000          0.117361E-03
      0.415000          0.115461E-03
      0.420000          0.113596E-03
      0.425000          0.111765E-03
      0.430000          0.109969E-03
      0.435000          0.108208E-03
      0.440000          0.106482E-03
      0.445000          0.104792E-03
      0.450000          0.103139E-03
      0.455000          0.101522E-03
      0.460000          0.999455E-04
      0.465000          0.984099E-04
      0.470000          0.969177E-04
      0.475000          0.954710E-04
      0.480000          0.940715E-04
      0.485000          0.927205E-04
      0.490000          0.914182E-04
      0.495000          0.901639E-04
      0.500000          0.889562E-04
