 I_abs(s)[cm^-1]/c[mg/ml]
       0.00000          0.144338E-01
      0.500000E-02      0.143860E-01
      0.100000E-01      0.142437E-01
      0.150000E-01      0.140094E-01
      0.200000E-01      0.136876E-01
      0.250000E-01      0.132843E-01
      0.300000E-01      0.128068E-01
      0.350000E-01      0.122636E-01
      0.400000E-01      0.116644E-01
      0.450000E-01      0.110193E-01
      0.500000E-01      0.103390E-01
      0.550000E-01      0.963429E-02
      0.600000E-01      0.891582E-02
      0.650000E-01      0.819389E-02
      0.700000E-01      0.747822E-02
      0.750000E-01      0.677768E-02
      0.800000E-01      0.610022E-02
      0.850000E-01      0.545267E-02
      0.900000E-01      0.484070E-02
      0.950000E-01      0.426876E-02
      0.100000          0.374007E-02
      0.105000          0.325669E-02
      0.110000          0.281952E-02
      0.115000          0.242848E-02
      0.120000          0.208254E-02
      0.125000          0.177993E-02
      0.130000          0.151822E-02
      0.135000          0.129451E-02
      0.140000          0.110555E-02
      0.145000          0.947888E-03
      0.150000          0.817982E-03
      0.155000          0.712326E-03
      0.160000          0.627536E-03
      0.165000          0.560422E-03
      0.170000          0.508047E-03
      0.175000          0.467766E-03
      0.180000          0.437240E-03
      0.185000          0.414447E-03
      0.190000          0.397669E-03
      0.195000          0.385477E-03
      0.200000          0.376701E-03
      0.205000          0.370400E-03
      0.210000          0.365830E-03
      0.215000          0.362407E-03
      0.220000          0.359676E-03
      0.225000          0.357282E-03
      0.230000          0.354944E-03
      0.235000          0.352436E-03
      0.240000          0.349568E-03
      0.245000          0.346183E-03
      0.250000          0.342143E-03
      0.255000          0.337329E-03
      0.260000          0.331644E-03
      0.265000          0.325013E-03
      0.270000          0.317384E-03
      0.275000          0.308735E-03
      0.280000          0.299078E-03
      0.285000          0.288454E-03
      0.290000          0.276941E-03
      0.295000          0.264648E-03
      0.300000          0.251714E-03
      0.305000          0.238302E-03
      0.310000          0.224594E-03
      0.315000          0.210784E-03
      0.320000          0.197069E-03
      0.325000          0.183644E-03
      0.330000          0.170693E-03
      0.335000          0.158380E-03
      0.340000          0.146849E-03
      0.345000          0.136215E-03
      0.350000          0.126564E-03
      0.355000          0.117950E-03
      0.360000          0.110394E-03
      0.365000          0.103892E-03
      0.370000          0.984088E-04
      0.375000          0.938895E-04
      0.380000          0.902596E-04
      0.385000          0.874314E-04
      0.390000          0.853091E-04
      0.395000          0.837927E-04
      0.400000          0.827836E-04
      0.405000          0.821871E-04
      0.410000          0.819165E-04
      0.415000          0.818945E-04
      0.420000          0.820552E-04
      0.425000          0.823442E-04
      0.430000          0.827186E-04
      0.435000          0.831462E-04
      0.440000          0.836041E-04
      0.445000          0.840771E-04
      0.450000          0.845559E-04
      0.455000          0.850354E-04
      0.460000          0.855124E-04
      0.465000          0.859850E-04
      0.470000          0.864504E-04
      0.475000          0.869046E-04
      0.480000          0.873418E-04
      0.485000          0.877542E-04
      0.490000          0.881322E-04
      0.495000          0.884649E-04
      0.500000          0.887410E-04
