 I_abs(s)[cm^-1]/c[mg/ml]
       0.00000          0.146240E-01
      0.500000E-02      0.145793E-01
      0.100000E-01      0.144458E-01
      0.150000E-01      0.142261E-01
      0.200000E-01      0.139242E-01
      0.250000E-01      0.135454E-01
      0.300000E-01      0.130965E-01
      0.350000E-01      0.125852E-01
      0.400000E-01      0.120201E-01
      0.450000E-01      0.114105E-01
      0.500000E-01      0.107658E-01
      0.550000E-01      0.100958E-01
      0.600000E-01      0.941010E-02
      0.650000E-01      0.871785E-02
      0.700000E-01      0.802775E-02
      0.750000E-01      0.734779E-02
      0.800000E-01      0.668512E-02
      0.850000E-01      0.604595E-02
      0.900000E-01      0.543550E-02
      0.950000E-01      0.485800E-02
      0.100000          0.431663E-02
      0.105000          0.381364E-02
      0.110000          0.335034E-02
      0.115000          0.292724E-02
      0.120000          0.254409E-02
      0.125000          0.220001E-02
      0.130000          0.189360E-02
      0.135000          0.162305E-02
      0.140000          0.138621E-02
      0.145000          0.118072E-02
      0.150000          0.100407E-02
      0.155000          0.853706E-03
      0.160000          0.727039E-03
      0.165000          0.621547E-03
      0.170000          0.534788E-03
      0.175000          0.464439E-03
      0.180000          0.408311E-03
      0.185000          0.364368E-03
      0.190000          0.330729E-03
      0.195000          0.305679E-03
      0.200000          0.287662E-03
      0.205000          0.275280E-03
      0.210000          0.267291E-03
      0.215000          0.262603E-03
      0.220000          0.260265E-03
      0.225000          0.259465E-03
      0.230000          0.259519E-03
      0.235000          0.259866E-03
      0.240000          0.260059E-03
      0.245000          0.259755E-03
      0.250000          0.258710E-03
      0.255000          0.256763E-03
      0.260000          0.253832E-03
      0.265000          0.249899E-03
      0.270000          0.244999E-03
      0.275000          0.239212E-03
      0.280000          0.232653E-03
      0.285000          0.225456E-03
      0.290000          0.217771E-03
      0.295000          0.209755E-03
      0.300000          0.201561E-03
      0.305000          0.193336E-03
      0.310000          0.185215E-03
      0.315000          0.177317E-03
      0.320000          0.169742E-03
      0.325000          0.162573E-03
      0.330000          0.155873E-03
      0.335000          0.149684E-03
      0.340000          0.144031E-03
      0.345000          0.138923E-03
      0.350000          0.134353E-03
      0.355000          0.130302E-03
      0.360000          0.126740E-03
      0.365000          0.123627E-03
      0.370000          0.120918E-03
      0.375000          0.118564E-03
      0.380000          0.116513E-03
      0.385000          0.114711E-03
      0.390000          0.113108E-03
      0.395000          0.111652E-03
      0.400000          0.110300E-03
      0.405000          0.109009E-03
      0.410000          0.107745E-03
      0.415000          0.106480E-03
      0.420000          0.105191E-03
      0.425000          0.103862E-03
      0.430000          0.102487E-03
      0.435000          0.101062E-03
      0.440000          0.995918E-04
      0.445000          0.980851E-04
      0.450000          0.965548E-04
      0.455000          0.950171E-04
      0.460000          0.934900E-04
      0.465000          0.919923E-04
      0.470000          0.905426E-04
      0.475000          0.891583E-04
      0.480000          0.878546E-04
      0.485000          0.866440E-04
      0.490000          0.855357E-04
      0.495000          0.845351E-04
      0.500000          0.836441E-04
