 I_abs(s)[cm^-1]/c[mg/ml]
       0.00000          0.141586E-01
      0.500000E-02      0.140421E-01
      0.100000E-01      0.136994E-01
      0.150000E-01      0.131508E-01
      0.200000E-01      0.124275E-01
      0.250000E-01      0.115691E-01
      0.300000E-01      0.106195E-01
      0.350000E-01      0.962326E-02
      0.400000E-01      0.862206E-02
      0.450000E-01      0.765154E-02
      0.500000E-01      0.673948E-02
      0.550000E-01      0.590478E-02
      0.600000E-01      0.515768E-02
      0.650000E-01      0.450070E-02
      0.700000E-01      0.393030E-02
      0.750000E-01      0.343883E-02
      0.800000E-01      0.301645E-02
      0.850000E-01      0.265279E-02
      0.900000E-01      0.233822E-02
      0.950000E-01      0.206458E-02
      0.100000          0.182543E-02
      0.105000          0.161590E-02
      0.110000          0.143238E-02
      0.115000          0.127199E-02
      0.120000          0.113225E-02
      0.125000          0.101075E-02
      0.130000          0.905085E-03
      0.135000          0.812914E-03
      0.140000          0.732105E-03
      0.145000          0.660935E-03
      0.150000          0.598218E-03
      0.155000          0.543347E-03
      0.160000          0.496204E-03
      0.165000          0.456971E-03
      0.170000          0.425865E-03
      0.175000          0.402869E-03
      0.180000          0.387527E-03
      0.185000          0.378833E-03
      0.190000          0.375252E-03
      0.195000          0.374874E-03
      0.200000          0.375655E-03
      0.205000          0.375707E-03
      0.210000          0.373568E-03
      0.215000          0.368401E-03
      0.220000          0.360084E-03
      0.225000          0.349174E-03
      0.230000          0.336752E-03
      0.235000          0.324182E-03
      0.240000          0.312840E-03
      0.245000          0.303851E-03
      0.250000          0.297892E-03
      0.255000          0.295091E-03
      0.260000          0.295027E-03
      0.265000          0.296833E-03
      0.270000          0.299367E-03
      0.275000          0.301426E-03
      0.280000          0.301940E-03
      0.285000          0.300138E-03
      0.290000          0.295639E-03
      0.295000          0.288471E-03
      0.300000          0.279021E-03
      0.305000          0.267923E-03
      0.310000          0.255930E-03
      0.315000          0.243781E-03
      0.320000          0.232088E-03
      0.325000          0.221273E-03
      0.330000          0.211541E-03
      0.335000          0.202904E-03
      0.340000          0.195231E-03
      0.345000          0.188318E-03
      0.350000          0.181953E-03
      0.355000          0.175968E-03
      0.360000          0.170266E-03
      0.365000          0.164827E-03
      0.370000          0.159691E-03
      0.375000          0.154922E-03
      0.380000          0.150580E-03
      0.385000          0.146685E-03
      0.390000          0.143212E-03
      0.395000          0.140082E-03
      0.400000          0.137180E-03
      0.405000          0.134381E-03
      0.410000          0.131575E-03
      0.415000          0.128692E-03
      0.420000          0.125716E-03
      0.425000          0.122687E-03
      0.430000          0.119691E-03
      0.435000          0.116839E-03
      0.440000          0.114242E-03
      0.445000          0.111987E-03
      0.450000          0.110118E-03
      0.455000          0.108624E-03
      0.460000          0.107445E-03
      0.465000          0.106483E-03
      0.470000          0.105617E-03
      0.475000          0.104732E-03
      0.480000          0.103734E-03
      0.485000          0.102572E-03
      0.490000          0.101240E-03
      0.495000          0.997803E-04
      0.500000          0.982690E-04
