 I_abs(s)[cm^-1]/c[mg/ml]
       0.00000          0.146718E-01
      0.500000E-02      0.146189E-01
      0.100000E-01      0.144614E-01
      0.150000E-01      0.142029E-01
      0.200000E-01      0.138491E-01
      0.250000E-01      0.134077E-01
      0.300000E-01      0.128881E-01
      0.350000E-01      0.123013E-01
      0.400000E-01      0.116591E-01
      0.450000E-01      0.109738E-01
      0.500000E-01      0.102581E-01
      0.550000E-01      0.952441E-02
      0.600000E-01      0.878463E-02
      0.650000E-01      0.804980E-02
      0.700000E-01      0.732986E-02
      0.750000E-01      0.663344E-02
      0.800000E-01      0.596778E-02
      0.850000E-01      0.533862E-02
      0.900000E-01      0.475024E-02
      0.950000E-01      0.420551E-02
      0.100000          0.370596E-02
      0.105000          0.325197E-02
      0.110000          0.284290E-02
      0.115000          0.247729E-02
      0.120000          0.215300E-02
      0.125000          0.186745E-02
      0.130000          0.161772E-02
      0.135000          0.140072E-02
      0.140000          0.121331E-02
      0.145000          0.105240E-02
      0.150000          0.915027E-03
      0.155000          0.798394E-03
      0.160000          0.699911E-03
      0.165000          0.617211E-03
      0.170000          0.548150E-03
      0.175000          0.490802E-03
      0.180000          0.443450E-03
      0.185000          0.404564E-03
      0.190000          0.372791E-03
      0.195000          0.346935E-03
      0.200000          0.325946E-03
      0.205000          0.308905E-03
      0.210000          0.295016E-03
      0.215000          0.283598E-03
      0.220000          0.274076E-03
      0.225000          0.265972E-03
      0.230000          0.258903E-03
      0.235000          0.252570E-03
      0.240000          0.246748E-03
      0.245000          0.241281E-03
      0.250000          0.236066E-03
      0.255000          0.231049E-03
      0.260000          0.226209E-03
      0.265000          0.221552E-03
      0.270000          0.217096E-03
      0.275000          0.212870E-03
      0.280000          0.208900E-03
      0.285000          0.205207E-03
      0.290000          0.201804E-03
      0.295000          0.198693E-03
      0.300000          0.195861E-03
      0.305000          0.193285E-03
      0.310000          0.190932E-03
      0.315000          0.188760E-03
      0.320000          0.186719E-03
      0.325000          0.184756E-03
      0.330000          0.182820E-03
      0.335000          0.180856E-03
      0.340000          0.178816E-03
      0.345000          0.176655E-03
      0.350000          0.174337E-03
      0.355000          0.171832E-03
      0.360000          0.169119E-03
      0.365000          0.166186E-03
      0.370000          0.163031E-03
      0.375000          0.159661E-03
      0.380000          0.156094E-03
      0.385000          0.152353E-03
      0.390000          0.148474E-03
      0.395000          0.144495E-03
      0.400000          0.140462E-03
      0.405000          0.136424E-03
      0.410000          0.132431E-03
      0.415000          0.128535E-03
      0.420000          0.124782E-03
      0.425000          0.121217E-03
      0.430000          0.117877E-03
      0.435000          0.114792E-03
      0.440000          0.111981E-03
      0.445000          0.109454E-03
      0.450000          0.107211E-03
      0.455000          0.105240E-03
      0.460000          0.103521E-03
      0.465000          0.102022E-03
      0.470000          0.100708E-03
      0.475000          0.995366E-04
      0.480000          0.984623E-04
      0.485000          0.974399E-04
      0.490000          0.964259E-04
      0.495000          0.953810E-04
      0.500000          0.942719E-04
