 I_abs(s)[cm^-1]/c[mg/ml]
       0.00000          0.144733E-01
      0.500000E-02      0.144237E-01
      0.100000E-01      0.142760E-01
      0.150000E-01      0.140329E-01
      0.200000E-01      0.136994E-01
      0.250000E-01      0.132818E-01
      0.300000E-01      0.127883E-01
      0.350000E-01      0.122281E-01
      0.400000E-01      0.116114E-01
      0.450000E-01      0.109494E-01
      0.500000E-01      0.102534E-01
      0.550000E-01      0.953510E-02
      0.600000E-01      0.880576E-02
      0.650000E-01      0.807631E-02
      0.700000E-01      0.735694E-02
      0.750000E-01      0.665689E-02
      0.800000E-01      0.598426E-02
      0.850000E-01      0.534594E-02
      0.900000E-01      0.474746E-02
      0.950000E-01      0.419296E-02
      0.100000          0.368523E-02
      0.105000          0.322574E-02
      0.110000          0.281471E-02
      0.115000          0.245126E-02
      0.120000          0.213353E-02
      0.125000          0.185888E-02
      0.130000          0.162401E-02
      0.135000          0.142517E-02
      0.140000          0.125834E-02
      0.145000          0.111938E-02
      0.150000          0.100417E-02
      0.155000          0.908752E-03
      0.160000          0.829442E-03
      0.165000          0.762899E-03
      0.170000          0.706193E-03
      0.175000          0.656836E-03
      0.180000          0.612796E-03
      0.185000          0.572484E-03
      0.190000          0.534733E-03
      0.195000          0.498755E-03
      0.200000          0.464091E-03
      0.205000          0.430557E-03
      0.210000          0.398178E-03
      0.215000          0.367131E-03
      0.220000          0.337690E-03
      0.225000          0.310169E-03
      0.230000          0.284882E-03
      0.235000          0.262102E-03
      0.240000          0.242036E-03
      0.245000          0.224809E-03
      0.250000          0.210448E-03
      0.255000          0.198888E-03
      0.260000          0.189971E-03
      0.265000          0.183461E-03
      0.270000          0.179057E-03
      0.275000          0.176412E-03
      0.280000          0.175152E-03
      0.285000          0.174893E-03
      0.290000          0.175265E-03
      0.295000          0.175920E-03
      0.300000          0.176551E-03
      0.305000          0.176901E-03
      0.310000          0.176768E-03
      0.315000          0.176008E-03
      0.320000          0.174537E-03
      0.325000          0.172325E-03
      0.330000          0.169395E-03
      0.335000          0.165809E-03
      0.340000          0.161665E-03
      0.345000          0.157088E-03
      0.350000          0.152213E-03
      0.355000          0.147186E-03
      0.360000          0.142147E-03
      0.365000          0.137228E-03
      0.370000          0.132545E-03
      0.375000          0.128194E-03
      0.380000          0.124246E-03
      0.385000          0.120751E-03
      0.390000          0.117733E-03
      0.395000          0.115191E-03
      0.400000          0.113106E-03
      0.405000          0.111441E-03
      0.410000          0.110144E-03
      0.415000          0.109152E-03
      0.420000          0.108397E-03
      0.425000          0.107809E-03
      0.430000          0.107318E-03
      0.435000          0.106857E-03
      0.440000          0.106370E-03
      0.445000          0.105804E-03
      0.450000          0.105120E-03
      0.455000          0.104287E-03
      0.460000          0.103286E-03
      0.465000          0.102108E-03
      0.470000          0.100754E-03
      0.475000          0.992319E-04
      0.480000          0.975584E-04
      0.485000          0.957549E-04
      0.490000          0.938470E-04
      0.495000          0.918630E-04
      0.500000          0.898325E-04
