 I_abs(s)[cm^-1]/c[mg/ml]
       0.00000          0.148957E-01
      0.500000E-02      0.148497E-01
      0.100000E-01      0.147126E-01
      0.150000E-01      0.144868E-01
      0.200000E-01      0.141763E-01
      0.250000E-01      0.137865E-01
      0.300000E-01      0.133239E-01
      0.350000E-01      0.127965E-01
      0.400000E-01      0.122129E-01
      0.450000E-01      0.115823E-01
      0.500000E-01      0.109145E-01
      0.550000E-01      0.102196E-01
      0.600000E-01      0.950725E-02
      0.650000E-01      0.878721E-02
      0.700000E-01      0.806858E-02
      0.750000E-01      0.735986E-02
      0.800000E-01      0.666875E-02
      0.850000E-01      0.600203E-02
      0.900000E-01      0.536550E-02
      0.950000E-01      0.476389E-02
      0.100000          0.420090E-02
      0.105000          0.367919E-02
      0.110000          0.320039E-02
      0.115000          0.276524E-02
      0.120000          0.237360E-02
      0.125000          0.202462E-02
      0.130000          0.171678E-02
      0.135000          0.144805E-02
      0.140000          0.121600E-02
      0.145000          0.101787E-02
      0.150000          0.850748E-03
      0.155000          0.711579E-03
      0.160000          0.597305E-03
      0.165000          0.504919E-03
      0.170000          0.431519E-03
      0.175000          0.374359E-03
      0.180000          0.330882E-03
      0.185000          0.298741E-03
      0.190000          0.275815E-03
      0.195000          0.260212E-03
      0.200000          0.250270E-03
      0.205000          0.244548E-03
      0.210000          0.241816E-03
      0.215000          0.241045E-03
      0.220000          0.241387E-03
      0.225000          0.242162E-03
      0.230000          0.242840E-03
      0.235000          0.243027E-03
      0.240000          0.242448E-03
      0.245000          0.240931E-03
      0.250000          0.238394E-03
      0.255000          0.234831E-03
      0.260000          0.230296E-03
      0.265000          0.224892E-03
      0.270000          0.218761E-03
      0.275000          0.212070E-03
      0.280000          0.204999E-03
      0.285000          0.197735E-03
      0.290000          0.190461E-03
      0.295000          0.183348E-03
      0.300000          0.176550E-03
      0.305000          0.170197E-03
      0.310000          0.164392E-03
      0.315000          0.159211E-03
      0.320000          0.154699E-03
      0.325000          0.150871E-03
      0.330000          0.147717E-03
      0.335000          0.145199E-03
      0.340000          0.143263E-03
      0.345000          0.141834E-03
      0.350000          0.140829E-03
      0.355000          0.140155E-03
      0.360000          0.139719E-03
      0.365000          0.139429E-03
      0.370000          0.139199E-03
      0.375000          0.138953E-03
      0.380000          0.138623E-03
      0.385000          0.138158E-03
      0.390000          0.137518E-03
      0.395000          0.136676E-03
      0.400000          0.135620E-03
      0.405000          0.134349E-03
      0.410000          0.132871E-03
      0.415000          0.131202E-03
      0.420000          0.129366E-03
      0.425000          0.127388E-03
      0.430000          0.125299E-03
      0.435000          0.123125E-03
      0.440000          0.120896E-03
      0.445000          0.118636E-03
      0.450000          0.116368E-03
      0.455000          0.114110E-03
      0.460000          0.111877E-03
      0.465000          0.109680E-03
      0.470000          0.107527E-03
      0.475000          0.105424E-03
      0.480000          0.103373E-03
      0.485000          0.101377E-03
      0.490000          0.994353E-04
      0.495000          0.975494E-04
      0.500000          0.957200E-04
