 I_abs(s)[cm^-1]/c[mg/ml]
       0.00000          0.142762E-01
      0.500000E-02      0.142103E-01
      0.100000E-01      0.140147E-01
      0.150000E-01      0.136949E-01
      0.200000E-01      0.132603E-01
      0.250000E-01      0.127232E-01
      0.300000E-01      0.120985E-01
      0.350000E-01      0.114029E-01
      0.400000E-01      0.106544E-01
      0.450000E-01      0.987127E-02
      0.500000E-01      0.907161E-02
      0.550000E-01      0.827248E-02
      0.600000E-01      0.748938E-02
      0.650000E-01      0.673578E-02
      0.700000E-01      0.602281E-02
      0.750000E-01      0.535899E-02
      0.800000E-01      0.475024E-02
      0.850000E-01      0.419993E-02
      0.900000E-01      0.370905E-02
      0.950000E-01      0.327654E-02
      0.100000          0.289958E-02
      0.105000          0.257403E-02
      0.110000          0.229483E-02
      0.115000          0.205636E-02
      0.120000          0.185286E-02
      0.125000          0.167870E-02
      0.130000          0.152863E-02
      0.135000          0.139798E-02
      0.140000          0.128280E-02
      0.145000          0.117983E-02
      0.150000          0.108658E-02
      0.155000          0.100120E-02
      0.160000          0.922468E-03
      0.165000          0.849608E-03
      0.170000          0.782214E-03
      0.175000          0.720122E-03
      0.180000          0.663300E-03
      0.185000          0.611758E-03
      0.190000          0.565483E-03
      0.195000          0.524387E-03
      0.200000          0.488282E-03
      0.205000          0.456875E-03
      0.210000          0.429771E-03
      0.215000          0.406500E-03
      0.220000          0.386537E-03
      0.225000          0.369334E-03
      0.230000          0.354348E-03
      0.235000          0.341066E-03
      0.240000          0.329027E-03
      0.245000          0.317832E-03
      0.250000          0.307155E-03
      0.255000          0.296742E-03
      0.260000          0.286415E-03
      0.265000          0.276058E-03
      0.270000          0.265615E-03
      0.275000          0.255076E-03
      0.280000          0.244474E-03
      0.285000          0.233869E-03
      0.290000          0.223344E-03
      0.295000          0.212997E-03
      0.300000          0.202932E-03
      0.305000          0.193259E-03
      0.310000          0.184082E-03
      0.315000          0.175497E-03
      0.320000          0.167590E-03
      0.325000          0.160428E-03
      0.330000          0.154059E-03
      0.335000          0.148505E-03
      0.340000          0.143765E-03
      0.345000          0.139810E-03
      0.350000          0.136585E-03
      0.355000          0.134011E-03
      0.360000          0.131989E-03
      0.365000          0.130406E-03
      0.370000          0.129140E-03
      0.375000          0.128066E-03
      0.380000          0.127068E-03
      0.385000          0.126037E-03
      0.390000          0.124888E-03
      0.395000          0.123552E-03
      0.400000          0.121992E-03
      0.405000          0.120190E-03
      0.410000          0.118159E-03
      0.415000          0.115931E-03
      0.420000          0.113557E-03
      0.425000          0.111100E-03
      0.430000          0.108628E-03
      0.435000          0.106212E-03
      0.440000          0.103915E-03
      0.445000          0.101791E-03
      0.450000          0.998784E-04
      0.455000          0.982011E-04
      0.460000          0.967644E-04
      0.465000          0.955574E-04
      0.470000          0.945551E-04
      0.475000          0.937210E-04
      0.480000          0.930113E-04
      0.485000          0.923787E-04
      0.490000          0.917766E-04
      0.495000          0.911627E-04
      0.500000          0.905021E-04
