 I_abs(s)[cm^-1]/c[mg/ml]
       0.00000          0.146240E-01
      0.500000E-02      0.145728E-01
      0.100000E-01      0.144203E-01
      0.150000E-01      0.141696E-01
      0.200000E-01      0.138260E-01
      0.250000E-01      0.133965E-01
      0.300000E-01      0.128898E-01
      0.350000E-01      0.123159E-01
      0.400000E-01      0.116858E-01
      0.450000E-01      0.110113E-01
      0.500000E-01      0.103043E-01
      0.550000E-01      0.957694E-02
      0.600000E-01      0.884089E-02
      0.650000E-01      0.810719E-02
      0.700000E-01      0.738600E-02
      0.750000E-01      0.668636E-02
      0.800000E-01      0.601606E-02
      0.850000E-01      0.538147E-02
      0.900000E-01      0.478756E-02
      0.950000E-01      0.423787E-02
      0.100000          0.373455E-02
      0.105000          0.327847E-02
      0.110000          0.286934E-02
      0.115000          0.250588E-02
      0.120000          0.218597E-02
      0.125000          0.190683E-02
      0.130000          0.166524E-02
      0.135000          0.145767E-02
      0.140000          0.128044E-02
      0.145000          0.112989E-02
      0.150000          0.100249E-02
      0.155000          0.894900E-03
      0.160000          0.804075E-03
      0.165000          0.727296E-03
      0.170000          0.662186E-03
      0.175000          0.606719E-03
      0.180000          0.559200E-03
      0.185000          0.518242E-03
      0.190000          0.482727E-03
      0.195000          0.451769E-03
      0.200000          0.424670E-03
      0.205000          0.400880E-03
      0.210000          0.379958E-03
      0.215000          0.361545E-03
      0.220000          0.345334E-03
      0.225000          0.331052E-03
      0.230000          0.318446E-03
      0.235000          0.307278E-03
      0.240000          0.297320E-03
      0.245000          0.288354E-03
      0.250000          0.280177E-03
      0.255000          0.272605E-03
      0.260000          0.265476E-03
      0.265000          0.258654E-03
      0.270000          0.252034E-03
      0.275000          0.245541E-03
      0.280000          0.239127E-03
      0.285000          0.232773E-03
      0.290000          0.226481E-03
      0.295000          0.220272E-03
      0.300000          0.214178E-03
      0.305000          0.208236E-03
      0.310000          0.202487E-03
      0.315000          0.196962E-03
      0.320000          0.191689E-03
      0.325000          0.186683E-03
      0.330000          0.181947E-03
      0.335000          0.177471E-03
      0.340000          0.173237E-03
      0.345000          0.169216E-03
      0.350000          0.165373E-03
      0.355000          0.161671E-03
      0.360000          0.158073E-03
      0.365000          0.154545E-03
      0.370000          0.151058E-03
      0.375000          0.147592E-03
      0.380000          0.144135E-03
      0.385000          0.140686E-03
      0.390000          0.137250E-03
      0.395000          0.133841E-03
      0.400000          0.130482E-03
      0.405000          0.127196E-03
      0.410000          0.124010E-03
      0.415000          0.120951E-03
      0.420000          0.118044E-03
      0.425000          0.115309E-03
      0.430000          0.112759E-03
      0.435000          0.110402E-03
      0.440000          0.108239E-03
      0.445000          0.106261E-03
      0.450000          0.104456E-03
      0.455000          0.102804E-03
      0.460000          0.101280E-03
      0.465000          0.998601E-04
      0.470000          0.985146E-04
      0.475000          0.972168E-04
      0.480000          0.959416E-04
      0.485000          0.946672E-04
      0.490000          0.933761E-04
      0.495000          0.920562E-04
      0.500000          0.907005E-04
