 I_abs(s)[cm^-1]/c[mg/ml]
       0.00000          0.144971E-01
      0.500000E-02      0.144440E-01
      0.100000E-01      0.142859E-01
      0.150000E-01      0.140262E-01
      0.200000E-01      0.136703E-01
      0.250000E-01      0.132258E-01
      0.300000E-01      0.127017E-01
      0.350000E-01      0.121087E-01
      0.400000E-01      0.114583E-01
      0.450000E-01      0.107630E-01
      0.500000E-01      0.100354E-01
      0.550000E-01      0.928818E-02
      0.600000E-01      0.853371E-02
      0.650000E-01      0.778357E-02
      0.700000E-01      0.704845E-02
      0.750000E-01      0.633780E-02
      0.800000E-01      0.565973E-02
      0.850000E-01      0.502086E-02
      0.900000E-01      0.442627E-02
      0.950000E-01      0.387949E-02
      0.100000          0.338260E-02
      0.105000          0.293627E-02
      0.110000          0.253994E-02
      0.115000          0.219196E-02
      0.120000          0.188980E-02
      0.125000          0.163023E-02
      0.130000          0.140953E-02
      0.135000          0.122368E-02
      0.140000          0.106853E-02
      0.145000          0.939943E-03
      0.150000          0.833962E-03
      0.155000          0.746883E-03
      0.160000          0.675343E-03
      0.165000          0.616371E-03
      0.170000          0.567407E-03
      0.175000          0.526310E-03
      0.180000          0.491335E-03
      0.185000          0.461105E-03
      0.190000          0.434569E-03
      0.195000          0.410949E-03
      0.200000          0.389692E-03
      0.205000          0.370420E-03
      0.210000          0.352882E-03
      0.215000          0.336913E-03
      0.220000          0.322398E-03
      0.225000          0.309249E-03
      0.230000          0.297382E-03
      0.235000          0.286707E-03
      0.240000          0.277123E-03
      0.245000          0.268514E-03
      0.250000          0.260756E-03
      0.255000          0.253720E-03
      0.260000          0.247278E-03
      0.265000          0.241312E-03
      0.270000          0.235715E-03
      0.275000          0.230403E-03
      0.280000          0.225309E-03
      0.285000          0.220389E-03
      0.290000          0.215618E-03
      0.295000          0.210987E-03
      0.300000          0.206502E-03
      0.305000          0.202173E-03
      0.310000          0.198016E-03
      0.315000          0.194044E-03
      0.320000          0.190263E-03
      0.325000          0.186671E-03
      0.330000          0.183255E-03
      0.335000          0.179990E-03
      0.340000          0.176841E-03
      0.345000          0.173764E-03
      0.350000          0.170710E-03
      0.355000          0.167627E-03
      0.360000          0.164462E-03
      0.365000          0.161171E-03
      0.370000          0.157713E-03
      0.375000          0.154062E-03
      0.380000          0.150204E-03
      0.385000          0.146138E-03
      0.390000          0.141878E-03
      0.395000          0.137454E-03
      0.400000          0.132907E-03
      0.405000          0.128288E-03
      0.410000          0.123656E-03
      0.415000          0.119075E-03
      0.420000          0.114610E-03
      0.425000          0.110325E-03
      0.430000          0.106278E-03
      0.435000          0.102521E-03
      0.440000          0.990937E-04
      0.445000          0.960272E-04
      0.450000          0.933394E-04
      0.455000          0.910358E-04
      0.460000          0.891103E-04
      0.465000          0.875452E-04
      0.470000          0.863135E-04
      0.475000          0.853803E-04
      0.480000          0.847047E-04
      0.485000          0.842423E-04
      0.490000          0.839475E-04
      0.495000          0.837751E-04
      0.500000          0.836827E-04
