 I_abs(s)[cm^-1]/c[mg/ml]
       0.00000          0.145208E-01
      0.500000E-02      0.144710E-01
      0.100000E-01      0.143227E-01
      0.150000E-01      0.140790E-01
      0.200000E-01      0.137449E-01
      0.250000E-01      0.133273E-01
      0.300000E-01      0.128346E-01
      0.350000E-01      0.122765E-01
      0.400000E-01      0.116637E-01
      0.450000E-01      0.110076E-01
      0.500000E-01      0.103199E-01
      0.550000E-01      0.961211E-02
      0.600000E-01      0.889570E-02
      0.650000E-01      0.818135E-02
      0.700000E-01      0.747888E-02
      0.750000E-01      0.679704E-02
      0.800000E-01      0.614334E-02
      0.850000E-01      0.552394E-02
      0.900000E-01      0.494362E-02
      0.950000E-01      0.440576E-02
      0.100000          0.391239E-02
      0.105000          0.346430E-02
      0.110000          0.306118E-02
      0.115000          0.270170E-02
      0.120000          0.238376E-02
      0.125000          0.210464E-02
      0.130000          0.186115E-02
      0.135000          0.164984E-02
      0.140000          0.146713E-02
      0.145000          0.130946E-02
      0.150000          0.117342E-02
      0.155000          0.105579E-02
      0.160000          0.953671E-03
      0.165000          0.864502E-03
      0.170000          0.786069E-03
      0.175000          0.716518E-03
      0.180000          0.654338E-03
      0.185000          0.598332E-03
      0.190000          0.547580E-03
      0.195000          0.501394E-03
      0.200000          0.459273E-03
      0.205000          0.420860E-03
      0.210000          0.385899E-03
      0.215000          0.354200E-03
      0.220000          0.325609E-03
      0.225000          0.299980E-03
      0.230000          0.277164E-03
      0.235000          0.256997E-03
      0.240000          0.239291E-03
      0.245000          0.223840E-03
      0.250000          0.210420E-03
      0.255000          0.198795E-03
      0.260000          0.188725E-03
      0.265000          0.179976E-03
      0.270000          0.172323E-03
      0.275000          0.165560E-03
      0.280000          0.159503E-03
      0.285000          0.153994E-03
      0.290000          0.148906E-03
      0.295000          0.144137E-03
      0.300000          0.139611E-03
      0.305000          0.135279E-03
      0.310000          0.131111E-03
      0.315000          0.127095E-03
      0.320000          0.123231E-03
      0.325000          0.119531E-03
      0.330000          0.116011E-03
      0.335000          0.112690E-03
      0.340000          0.109587E-03
      0.345000          0.106721E-03
      0.350000          0.104107E-03
      0.355000          0.101754E-03
      0.360000          0.996723E-04
      0.365000          0.978630E-04
      0.370000          0.963255E-04
      0.375000          0.950554E-04
      0.380000          0.940449E-04
      0.385000          0.932838E-04
      0.390000          0.927595E-04
      0.395000          0.924574E-04
      0.400000          0.923612E-04
      0.405000          0.924532E-04
      0.410000          0.927143E-04
      0.415000          0.931240E-04
      0.420000          0.936607E-04
      0.425000          0.943014E-04
      0.430000          0.950225E-04
      0.435000          0.957992E-04
      0.440000          0.966062E-04
      0.445000          0.974182E-04
      0.450000          0.982098E-04
      0.455000          0.989563E-04
      0.460000          0.996340E-04
      0.465000          0.100221E-03
      0.470000          0.100697E-03
      0.475000          0.101044E-03
      0.480000          0.101247E-03
      0.485000          0.101296E-03
      0.490000          0.101180E-03
      0.495000          0.100896E-03
      0.500000          0.100443E-03
