 I_abs(s)[cm^-1]/c[mg/ml]
       0.00000          0.143313E-01
      0.500000E-02      0.142825E-01
      0.100000E-01      0.141371E-01
      0.150000E-01      0.138980E-01
      0.200000E-01      0.135699E-01
      0.250000E-01      0.131592E-01
      0.300000E-01      0.126738E-01
      0.350000E-01      0.121227E-01
      0.400000E-01      0.115161E-01
      0.450000E-01      0.108649E-01
      0.500000E-01      0.101803E-01
      0.550000E-01      0.947356E-02
      0.600000E-01      0.875586E-02
      0.650000E-01      0.803787E-02
      0.700000E-01      0.732955E-02
      0.750000E-01      0.663991E-02
      0.800000E-01      0.597690E-02
      0.850000E-01      0.534721E-02
      0.900000E-01      0.475625E-02
      0.950000E-01      0.420808E-02
      0.100000          0.370543E-02
      0.105000          0.324976E-02
      0.110000          0.284133E-02
      0.115000          0.247935E-02
      0.120000          0.216207E-02
      0.125000          0.188700E-02
      0.130000          0.165100E-02
      0.135000          0.145053E-02
      0.140000          0.128176E-02
      0.145000          0.114073E-02
      0.150000          0.102351E-02
      0.155000          0.926314E-03
      0.160000          0.845580E-03
      0.165000          0.778069E-03
      0.170000          0.720913E-03
      0.175000          0.671644E-03
      0.180000          0.628211E-03
      0.185000          0.588972E-03
      0.190000          0.552670E-03
      0.195000          0.518406E-03
      0.200000          0.485589E-03
      0.205000          0.453893E-03
      0.210000          0.423201E-03
      0.215000          0.393559E-03
      0.220000          0.365121E-03
      0.225000          0.338109E-03
      0.230000          0.312770E-03
      0.235000          0.289346E-03
      0.240000          0.268046E-03
      0.245000          0.249030E-03
      0.250000          0.232394E-03
      0.255000          0.218169E-03
      0.260000          0.206315E-03
      0.265000          0.196729E-03
      0.270000          0.189253E-03
      0.275000          0.183682E-03
      0.280000          0.179776E-03
      0.285000          0.177273E-03
      0.290000          0.175901E-03
      0.295000          0.175388E-03
      0.300000          0.175471E-03
      0.305000          0.175909E-03
      0.310000          0.176482E-03
      0.315000          0.177002E-03
      0.320000          0.177312E-03
      0.325000          0.177288E-03
      0.330000          0.176841E-03
      0.335000          0.175912E-03
      0.340000          0.174471E-03
      0.345000          0.172515E-03
      0.350000          0.170061E-03
      0.355000          0.167147E-03
      0.360000          0.163824E-03
      0.365000          0.160153E-03
      0.370000          0.156202E-03
      0.375000          0.152043E-03
      0.380000          0.147749E-03
      0.385000          0.143390E-03
      0.390000          0.139032E-03
      0.395000          0.134736E-03
      0.400000          0.130555E-03
      0.405000          0.126536E-03
      0.410000          0.122716E-03
      0.415000          0.119125E-03
      0.420000          0.115783E-03
      0.425000          0.112704E-03
      0.430000          0.109893E-03
      0.435000          0.107349E-03
      0.440000          0.105062E-03
      0.445000          0.103021E-03
      0.450000          0.101208E-03
      0.455000          0.996007E-04
      0.460000          0.981753E-04
      0.465000          0.969056E-04
      0.470000          0.957643E-04
      0.475000          0.947238E-04
      0.480000          0.937570E-04
      0.485000          0.928375E-04
      0.490000          0.919410E-04
      0.495000          0.910448E-04
      0.500000          0.901290E-04
