 I_abs(s)[cm^-1]/c[mg/ml]
       0.00000          0.147995E-01
      0.500000E-02      0.147528E-01
      0.100000E-01      0.146135E-01
      0.150000E-01      0.143842E-01
      0.200000E-01      0.140691E-01
      0.250000E-01      0.136739E-01
      0.300000E-01      0.132057E-01
      0.350000E-01      0.126726E-01
      0.400000E-01      0.120838E-01
      0.450000E-01      0.114490E-01
      0.500000E-01      0.107784E-01
      0.550000E-01      0.100823E-01
      0.600000E-01      0.937082E-02
      0.650000E-01      0.865379E-02
      0.700000E-01      0.794048E-02
      0.750000E-01      0.723939E-02
      0.800000E-01      0.655814E-02
      0.850000E-01      0.590333E-02
      0.900000E-01      0.528049E-02
      0.950000E-01      0.469403E-02
      0.100000          0.414724E-02
      0.105000          0.364235E-02
      0.110000          0.318057E-02
      0.115000          0.276217E-02
      0.120000          0.238660E-02
      0.125000          0.205262E-02
      0.130000          0.175838E-02
      0.135000          0.150158E-02
      0.140000          0.127958E-02
      0.145000          0.108952E-02
      0.150000          0.928396E-03
      0.155000          0.793200E-03
      0.160000          0.680952E-03
      0.165000          0.588782E-03
      0.170000          0.513975E-03
      0.175000          0.454005E-03
      0.180000          0.406558E-03
      0.185000          0.369542E-03
      0.190000          0.341088E-03
      0.195000          0.319551E-03
      0.200000          0.303492E-03
      0.205000          0.291672E-03
      0.210000          0.283036E-03
      0.215000          0.276692E-03
      0.220000          0.271898E-03
      0.225000          0.268050E-03
      0.230000          0.264662E-03
      0.235000          0.261354E-03
      0.240000          0.257842E-03
      0.245000          0.253927E-03
      0.250000          0.249483E-03
      0.255000          0.244446E-03
      0.260000          0.238810E-03
      0.265000          0.232612E-03
      0.270000          0.225928E-03
      0.275000          0.218862E-03
      0.280000          0.211536E-03
      0.285000          0.204088E-03
      0.290000          0.196657E-03
      0.295000          0.189380E-03
      0.300000          0.182386E-03
      0.305000          0.175790E-03
      0.310000          0.169687E-03
      0.315000          0.164152E-03
      0.320000          0.159238E-03
      0.325000          0.154974E-03
      0.330000          0.151365E-03
      0.335000          0.148395E-03
      0.340000          0.146029E-03
      0.345000          0.144215E-03
      0.350000          0.142889E-03
      0.355000          0.141976E-03
      0.360000          0.141395E-03
      0.365000          0.141061E-03
      0.370000          0.140889E-03
      0.375000          0.140799E-03
      0.380000          0.140713E-03
      0.385000          0.140560E-03
      0.390000          0.140278E-03
      0.395000          0.139812E-03
      0.400000          0.139119E-03
      0.405000          0.138164E-03
      0.410000          0.136922E-03
      0.415000          0.135377E-03
      0.420000          0.133523E-03
      0.425000          0.131361E-03
      0.430000          0.128903E-03
      0.435000          0.126165E-03
      0.440000          0.123173E-03
      0.445000          0.119956E-03
      0.450000          0.116548E-03
      0.455000          0.112991E-03
      0.460000          0.109326E-03
      0.465000          0.105598E-03
      0.470000          0.101852E-03
      0.475000          0.981347E-04
      0.480000          0.944895E-04
      0.485000          0.909588E-04
      0.490000          0.875812E-04
      0.495000          0.843909E-04
      0.500000          0.814173E-04
