 I_abs(s)[cm^-1]/c[mg/ml]
       0.00000          0.146957E-01
      0.500000E-02      0.146477E-01
      0.100000E-01      0.145048E-01
      0.150000E-01      0.142695E-01
      0.200000E-01      0.139461E-01
      0.250000E-01      0.135407E-01
      0.300000E-01      0.130605E-01
      0.350000E-01      0.125141E-01
      0.400000E-01      0.119107E-01
      0.450000E-01      0.112607E-01
      0.500000E-01      0.105745E-01
      0.550000E-01      0.986289E-02
      0.600000E-01      0.913647E-02
      0.650000E-01      0.840550E-02
      0.700000E-01      0.767966E-02
      0.750000E-01      0.696786E-02
      0.800000E-01      0.627806E-02
      0.850000E-01      0.561718E-02
      0.900000E-01      0.499099E-02
      0.950000E-01      0.440408E-02
      0.100000          0.385983E-02
      0.105000          0.336048E-02
      0.110000          0.290718E-02
      0.115000          0.250003E-02
      0.120000          0.213828E-02
      0.125000          0.182036E-02
      0.130000          0.154407E-02
      0.135000          0.130672E-02
      0.140000          0.110522E-02
      0.145000          0.936277E-03
      0.150000          0.796439E-03
      0.155000          0.682258E-03
      0.160000          0.590357E-03
      0.165000          0.517508E-03
      0.170000          0.460694E-03
      0.175000          0.417143E-03
      0.180000          0.384364E-03
      0.185000          0.360154E-03
      0.190000          0.342598E-03
      0.195000          0.330067E-03
      0.200000          0.321198E-03
      0.205000          0.314872E-03
      0.210000          0.310193E-03
      0.215000          0.306459E-03
      0.220000          0.303137E-03
      0.225000          0.299838E-03
      0.230000          0.296293E-03
      0.235000          0.292329E-03
      0.240000          0.287855E-03
      0.245000          0.282840E-03
      0.250000          0.277303E-03
      0.255000          0.271299E-03
      0.260000          0.264909E-03
      0.265000          0.258232E-03
      0.270000          0.251376E-03
      0.275000          0.244453E-03
      0.280000          0.237572E-03
      0.285000          0.230838E-03
      0.290000          0.224342E-03
      0.295000          0.218159E-03
      0.300000          0.212351E-03
      0.305000          0.206957E-03
      0.310000          0.201996E-03
      0.315000          0.197467E-03
      0.320000          0.193350E-03
      0.325000          0.189607E-03
      0.330000          0.186184E-03
      0.335000          0.183016E-03
      0.340000          0.180030E-03
      0.345000          0.177151E-03
      0.350000          0.174304E-03
      0.355000          0.171417E-03
      0.360000          0.168430E-03
      0.365000          0.165293E-03
      0.370000          0.161970E-03
      0.375000          0.158442E-03
      0.380000          0.154705E-03
      0.385000          0.150771E-03
      0.390000          0.146667E-03
      0.395000          0.142430E-03
      0.400000          0.138110E-03
      0.405000          0.133760E-03
      0.410000          0.129438E-03
      0.415000          0.125202E-03
      0.420000          0.121105E-03
      0.425000          0.117195E-03
      0.430000          0.113513E-03
      0.435000          0.110087E-03
      0.440000          0.106937E-03
      0.445000          0.104070E-03
      0.450000          0.101485E-03
      0.455000          0.991706E-04
      0.460000          0.971059E-04
      0.465000          0.952659E-04
      0.470000          0.936209E-04
      0.475000          0.921396E-04
      0.480000          0.907908E-04
      0.485000          0.895453E-04
      0.490000          0.883774E-04
      0.495000          0.872662E-04
      0.500000          0.861960E-04
