 I_abs(s)[cm^-1]/c[mg/ml]
       0.00000          0.144812E-01
      0.500000E-02      0.144198E-01
      0.100000E-01      0.142372E-01
      0.150000E-01      0.139386E-01
      0.200000E-01      0.135320E-01
      0.250000E-01      0.130284E-01
      0.300000E-01      0.124410E-01
      0.350000E-01      0.117847E-01
      0.400000E-01      0.110755E-01
      0.450000E-01      0.103298E-01
      0.500000E-01      0.956403E-02
      0.550000E-01      0.879356E-02
      0.600000E-01      0.803266E-02
      0.650000E-01      0.729386E-02
      0.700000E-01      0.658766E-02
      0.750000E-01      0.592240E-02
      0.800000E-01      0.530412E-02
      0.850000E-01      0.473664E-02
      0.900000E-01      0.422170E-02
      0.950000E-01      0.375919E-02
      0.100000          0.334741E-02
      0.105000          0.298342E-02
      0.110000          0.266338E-02
      0.115000          0.238287E-02
      0.120000          0.213722E-02
      0.125000          0.192176E-02
      0.130000          0.173208E-02
      0.135000          0.156416E-02
      0.140000          0.141449E-02
      0.145000          0.128015E-02
      0.150000          0.115877E-02
      0.155000          0.104854E-02
      0.160000          0.948111E-03
      0.165000          0.856548E-03
      0.170000          0.773202E-03
      0.175000          0.697632E-03
      0.180000          0.629516E-03
      0.185000          0.568580E-03
      0.190000          0.514537E-03
      0.195000          0.467052E-03
      0.200000          0.425718E-03
      0.205000          0.390058E-03
      0.210000          0.359525E-03
      0.215000          0.333528E-03
      0.220000          0.311451E-03
      0.225000          0.292680E-03
      0.230000          0.276630E-03
      0.235000          0.262764E-03
      0.240000          0.250607E-03
      0.245000          0.239762E-03
      0.250000          0.229906E-03
      0.255000          0.220792E-03
      0.260000          0.212242E-03
      0.265000          0.204137E-03
      0.270000          0.196402E-03
      0.275000          0.188998E-03
      0.280000          0.181911E-03
      0.285000          0.175137E-03
      0.290000          0.168682E-03
      0.295000          0.162549E-03
      0.300000          0.156742E-03
      0.305000          0.151265E-03
      0.310000          0.146117E-03
      0.315000          0.141299E-03
      0.320000          0.136817E-03
      0.325000          0.132679E-03
      0.330000          0.128900E-03
      0.335000          0.125499E-03
      0.340000          0.122499E-03
      0.345000          0.119928E-03
      0.350000          0.117811E-03
      0.355000          0.116168E-03
      0.360000          0.115012E-03
      0.365000          0.114345E-03
      0.370000          0.114155E-03
      0.375000          0.114411E-03
      0.380000          0.115070E-03
      0.385000          0.116069E-03
      0.390000          0.117332E-03
      0.395000          0.118771E-03
      0.400000          0.120290E-03
      0.405000          0.121789E-03
      0.410000          0.123171E-03
      0.415000          0.124343E-03
      0.420000          0.125225E-03
      0.425000          0.125749E-03
      0.430000          0.125866E-03
      0.435000          0.125546E-03
      0.440000          0.124780E-03
      0.445000          0.123578E-03
      0.450000          0.121967E-03
      0.455000          0.119992E-03
      0.460000          0.117710E-03
      0.465000          0.115188E-03
      0.470000          0.112496E-03
      0.475000          0.109705E-03
      0.480000          0.106886E-03
      0.485000          0.104099E-03
      0.490000          0.101398E-03
      0.495000          0.988251E-04
      0.500000          0.964103E-04
