 I_abs(s)[cm^-1]/c[mg/ml]
       0.00000          0.147675E-01
      0.500000E-02      0.147190E-01
      0.100000E-01      0.145743E-01
      0.150000E-01      0.143365E-01
      0.200000E-01      0.140104E-01
      0.250000E-01      0.136023E-01
      0.300000E-01      0.131204E-01
      0.350000E-01      0.125736E-01
      0.400000E-01      0.119722E-01
      0.450000E-01      0.113267E-01
      0.500000E-01      0.106480E-01
      0.550000E-01      0.994725E-02
      0.600000E-01      0.923483E-02
      0.650000E-01      0.852083E-02
      0.700000E-01      0.781444E-02
      0.750000E-01      0.712391E-02
      0.800000E-01      0.645639E-02
      0.850000E-01      0.581786E-02
      0.900000E-01      0.521310E-02
      0.950000E-01      0.464569E-02
      0.100000          0.411811E-02
      0.105000          0.363177E-02
      0.110000          0.318714E-02
      0.115000          0.278389E-02
      0.120000          0.242099E-02
      0.125000          0.209686E-02
      0.130000          0.180950E-02
      0.135000          0.155661E-02
      0.140000          0.133567E-02
      0.145000          0.114407E-02
      0.150000          0.979176E-03
      0.155000          0.838380E-03
      0.160000          0.719151E-03
      0.165000          0.619074E-03
      0.170000          0.535869E-03
      0.175000          0.467403E-03
      0.180000          0.411701E-03
      0.185000          0.366945E-03
      0.190000          0.331472E-03
      0.195000          0.303773E-03
      0.200000          0.282483E-03
      0.205000          0.266383E-03
      0.210000          0.254389E-03
      0.215000          0.245550E-03
      0.220000          0.239043E-03
      0.225000          0.234166E-03
      0.230000          0.230336E-03
      0.235000          0.227077E-03
      0.240000          0.224020E-03
      0.245000          0.220889E-03
      0.250000          0.217494E-03
      0.255000          0.213722E-03
      0.260000          0.209526E-03
      0.265000          0.204913E-03
      0.270000          0.199933E-03
      0.275000          0.194669E-03
      0.280000          0.189225E-03
      0.285000          0.183718E-03
      0.290000          0.178265E-03
      0.295000          0.172980E-03
      0.300000          0.167964E-03
      0.305000          0.163303E-03
      0.310000          0.159062E-03
      0.315000          0.155283E-03
      0.320000          0.151987E-03
      0.325000          0.149171E-03
      0.330000          0.146813E-03
      0.335000          0.144874E-03
      0.340000          0.143298E-03
      0.345000          0.142021E-03
      0.350000          0.140969E-03
      0.355000          0.140069E-03
      0.360000          0.139245E-03
      0.365000          0.138429E-03
      0.370000          0.137558E-03
      0.375000          0.136578E-03
      0.380000          0.135448E-03
      0.385000          0.134138E-03
      0.390000          0.132629E-03
      0.395000          0.130916E-03
      0.400000          0.129002E-03
      0.405000          0.126901E-03
      0.410000          0.124634E-03
      0.415000          0.122226E-03
      0.420000          0.119707E-03
      0.425000          0.117108E-03
      0.430000          0.114459E-03
      0.435000          0.111788E-03
      0.440000          0.109121E-03
      0.445000          0.106480E-03
      0.450000          0.103881E-03
      0.455000          0.101339E-03
      0.460000          0.988621E-04
      0.465000          0.964558E-04
      0.470000          0.941234E-04
      0.475000          0.918661E-04
      0.480000          0.896845E-04
      0.485000          0.875795E-04
      0.490000          0.855527E-04
      0.495000          0.836080E-04
      0.500000          0.817509E-04
