 I_abs(s)[cm^-1]/c[mg/ml]
       0.00000          0.147675E-01
      0.500000E-02      0.147195E-01
      0.100000E-01      0.145764E-01
      0.150000E-01      0.143411E-01
      0.200000E-01      0.140186E-01
      0.250000E-01      0.136152E-01
      0.300000E-01      0.131389E-01
      0.350000E-01      0.125989E-01
      0.400000E-01      0.120051E-01
      0.450000E-01      0.113683E-01
      0.500000E-01      0.106994E-01
      0.550000E-01      0.100090E-01
      0.600000E-01      0.930774E-02
      0.650000E-01      0.860543E-02
      0.700000E-01      0.791111E-02
      0.750000E-01      0.723281E-02
      0.800000E-01      0.657745E-02
      0.850000E-01      0.595075E-02
      0.900000E-01      0.535721E-02
      0.950000E-01      0.480015E-02
      0.100000          0.428177E-02
      0.105000          0.380322E-02
      0.110000          0.336476E-02
      0.115000          0.296584E-02
      0.120000          0.260528E-02
      0.125000          0.228141E-02
      0.130000          0.199216E-02
      0.135000          0.173524E-02
      0.140000          0.150821E-02
      0.145000          0.130856E-02
      0.150000          0.113384E-02
      0.155000          0.981630E-03
      0.160000          0.849661E-03
      0.165000          0.735788E-03
      0.170000          0.638019E-03
      0.175000          0.554521E-03
      0.180000          0.483611E-03
      0.185000          0.423755E-03
      0.190000          0.373557E-03
      0.195000          0.331747E-03
      0.200000          0.297177E-03
      0.205000          0.268810E-03
      0.210000          0.245713E-03
      0.215000          0.227053E-03
      0.220000          0.212091E-03
      0.225000          0.200180E-03
      0.230000          0.190757E-03
      0.235000          0.183344E-03
      0.240000          0.177535E-03
      0.245000          0.172998E-03
      0.250000          0.169460E-03
      0.255000          0.166706E-03
      0.260000          0.164563E-03
      0.265000          0.162900E-03
      0.270000          0.161612E-03
      0.275000          0.160615E-03
      0.280000          0.159841E-03
      0.285000          0.159230E-03
      0.290000          0.158728E-03
      0.295000          0.158280E-03
      0.300000          0.157837E-03
      0.305000          0.157344E-03
      0.310000          0.156754E-03
      0.315000          0.156021E-03
      0.320000          0.155102E-03
      0.325000          0.153966E-03
      0.330000          0.152589E-03
      0.335000          0.150958E-03
      0.340000          0.149074E-03
      0.345000          0.146946E-03
      0.350000          0.144599E-03
      0.355000          0.142063E-03
      0.360000          0.139379E-03
      0.365000          0.136592E-03
      0.370000          0.133750E-03
      0.375000          0.130899E-03
      0.380000          0.128083E-03
      0.385000          0.125342E-03
      0.390000          0.122707E-03
      0.395000          0.120200E-03
      0.400000          0.117834E-03
      0.405000          0.115616E-03
      0.410000          0.113538E-03
      0.415000          0.111591E-03
      0.420000          0.109755E-03
      0.425000          0.108008E-03
      0.430000          0.106328E-03
      0.435000          0.104688E-03
      0.440000          0.103066E-03
      0.445000          0.101443E-03
      0.450000          0.998038E-04
      0.455000          0.981391E-04
      0.460000          0.964448E-04
      0.465000          0.947227E-04
      0.470000          0.929799E-04
      0.475000          0.912277E-04
      0.480000          0.894808E-04
      0.485000          0.877560E-04
      0.490000          0.860712E-04
      0.495000          0.844435E-04
      0.500000          0.828890E-04
