 I_abs(s)[cm^-1]/c[mg/ml]
       0.00000          0.145446E-01
      0.500000E-02      0.145006E-01
      0.100000E-01      0.143693E-01
      0.150000E-01      0.141531E-01
      0.200000E-01      0.138556E-01
      0.250000E-01      0.134820E-01
      0.300000E-01      0.130385E-01
      0.350000E-01      0.125325E-01
      0.400000E-01      0.119723E-01
      0.450000E-01      0.113667E-01
      0.500000E-01      0.107250E-01
      0.550000E-01      0.100569E-01
      0.600000E-01      0.937187E-02
      0.650000E-01      0.867925E-02
      0.700000E-01      0.798797E-02
      0.750000E-01      0.730637E-02
      0.800000E-01      0.664203E-02
      0.850000E-01      0.600167E-02
      0.900000E-01      0.539105E-02
      0.950000E-01      0.481490E-02
      0.100000          0.427690E-02
      0.105000          0.377968E-02
      0.110000          0.332483E-02
      0.115000          0.291299E-02
      0.120000          0.254390E-02
      0.125000          0.221651E-02
      0.130000          0.192908E-02
      0.135000          0.167934E-02
      0.140000          0.146452E-02
      0.145000          0.128159E-02
      0.150000          0.112729E-02
      0.155000          0.998285E-03
      0.160000          0.891243E-03
      0.165000          0.802944E-03
      0.170000          0.730341E-03
      0.175000          0.670619E-03
      0.180000          0.621240E-03
      0.185000          0.579968E-03
      0.190000          0.544884E-03
      0.195000          0.514386E-03
      0.200000          0.487176E-03
      0.205000          0.462244E-03
      0.210000          0.438838E-03
      0.215000          0.416432E-03
      0.220000          0.394693E-03
      0.225000          0.373445E-03
      0.230000          0.352631E-03
      0.235000          0.332284E-03
      0.240000          0.312494E-03
      0.245000          0.293381E-03
      0.250000          0.275076E-03
      0.255000          0.257703E-03
      0.260000          0.241366E-03
      0.265000          0.226141E-03
      0.270000          0.212073E-03
      0.275000          0.199172E-03
      0.280000          0.187418E-03
      0.285000          0.176765E-03
      0.290000          0.167143E-03
      0.295000          0.158470E-03
      0.300000          0.150650E-03
      0.305000          0.143587E-03
      0.310000          0.137186E-03
      0.315000          0.131358E-03
      0.320000          0.126024E-03
      0.325000          0.121116E-03
      0.330000          0.116581E-03
      0.335000          0.112377E-03
      0.340000          0.108475E-03
      0.345000          0.104857E-03
      0.350000          0.101514E-03
      0.355000          0.984423E-04
      0.360000          0.956424E-04
      0.365000          0.931167E-04
      0.370000          0.908672E-04
      0.375000          0.888938E-04
      0.380000          0.871927E-04
      0.385000          0.857559E-04
      0.390000          0.845708E-04
      0.395000          0.836201E-04
      0.400000          0.828822E-04
      0.405000          0.823320E-04
      0.410000          0.819420E-04
      0.415000          0.816831E-04
      0.420000          0.815261E-04
      0.425000          0.814423E-04
      0.430000          0.814052E-04
      0.435000          0.813907E-04
      0.440000          0.813782E-04
      0.445000          0.813509E-04
      0.450000          0.812959E-04
      0.455000          0.812044E-04
      0.460000          0.810714E-04
      0.465000          0.808953E-04
      0.470000          0.806773E-04
      0.475000          0.804211E-04
      0.480000          0.801318E-04
      0.485000          0.798158E-04
      0.490000          0.794795E-04
      0.495000          0.791293E-04
      0.500000          0.787710E-04
