 I_abs(s)[cm^-1]/c[mg/ml]
       0.00000          0.148476E-01
      0.500000E-02      0.148039E-01
      0.100000E-01      0.146735E-01
      0.150000E-01      0.144588E-01
      0.200000E-01      0.141632E-01
      0.250000E-01      0.137917E-01
      0.300000E-01      0.133503E-01
      0.350000E-01      0.128461E-01
      0.400000E-01      0.122871E-01
      0.450000E-01      0.116817E-01
      0.500000E-01      0.110390E-01
      0.550000E-01      0.103682E-01
      0.600000E-01      0.967846E-02
      0.650000E-01      0.897873E-02
      0.700000E-01      0.827764E-02
      0.750000E-01      0.758326E-02
      0.800000E-01      0.690298E-02
      0.850000E-01      0.624336E-02
      0.900000E-01      0.561013E-02
      0.950000E-01      0.500807E-02
      0.100000          0.444100E-02
      0.105000          0.391180E-02
      0.110000          0.342244E-02
      0.115000          0.297402E-02
      0.120000          0.256682E-02
      0.125000          0.220044E-02
      0.130000          0.187384E-02
      0.135000          0.158545E-02
      0.140000          0.133329E-02
      0.145000          0.111505E-02
      0.150000          0.928185E-03
      0.155000          0.770018E-03
      0.160000          0.637794E-03
      0.165000          0.528765E-03
      0.170000          0.440237E-03
      0.175000          0.369623E-03
      0.180000          0.314471E-03
      0.185000          0.272494E-03
      0.190000          0.241586E-03
      0.195000          0.219826E-03
      0.200000          0.205487E-03
      0.205000          0.197030E-03
      0.210000          0.193100E-03
      0.215000          0.192513E-03
      0.220000          0.194254E-03
      0.225000          0.197457E-03
      0.230000          0.201400E-03
      0.235000          0.205493E-03
      0.240000          0.209264E-03
      0.245000          0.212355E-03
      0.250000          0.214504E-03
      0.255000          0.215543E-03
      0.260000          0.215382E-03
      0.265000          0.214006E-03
      0.270000          0.211457E-03
      0.275000          0.207834E-03
      0.280000          0.203274E-03
      0.285000          0.197945E-03
      0.290000          0.192037E-03
      0.295000          0.185751E-03
      0.300000          0.179288E-03
      0.305000          0.172840E-03
      0.310000          0.166586E-03
      0.315000          0.160679E-03
      0.320000          0.155245E-03
      0.325000          0.150377E-03
      0.330000          0.146135E-03
      0.335000          0.142544E-03
      0.340000          0.139594E-03
      0.345000          0.137245E-03
      0.350000          0.135431E-03
      0.355000          0.134061E-03
      0.360000          0.133032E-03
      0.365000          0.132228E-03
      0.370000          0.131531E-03
      0.375000          0.130825E-03
      0.380000          0.130003E-03
      0.385000          0.128972E-03
      0.390000          0.127655E-03
      0.395000          0.125998E-03
      0.400000          0.123968E-03
      0.405000          0.121554E-03
      0.410000          0.118771E-03
      0.415000          0.115651E-03
      0.420000          0.112249E-03
      0.425000          0.108631E-03
      0.430000          0.104878E-03
      0.435000          0.101076E-03
      0.440000          0.973164E-04
      0.445000          0.936880E-04
      0.450000          0.902753E-04
      0.455000          0.871542E-04
      0.460000          0.843894E-04
      0.465000          0.820319E-04
      0.470000          0.801175E-04
      0.475000          0.786660E-04
      0.480000          0.776814E-04
      0.485000          0.771519E-04
      0.490000          0.770520E-04
      0.495000          0.773434E-04
      0.500000          0.779777E-04
