 I_abs(s)[cm^-1]/c[mg/ml]
       0.00000          0.146161E-01
      0.500000E-02      0.145707E-01
      0.100000E-01      0.144353E-01
      0.150000E-01      0.142125E-01
      0.200000E-01      0.139061E-01
      0.250000E-01      0.135217E-01
      0.300000E-01      0.130661E-01
      0.350000E-01      0.125469E-01
      0.400000E-01      0.119730E-01
      0.450000E-01      0.113537E-01
      0.500000E-01      0.106987E-01
      0.550000E-01      0.100179E-01
      0.600000E-01      0.932099E-02
      0.650000E-01      0.861748E-02
      0.700000E-01      0.791628E-02
      0.750000E-01      0.722566E-02
      0.800000E-01      0.655304E-02
      0.850000E-01      0.590491E-02
      0.900000E-01      0.528677E-02
      0.950000E-01      0.470308E-02
      0.100000          0.415727E-02
      0.105000          0.365176E-02
      0.110000          0.318801E-02
      0.115000          0.276659E-02
      0.120000          0.238727E-02
      0.125000          0.204915E-02
      0.130000          0.175071E-02
      0.135000          0.148995E-02
      0.140000          0.126449E-02
      0.145000          0.107170E-02
      0.150000          0.908735E-03
      0.155000          0.772669E-03
      0.160000          0.660552E-03
      0.165000          0.569480E-03
      0.170000          0.496642E-03
      0.175000          0.439372E-03
      0.180000          0.395173E-03
      0.185000          0.361751E-03
      0.190000          0.337026E-03
      0.195000          0.319141E-03
      0.200000          0.306467E-03
      0.205000          0.297602E-03
      0.210000          0.291361E-03
      0.215000          0.286768E-03
      0.220000          0.283041E-03
      0.225000          0.279579E-03
      0.230000          0.275940E-03
      0.235000          0.271827E-03
      0.240000          0.267065E-03
      0.245000          0.261581E-03
      0.250000          0.255387E-03
      0.255000          0.248559E-03
      0.260000          0.241216E-03
      0.265000          0.233511E-03
      0.270000          0.225609E-03
      0.275000          0.217676E-03
      0.280000          0.209872E-03
      0.285000          0.202337E-03
      0.290000          0.195189E-03
      0.295000          0.188516E-03
      0.300000          0.182380E-03
      0.305000          0.176812E-03
      0.310000          0.171816E-03
      0.315000          0.167369E-03
      0.320000          0.163429E-03
      0.325000          0.159937E-03
      0.330000          0.156820E-03
      0.335000          0.154000E-03
      0.340000          0.151395E-03
      0.345000          0.148925E-03
      0.350000          0.146516E-03
      0.355000          0.144101E-03
      0.360000          0.141626E-03
      0.365000          0.139047E-03
      0.370000          0.136334E-03
      0.375000          0.133472E-03
      0.380000          0.130457E-03
      0.385000          0.127300E-03
      0.390000          0.124021E-03
      0.395000          0.120650E-03
      0.400000          0.117225E-03
      0.405000          0.113789E-03
      0.410000          0.110390E-03
      0.415000          0.107074E-03
      0.420000          0.103888E-03
      0.425000          0.100877E-03
      0.430000          0.980788E-04
      0.435000          0.955276E-04
      0.440000          0.932486E-04
      0.445000          0.912596E-04
      0.450000          0.895692E-04
      0.455000          0.881772E-04
      0.460000          0.870743E-04
      0.465000          0.862433E-04
      0.470000          0.856592E-04
      0.475000          0.852905E-04
      0.480000          0.851007E-04
      0.485000          0.850495E-04
      0.490000          0.850946E-04
      0.495000          0.851935E-04
      0.500000          0.853045E-04
