 I_abs(s)[cm^-1]/c[mg/ml]
       0.00000          0.146798E-01
      0.500000E-02      0.146331E-01
      0.100000E-01      0.144941E-01
      0.150000E-01      0.142654E-01
      0.200000E-01      0.139515E-01
      0.250000E-01      0.135581E-01
      0.300000E-01      0.130926E-01
      0.350000E-01      0.125635E-01
      0.400000E-01      0.119800E-01
      0.450000E-01      0.113522E-01
      0.500000E-01      0.106904E-01
      0.550000E-01      0.100048E-01
      0.600000E-01      0.930561E-02
      0.650000E-01      0.860263E-02
      0.700000E-01      0.790487E-02
      0.750000E-01      0.722057E-02
      0.800000E-01      0.655697E-02
      0.850000E-01      0.592027E-02
      0.900000E-01      0.531555E-02
      0.950000E-01      0.474673E-02
      0.100000          0.421667E-02
      0.105000          0.372712E-02
      0.110000          0.327892E-02
      0.115000          0.287201E-02
      0.120000          0.250559E-02
      0.125000          0.217823E-02
      0.130000          0.188803E-02
      0.135000          0.163268E-02
      0.140000          0.140964E-02
      0.145000          0.121621E-02
      0.150000          0.104963E-02
      0.155000          0.907144E-03
      0.160000          0.786087E-03
      0.165000          0.683912E-03
      0.170000          0.598229E-03
      0.175000          0.526830E-03
      0.180000          0.467697E-03
      0.185000          0.419007E-03
      0.190000          0.379126E-03
      0.195000          0.346608E-03
      0.200000          0.320179E-03
      0.205000          0.298726E-03
      0.210000          0.281289E-03
      0.215000          0.267041E-03
      0.220000          0.255282E-03
      0.225000          0.245425E-03
      0.230000          0.236986E-03
      0.235000          0.229572E-03
      0.240000          0.222872E-03
      0.245000          0.216652E-03
      0.250000          0.210736E-03
      0.255000          0.205007E-03
      0.260000          0.199392E-03
      0.265000          0.193854E-03
      0.270000          0.188388E-03
      0.275000          0.183006E-03
      0.280000          0.177736E-03
      0.285000          0.172615E-03
      0.290000          0.167678E-03
      0.295000          0.162963E-03
      0.300000          0.158499E-03
      0.305000          0.154312E-03
      0.310000          0.150418E-03
      0.315000          0.146823E-03
      0.320000          0.143530E-03
      0.325000          0.140533E-03
      0.330000          0.137819E-03
      0.335000          0.135373E-03
      0.340000          0.133177E-03
      0.345000          0.131210E-03
      0.350000          0.129453E-03
      0.355000          0.127883E-03
      0.360000          0.126478E-03
      0.365000          0.125217E-03
      0.370000          0.124078E-03
      0.375000          0.123036E-03
      0.380000          0.122069E-03
      0.385000          0.121151E-03
      0.390000          0.120255E-03
      0.395000          0.119355E-03
      0.400000          0.118424E-03
      0.405000          0.117434E-03
      0.410000          0.116359E-03
      0.415000          0.115177E-03
      0.420000          0.113867E-03
      0.425000          0.112415E-03
      0.430000          0.110811E-03
      0.435000          0.109051E-03
      0.440000          0.107141E-03
      0.445000          0.105091E-03
      0.450000          0.102919E-03
      0.455000          0.100651E-03
      0.460000          0.983167E-04
      0.465000          0.959512E-04
      0.470000          0.935926E-04
      0.475000          0.912806E-04
      0.480000          0.890543E-04
      0.485000          0.869510E-04
      0.490000          0.850044E-04
      0.495000          0.832433E-04
      0.500000          0.816900E-04
