 I_abs(s)[cm^-1]/c[mg/ml]
       0.00000          0.141821E-01
      0.500000E-02      0.141365E-01
      0.100000E-01      0.140007E-01
      0.150000E-01      0.137771E-01
      0.200000E-01      0.134695E-01
      0.250000E-01      0.130833E-01
      0.300000E-01      0.126251E-01
      0.350000E-01      0.121028E-01
      0.400000E-01      0.115249E-01
      0.450000E-01      0.109010E-01
      0.500000E-01      0.102408E-01
      0.550000E-01      0.955444E-02
      0.600000E-01      0.885204E-02
      0.650000E-01      0.814350E-02
      0.700000E-01      0.743826E-02
      0.750000E-01      0.674517E-02
      0.800000E-01      0.607227E-02
      0.850000E-01      0.542668E-02
      0.900000E-01      0.481449E-02
      0.950000E-01      0.424069E-02
      0.100000          0.370912E-02
      0.105000          0.322249E-02
      0.110000          0.278237E-02
      0.115000          0.238929E-02
      0.120000          0.204278E-02
      0.125000          0.174150E-02
      0.130000          0.148334E-02
      0.135000          0.126555E-02
      0.140000          0.108489E-02
      0.145000          0.937766E-03
      0.150000          0.820338E-03
      0.155000          0.728676E-03
      0.160000          0.658867E-03
      0.165000          0.607116E-03
      0.170000          0.569842E-03
      0.175000          0.543740E-03
      0.180000          0.525846E-03
      0.185000          0.513564E-03
      0.190000          0.504694E-03
      0.195000          0.497431E-03
      0.200000          0.490361E-03
      0.205000          0.482433E-03
      0.210000          0.472937E-03
      0.215000          0.461456E-03
      0.220000          0.447831E-03
      0.225000          0.432112E-03
      0.230000          0.414509E-03
      0.235000          0.395354E-03
      0.240000          0.375051E-03
      0.245000          0.354043E-03
      0.250000          0.332778E-03
      0.255000          0.311682E-03
      0.260000          0.291139E-03
      0.265000          0.271474E-03
      0.270000          0.252945E-03
      0.275000          0.235740E-03
      0.280000          0.219974E-03
      0.285000          0.205698E-03
      0.290000          0.192904E-03
      0.295000          0.181533E-03
      0.300000          0.171488E-03
      0.305000          0.162645E-03
      0.310000          0.154860E-03
      0.315000          0.147987E-03
      0.320000          0.141878E-03
      0.325000          0.136399E-03
      0.330000          0.131427E-03
      0.335000          0.126863E-03
      0.340000          0.122626E-03
      0.345000          0.118659E-03
      0.350000          0.114927E-03
      0.355000          0.111412E-03
      0.360000          0.108114E-03
      0.365000          0.105044E-03
      0.370000          0.102222E-03
      0.375000          0.996729E-04
      0.380000          0.974219E-04
      0.385000          0.954910E-04
      0.390000          0.938964E-04
      0.395000          0.926466E-04
      0.400000          0.917401E-04
      0.405000          0.911656E-04
      0.410000          0.909011E-04
      0.415000          0.909152E-04
      0.420000          0.911679E-04
      0.425000          0.916126E-04
      0.430000          0.921979E-04
      0.435000          0.928697E-04
      0.440000          0.935739E-04
      0.445000          0.942583E-04
      0.450000          0.948750E-04
      0.455000          0.953818E-04
      0.460000          0.957439E-04
      0.465000          0.959350E-04
      0.470000          0.959382E-04
      0.475000          0.957455E-04
      0.480000          0.953586E-04
      0.485000          0.947874E-04
      0.490000          0.940497E-04
      0.495000          0.931697E-04
      0.500000          0.921766E-04
