 I_abs(s)[cm^-1]/c[mg/ml]
       0.00000          0.144022E-01
      0.500000E-02      0.143322E-01
      0.100000E-01      0.141242E-01
      0.150000E-01      0.137849E-01
      0.200000E-01      0.133246E-01
      0.250000E-01      0.127573E-01
      0.300000E-01      0.120997E-01
      0.350000E-01      0.113705E-01
      0.400000E-01      0.105896E-01
      0.450000E-01      0.977719E-02
      0.500000E-01      0.895291E-02
      0.550000E-01      0.813505E-02
      0.600000E-01      0.733992E-02
      0.650000E-01      0.658135E-02
      0.700000E-01      0.587033E-02
      0.750000E-01      0.521483E-02
      0.800000E-01      0.461983E-02
      0.850000E-01      0.408744E-02
      0.900000E-01      0.361720E-02
      0.950000E-01      0.320649E-02
      0.100000          0.285096E-02
      0.105000          0.254505E-02
      0.110000          0.228248E-02
      0.115000          0.205671E-02
      0.120000          0.186136E-02
      0.125000          0.169053E-02
      0.130000          0.153908E-02
      0.135000          0.140273E-02
      0.140000          0.127817E-02
      0.145000          0.116303E-02
      0.150000          0.105581E-02
      0.155000          0.955718E-03
      0.160000          0.862536E-03
      0.165000          0.776428E-03
      0.170000          0.697765E-03
      0.175000          0.626970E-03
      0.180000          0.564383E-03
      0.185000          0.510164E-03
      0.190000          0.464233E-03
      0.195000          0.426246E-03
      0.200000          0.395604E-03
      0.205000          0.371491E-03
      0.210000          0.352927E-03
      0.215000          0.338840E-03
      0.220000          0.328132E-03
      0.225000          0.319751E-03
      0.230000          0.312749E-03
      0.235000          0.306326E-03
      0.240000          0.299860E-03
      0.245000          0.292918E-03
      0.250000          0.285257E-03
      0.255000          0.276805E-03
      0.260000          0.267635E-03
      0.265000          0.257931E-03
      0.270000          0.247947E-03
      0.275000          0.237979E-03
      0.280000          0.228320E-03
      0.285000          0.219237E-03
      0.290000          0.210948E-03
      0.295000          0.203604E-03
      0.300000          0.197287E-03
      0.305000          0.192004E-03
      0.310000          0.187698E-03
      0.315000          0.184256E-03
      0.320000          0.181522E-03
      0.325000          0.179315E-03
      0.330000          0.177443E-03
      0.335000          0.175721E-03
      0.340000          0.173978E-03
      0.345000          0.172073E-03
      0.350000          0.169899E-03
      0.355000          0.167386E-03
      0.360000          0.164508E-03
      0.365000          0.161271E-03
      0.370000          0.157718E-03
      0.375000          0.153916E-03
      0.380000          0.149953E-03
      0.385000          0.145927E-03
      0.390000          0.141940E-03
      0.395000          0.138086E-03
      0.400000          0.134452E-03
      0.405000          0.131103E-03
      0.410000          0.128089E-03
      0.415000          0.125431E-03
      0.420000          0.123131E-03
      0.425000          0.121168E-03
      0.430000          0.119500E-03
      0.435000          0.118072E-03
      0.440000          0.116818E-03
      0.445000          0.115664E-03
      0.450000          0.114538E-03
      0.455000          0.113373E-03
      0.460000          0.112109E-03
      0.465000          0.110702E-03
      0.470000          0.109118E-03
      0.475000          0.107344E-03
      0.480000          0.105379E-03
      0.485000          0.103240E-03
      0.490000          0.100953E-03
      0.495000          0.985564E-04
      0.500000          0.960940E-04
