 I_abs(s)[cm^-1]/c[mg/ml]
       0.00000          0.144496E-01
      0.500000E-02      0.143996E-01
      0.100000E-01      0.142506E-01
      0.150000E-01      0.140059E-01
      0.200000E-01      0.136707E-01
      0.250000E-01      0.132521E-01
      0.300000E-01      0.127588E-01
      0.350000E-01      0.122007E-01
      0.400000E-01      0.115888E-01
      0.450000E-01      0.109346E-01
      0.500000E-01      0.102498E-01
      0.550000E-01      0.954629E-02
      0.600000E-01      0.883520E-02
      0.650000E-01      0.812712E-02
      0.700000E-01      0.743164E-02
      0.750000E-01      0.675723E-02
      0.800000E-01      0.611103E-02
      0.850000E-01      0.549886E-02
      0.900000E-01      0.492514E-02
      0.950000E-01      0.439294E-02
      0.100000          0.390405E-02
      0.105000          0.345909E-02
      0.110000          0.305766E-02
      0.115000          0.269850E-02
      0.120000          0.237962E-02
      0.125000          0.209852E-02
      0.130000          0.185232E-02
      0.135000          0.163790E-02
      0.140000          0.145206E-02
      0.145000          0.129161E-02
      0.150000          0.115345E-02
      0.155000          0.103467E-02
      0.160000          0.932561E-03
      0.165000          0.844660E-03
      0.170000          0.768768E-03
      0.175000          0.702943E-03
      0.180000          0.645492E-03
      0.185000          0.594959E-03
      0.190000          0.550106E-03
      0.195000          0.509890E-03
      0.200000          0.473448E-03
      0.205000          0.440071E-03
      0.210000          0.409193E-03
      0.215000          0.380371E-03
      0.220000          0.353269E-03
      0.225000          0.327648E-03
      0.230000          0.303355E-03
      0.235000          0.280303E-03
      0.240000          0.258467E-03
      0.245000          0.237868E-03
      0.250000          0.218563E-03
      0.255000          0.200630E-03
      0.260000          0.184156E-03
      0.265000          0.169231E-03
      0.270000          0.155930E-03
      0.275000          0.144312E-03
      0.280000          0.134405E-03
      0.285000          0.126210E-03
      0.290000          0.119690E-03
      0.295000          0.114776E-03
      0.300000          0.111365E-03
      0.305000          0.109325E-03
      0.310000          0.108499E-03
      0.315000          0.108713E-03
      0.320000          0.109781E-03
      0.325000          0.111513E-03
      0.330000          0.113722E-03
      0.335000          0.116227E-03
      0.340000          0.118864E-03
      0.345000          0.121484E-03
      0.350000          0.123960E-03
      0.355000          0.126188E-03
      0.360000          0.128085E-03
      0.365000          0.129593E-03
      0.370000          0.130674E-03
      0.375000          0.131309E-03
      0.380000          0.131497E-03
      0.385000          0.131251E-03
      0.390000          0.130597E-03
      0.395000          0.129567E-03
      0.400000          0.128202E-03
      0.405000          0.126548E-03
      0.410000          0.124651E-03
      0.415000          0.122559E-03
      0.420000          0.120321E-03
      0.425000          0.117981E-03
      0.430000          0.115582E-03
      0.435000          0.113164E-03
      0.440000          0.110763E-03
      0.445000          0.108409E-03
      0.450000          0.106130E-03
      0.455000          0.103949E-03
      0.460000          0.101883E-03
      0.465000          0.999473E-04
      0.470000          0.981501E-04
      0.475000          0.964976E-04
      0.480000          0.949918E-04
      0.485000          0.936320E-04
      0.490000          0.924143E-04
      0.495000          0.913331E-04
      0.500000          0.903806E-04
