 I_abs(s)[cm^-1]/c[mg/ml]
       0.00000          0.142762E-01
      0.500000E-02      0.142150E-01
      0.100000E-01      0.140330E-01
      0.150000E-01      0.137355E-01
      0.200000E-01      0.133306E-01
      0.250000E-01      0.128295E-01
      0.300000E-01      0.122455E-01
      0.350000E-01      0.115937E-01
      0.400000E-01      0.108901E-01
      0.450000E-01      0.101515E-01
      0.500000E-01      0.939406E-02
      0.550000E-01      0.863339E-02
      0.600000E-01      0.788366E-02
      0.650000E-01      0.715731E-02
      0.700000E-01      0.646469E-02
      0.750000E-01      0.581393E-02
      0.800000E-01      0.521084E-02
      0.850000E-01      0.465895E-02
      0.900000E-01      0.415972E-02
      0.950000E-01      0.371275E-02
      0.100000          0.331606E-02
      0.105000          0.296647E-02
      0.110000          0.265990E-02
      0.115000          0.239177E-02
      0.120000          0.215726E-02
      0.125000          0.195163E-02
      0.130000          0.177040E-02
      0.135000          0.160954E-02
      0.140000          0.146558E-02
      0.145000          0.133560E-02
      0.150000          0.121732E-02
      0.155000          0.110899E-02
      0.160000          0.100935E-02
      0.165000          0.917529E-03
      0.170000          0.832966E-03
      0.175000          0.755303E-03
      0.180000          0.684304E-03
      0.185000          0.619783E-03
      0.190000          0.561551E-03
      0.195000          0.509376E-03
      0.200000          0.462970E-03
      0.205000          0.421983E-03
      0.210000          0.386007E-03
      0.215000          0.354599E-03
      0.220000          0.327296E-03
      0.225000          0.303639E-03
      0.230000          0.283191E-03
      0.235000          0.265552E-03
      0.240000          0.250366E-03
      0.245000          0.237331E-03
      0.250000          0.226187E-03
      0.255000          0.216722E-03
      0.260000          0.208753E-03
      0.265000          0.202119E-03
      0.270000          0.196674E-03
      0.275000          0.192273E-03
      0.280000          0.188765E-03
      0.285000          0.185996E-03
      0.290000          0.183800E-03
      0.295000          0.182008E-03
      0.300000          0.180446E-03
      0.305000          0.178949E-03
      0.310000          0.177362E-03
      0.315000          0.175550E-03
      0.320000          0.173404E-03
      0.325000          0.170845E-03
      0.330000          0.167828E-03
      0.335000          0.164340E-03
      0.340000          0.160403E-03
      0.345000          0.156065E-03
      0.350000          0.151400E-03
      0.355000          0.146496E-03
      0.360000          0.141456E-03
      0.365000          0.136383E-03
      0.370000          0.131377E-03
      0.375000          0.126533E-03
      0.380000          0.121930E-03
      0.385000          0.117631E-03
      0.390000          0.113683E-03
      0.395000          0.110113E-03
      0.400000          0.106932E-03
      0.405000          0.104134E-03
      0.410000          0.101702E-03
      0.415000          0.996058E-04
      0.420000          0.978098E-04
      0.425000          0.962729E-04
      0.430000          0.949525E-04
      0.435000          0.938065E-04
      0.440000          0.927945E-04
      0.445000          0.918799E-04
      0.450000          0.910302E-04
      0.455000          0.902173E-04
      0.460000          0.894176E-04
      0.465000          0.886116E-04
      0.470000          0.877840E-04
      0.475000          0.869223E-04
      0.480000          0.860175E-04
      0.485000          0.850629E-04
      0.490000          0.840540E-04
      0.495000          0.829888E-04
      0.500000          0.818675E-04
