 I_abs(s)[cm^-1]/c[mg/ml]
       0.00000          0.145050E-01
      0.500000E-02      0.144458E-01
      0.100000E-01      0.142699E-01
      0.150000E-01      0.139817E-01
      0.200000E-01      0.135888E-01
      0.250000E-01      0.131011E-01
      0.300000E-01      0.125305E-01
      0.350000E-01      0.118909E-01
      0.400000E-01      0.111968E-01
      0.450000E-01      0.104636E-01
      0.500000E-01      0.970636E-02
      0.550000E-01      0.893976E-02
      0.600000E-01      0.817738E-02
      0.650000E-01      0.743138E-02
      0.700000E-01      0.671227E-02
      0.750000E-01      0.602863E-02
      0.800000E-01      0.538712E-02
      0.850000E-01      0.479239E-02
      0.900000E-01      0.424726E-02
      0.950000E-01      0.375283E-02
      0.100000          0.330871E-02
      0.105000          0.291327E-02
      0.110000          0.256393E-02
      0.115000          0.225738E-02
      0.120000          0.198990E-02
      0.125000          0.175753E-02
      0.130000          0.155629E-02
      0.135000          0.138234E-02
      0.140000          0.123209E-02
      0.145000          0.110226E-02
      0.150000          0.989925E-03
      0.155000          0.892550E-03
      0.160000          0.807944E-03
      0.165000          0.734252E-03
      0.170000          0.669910E-03
      0.175000          0.613602E-03
      0.180000          0.564223E-03
      0.185000          0.520838E-03
      0.190000          0.482651E-03
      0.195000          0.448980E-03
      0.200000          0.419239E-03
      0.205000          0.392923E-03
      0.210000          0.369600E-03
      0.215000          0.348902E-03
      0.220000          0.330522E-03
      0.225000          0.314205E-03
      0.230000          0.299744E-03
      0.235000          0.286970E-03
      0.240000          0.275745E-03
      0.245000          0.265951E-03
      0.250000          0.257481E-03
      0.255000          0.250232E-03
      0.260000          0.244098E-03
      0.265000          0.238961E-03
      0.270000          0.234694E-03
      0.275000          0.231156E-03
      0.280000          0.228199E-03
      0.285000          0.225668E-03
      0.290000          0.223410E-03
      0.295000          0.221277E-03
      0.300000          0.219135E-03
      0.305000          0.216869E-03
      0.310000          0.214388E-03
      0.315000          0.211624E-03
      0.320000          0.208539E-03
      0.325000          0.205120E-03
      0.330000          0.201378E-03
      0.335000          0.197343E-03
      0.340000          0.193061E-03
      0.345000          0.188590E-03
      0.350000          0.183990E-03
      0.355000          0.179323E-03
      0.360000          0.174648E-03
      0.365000          0.170016E-03
      0.370000          0.165469E-03
      0.375000          0.161039E-03
      0.380000          0.156748E-03
      0.385000          0.152610E-03
      0.390000          0.148630E-03
      0.395000          0.144805E-03
      0.400000          0.141129E-03
      0.405000          0.137593E-03
      0.410000          0.134186E-03
      0.415000          0.130896E-03
      0.420000          0.127714E-03
      0.425000          0.124630E-03
      0.430000          0.121635E-03
      0.435000          0.118723E-03
      0.440000          0.115887E-03
      0.445000          0.113122E-03
      0.450000          0.110425E-03
      0.455000          0.107791E-03
      0.460000          0.105217E-03
      0.465000          0.102700E-03
      0.470000          0.100239E-03
      0.475000          0.978315E-04
      0.480000          0.954779E-04
      0.485000          0.931788E-04
      0.490000          0.909361E-04
      0.495000          0.887528E-04
      0.500000          0.866329E-04
