 I_abs(s)[cm^-1]/c[mg/ml]
       0.00000          0.144180E-01
      0.500000E-02      0.143657E-01
      0.100000E-01      0.142100E-01
      0.150000E-01      0.139543E-01
      0.200000E-01      0.136042E-01
      0.250000E-01      0.131674E-01
      0.300000E-01      0.126530E-01
      0.350000E-01      0.120717E-01
      0.400000E-01      0.114353E-01
      0.450000E-01      0.107559E-01
      0.500000E-01      0.100462E-01
      0.550000E-01      0.931865E-02
      0.600000E-01      0.858524E-02
      0.650000E-01      0.785716E-02
      0.700000E-01      0.714458E-02
      0.750000E-01      0.645644E-02
      0.800000E-01      0.580024E-02
      0.850000E-01      0.518203E-02
      0.900000E-01      0.460637E-02
      0.950000E-01      0.407631E-02
      0.100000          0.359355E-02
      0.105000          0.315849E-02
      0.110000          0.277042E-02
      0.115000          0.242770E-02
      0.120000          0.212791E-02
      0.125000          0.186803E-02
      0.130000          0.164468E-02
      0.135000          0.145420E-02
      0.140000          0.129287E-02
      0.145000          0.115697E-02
      0.150000          0.104295E-02
      0.155000          0.947445E-03
      0.160000          0.867376E-03
      0.165000          0.799966E-03
      0.170000          0.742763E-03
      0.175000          0.693646E-03
      0.180000          0.650810E-03
      0.185000          0.612755E-03
      0.190000          0.578262E-03
      0.195000          0.546363E-03
      0.200000          0.516317E-03
      0.205000          0.487579E-03
      0.210000          0.459772E-03
      0.215000          0.432662E-03
      0.220000          0.406133E-03
      0.225000          0.380163E-03
      0.230000          0.354805E-03
      0.235000          0.330165E-03
      0.240000          0.306385E-03
      0.245000          0.283629E-03
      0.250000          0.262067E-03
      0.255000          0.241859E-03
      0.260000          0.223150E-03
      0.265000          0.206057E-03
      0.270000          0.190665E-03
      0.275000          0.177019E-03
      0.280000          0.165125E-03
      0.285000          0.154950E-03
      0.290000          0.146420E-03
      0.295000          0.139430E-03
      0.300000          0.133846E-03
      0.305000          0.129512E-03
      0.310000          0.126257E-03
      0.315000          0.123902E-03
      0.320000          0.122270E-03
      0.325000          0.121189E-03
      0.330000          0.120498E-03
      0.335000          0.120056E-03
      0.340000          0.119739E-03
      0.345000          0.119445E-03
      0.350000          0.119097E-03
      0.355000          0.118637E-03
      0.360000          0.118028E-03
      0.365000          0.117253E-03
      0.370000          0.116308E-03
      0.375000          0.115202E-03
      0.380000          0.113952E-03
      0.385000          0.112584E-03
      0.390000          0.111124E-03
      0.395000          0.109601E-03
      0.400000          0.108043E-03
      0.405000          0.106473E-03
      0.410000          0.104916E-03
      0.415000          0.103389E-03
      0.420000          0.101908E-03
      0.425000          0.100485E-03
      0.430000          0.991285E-04
      0.435000          0.978462E-04
      0.440000          0.966425E-04
      0.445000          0.955207E-04
      0.450000          0.944831E-04
      0.455000          0.935307E-04
      0.460000          0.926640E-04
      0.465000          0.918823E-04
      0.470000          0.911840E-04
      0.475000          0.905662E-04
      0.480000          0.900244E-04
      0.485000          0.895530E-04
      0.490000          0.891442E-04
      0.495000          0.887891E-04
      0.500000          0.884771E-04
