 I_abs(s)[cm^-1]/c[mg/ml]
       0.00000          0.146479E-01
      0.500000E-02      0.146025E-01
      0.100000E-01      0.144671E-01
      0.150000E-01      0.142442E-01
      0.200000E-01      0.139377E-01
      0.250000E-01      0.135532E-01
      0.300000E-01      0.130972E-01
      0.350000E-01      0.125778E-01
      0.400000E-01      0.120035E-01
      0.450000E-01      0.113839E-01
      0.500000E-01      0.107286E-01
      0.550000E-01      0.100477E-01
      0.600000E-01      0.935101E-02
      0.650000E-01      0.864818E-02
      0.700000E-01      0.794828E-02
      0.750000E-01      0.725970E-02
      0.800000E-01      0.659000E-02
      0.850000E-01      0.594577E-02
      0.900000E-01      0.533255E-02
      0.950000E-01      0.475482E-02
      0.100000          0.421592E-02
      0.105000          0.371815E-02
      0.110000          0.326275E-02
      0.115000          0.285004E-02
      0.120000          0.247947E-02
      0.125000          0.214976E-02
      0.130000          0.185901E-02
      0.135000          0.160485E-02
      0.140000          0.138452E-02
      0.145000          0.119506E-02
      0.150000          0.103336E-02
      0.155000          0.896303E-03
      0.160000          0.780836E-03
      0.165000          0.684048E-03
      0.170000          0.603226E-03
      0.175000          0.535895E-03
      0.180000          0.479844E-03
      0.185000          0.433134E-03
      0.190000          0.394105E-03
      0.195000          0.361357E-03
      0.200000          0.333734E-03
      0.205000          0.310301E-03
      0.210000          0.290316E-03
      0.215000          0.273196E-03
      0.220000          0.258492E-03
      0.225000          0.245860E-03
      0.230000          0.235034E-03
      0.235000          0.225804E-03
      0.240000          0.218001E-03
      0.245000          0.211477E-03
      0.250000          0.206101E-03
      0.255000          0.201744E-03
      0.260000          0.198285E-03
      0.265000          0.195598E-03
      0.270000          0.193563E-03
      0.275000          0.192061E-03
      0.280000          0.190975E-03
      0.285000          0.190199E-03
      0.290000          0.189634E-03
      0.295000          0.189193E-03
      0.300000          0.188801E-03
      0.305000          0.188394E-03
      0.310000          0.187921E-03
      0.315000          0.187342E-03
      0.320000          0.186626E-03
      0.325000          0.185751E-03
      0.330000          0.184699E-03
      0.335000          0.183455E-03
      0.340000          0.182010E-03
      0.345000          0.180351E-03
      0.350000          0.178469E-03
      0.355000          0.176353E-03
      0.360000          0.173991E-03
      0.365000          0.171372E-03
      0.370000          0.168486E-03
      0.375000          0.165325E-03
      0.380000          0.161886E-03
      0.385000          0.158170E-03
      0.390000          0.154183E-03
      0.395000          0.149940E-03
      0.400000          0.145464E-03
      0.405000          0.140785E-03
      0.410000          0.135943E-03
      0.415000          0.130986E-03
      0.420000          0.125966E-03
      0.425000          0.120944E-03
      0.430000          0.115982E-03
      0.435000          0.111146E-03
      0.440000          0.106500E-03
      0.445000          0.102107E-03
      0.450000          0.980237E-04
      0.455000          0.943022E-04
      0.460000          0.909845E-04
      0.465000          0.881032E-04
      0.470000          0.856795E-04
      0.475000          0.837231E-04
      0.480000          0.822313E-04
      0.485000          0.811896E-04
      0.490000          0.805719E-04
      0.495000          0.803419E-04
      0.500000          0.804541E-04
