 I_abs(s)[cm^-1]/c[mg/ml]
       0.00000          0.146399E-01
      0.500000E-02      0.145779E-01
      0.100000E-01      0.143936E-01
      0.150000E-01      0.140920E-01
      0.200000E-01      0.136814E-01
      0.250000E-01      0.131729E-01
      0.300000E-01      0.125797E-01
      0.350000E-01      0.119169E-01
      0.400000E-01      0.112004E-01
      0.450000E-01      0.104470E-01
      0.500000E-01      0.967267E-02
      0.550000E-01      0.889306E-02
      0.600000E-01      0.812229E-02
      0.650000E-01      0.737278E-02
      0.700000E-01      0.665496E-02
      0.750000E-01      0.597704E-02
      0.800000E-01      0.534498E-02
      0.850000E-01      0.476259E-02
      0.900000E-01      0.423164E-02
      0.950000E-01      0.375209E-02
      0.100000          0.332247E-02
      0.105000          0.294009E-02
      0.110000          0.260148E-02
      0.115000          0.230266E-02
      0.120000          0.203943E-02
      0.125000          0.180765E-02
      0.130000          0.160340E-02
      0.135000          0.142315E-02
      0.140000          0.126380E-02
      0.145000          0.112276E-02
      0.150000          0.997889E-03
      0.155000          0.887459E-03
      0.160000          0.790096E-03
      0.165000          0.704685E-03
      0.170000          0.630288E-03
      0.175000          0.566070E-03
      0.180000          0.511229E-03
      0.185000          0.464958E-03
      0.190000          0.426414E-03
      0.195000          0.394712E-03
      0.200000          0.368930E-03
      0.205000          0.348133E-03
      0.210000          0.331399E-03
      0.215000          0.317850E-03
      0.220000          0.306682E-03
      0.225000          0.297191E-03
      0.230000          0.288788E-03
      0.235000          0.281013E-03
      0.240000          0.273530E-03
      0.245000          0.266122E-03
      0.250000          0.258673E-03
      0.255000          0.251152E-03
      0.260000          0.243586E-03
      0.265000          0.236043E-03
      0.270000          0.228606E-03
      0.275000          0.221359E-03
      0.280000          0.214374E-03
      0.285000          0.207704E-03
      0.290000          0.201378E-03
      0.295000          0.195403E-03
      0.300000          0.189771E-03
      0.305000          0.184460E-03
      0.310000          0.179447E-03
      0.315000          0.174706E-03
      0.320000          0.170224E-03
      0.325000          0.165995E-03
      0.330000          0.162024E-03
      0.335000          0.158326E-03
      0.340000          0.154924E-03
      0.345000          0.151843E-03
      0.350000          0.149103E-03
      0.355000          0.146719E-03
      0.360000          0.144691E-03
      0.365000          0.143006E-03
      0.370000          0.141632E-03
      0.375000          0.140522E-03
      0.380000          0.139614E-03
      0.385000          0.138835E-03
      0.390000          0.138108E-03
      0.395000          0.137353E-03
      0.400000          0.136496E-03
      0.405000          0.135473E-03
      0.410000          0.134233E-03
      0.415000          0.132744E-03
      0.420000          0.130992E-03
      0.425000          0.128982E-03
      0.430000          0.126737E-03
      0.435000          0.124294E-03
      0.440000          0.121702E-03
      0.445000          0.119017E-03
      0.450000          0.116297E-03
      0.455000          0.113597E-03
      0.460000          0.110966E-03
      0.465000          0.108446E-03
      0.470000          0.106063E-03
      0.475000          0.103834E-03
      0.480000          0.101761E-03
      0.485000          0.998337E-04
      0.490000          0.980331E-04
      0.495000          0.963318E-04
      0.500000          0.946985E-04
