 I_abs(s)[cm^-1]/c[mg/ml]
       0.00000          0.145129E-01
      0.500000E-02      0.144709E-01
      0.100000E-01      0.143455E-01
      0.150000E-01      0.141388E-01
      0.200000E-01      0.138540E-01
      0.250000E-01      0.134958E-01
      0.300000E-01      0.130697E-01
      0.350000E-01      0.125823E-01
      0.400000E-01      0.120411E-01
      0.450000E-01      0.114542E-01
      0.500000E-01      0.108300E-01
      0.550000E-01      0.101774E-01
      0.600000E-01      0.950529E-02
      0.650000E-01      0.882240E-02
      0.700000E-01      0.813725E-02
      0.750000E-01      0.745791E-02
      0.800000E-01      0.679185E-02
      0.850000E-01      0.614584E-02
      0.900000E-01      0.552584E-02
      0.950000E-01      0.493692E-02
      0.100000          0.438323E-02
      0.105000          0.386796E-02
      0.110000          0.339334E-02
      0.115000          0.296069E-02
      0.120000          0.257047E-02
      0.125000          0.222230E-02
      0.130000          0.191509E-02
      0.135000          0.164714E-02
      0.140000          0.141618E-02
      0.145000          0.121957E-02
      0.150000          0.105431E-02
      0.155000          0.917226E-03
      0.160000          0.805031E-03
      0.165000          0.714429E-03
      0.170000          0.642195E-03
      0.175000          0.585251E-03
      0.180000          0.540725E-03
      0.185000          0.505994E-03
      0.190000          0.478722E-03
      0.195000          0.456880E-03
      0.200000          0.438751E-03
      0.205000          0.422931E-03
      0.210000          0.408313E-03
      0.215000          0.394074E-03
      0.220000          0.379642E-03
      0.225000          0.364668E-03
      0.230000          0.348991E-03
      0.235000          0.332605E-03
      0.240000          0.315622E-03
      0.245000          0.298240E-03
      0.250000          0.280710E-03
      0.255000          0.263310E-03
      0.260000          0.246320E-03
      0.265000          0.230005E-03
      0.270000          0.214595E-03
      0.275000          0.200281E-03
      0.280000          0.187202E-03
      0.285000          0.175447E-03
      0.290000          0.165051E-03
      0.295000          0.156004E-03
      0.300000          0.148252E-03
      0.305000          0.141706E-03
      0.310000          0.136249E-03
      0.315000          0.131747E-03
      0.320000          0.128054E-03
      0.325000          0.125020E-03
      0.330000          0.122503E-03
      0.335000          0.120367E-03
      0.340000          0.118493E-03
      0.345000          0.116781E-03
      0.350000          0.115149E-03
      0.355000          0.113538E-03
      0.360000          0.111908E-03
      0.365000          0.110238E-03
      0.370000          0.108523E-03
      0.375000          0.106775E-03
      0.380000          0.105012E-03
      0.385000          0.103264E-03
      0.390000          0.101563E-03
      0.395000          0.999402E-04
      0.400000          0.984277E-04
      0.405000          0.970519E-04
      0.410000          0.958333E-04
      0.415000          0.947852E-04
      0.420000          0.939127E-04
      0.425000          0.932126E-04
      0.430000          0.926738E-04
      0.435000          0.922779E-04
      0.440000          0.920007E-04
      0.445000          0.918131E-04
      0.450000          0.916830E-04
      0.455000          0.915767E-04
      0.460000          0.914609E-04
      0.465000          0.913039E-04
      0.470000          0.910770E-04
      0.475000          0.907560E-04
      0.480000          0.903218E-04
      0.485000          0.897610E-04
      0.490000          0.890667E-04
      0.495000          0.882380E-04
      0.500000          0.872802E-04
