 I_abs(s)[cm^-1]/c[mg/ml]
       0.00000          0.146957E-01
      0.500000E-02      0.146532E-01
      0.100000E-01      0.145262E-01
      0.150000E-01      0.143169E-01
      0.200000E-01      0.140283E-01
      0.250000E-01      0.136651E-01
      0.300000E-01      0.132327E-01
      0.350000E-01      0.127376E-01
      0.400000E-01      0.121873E-01
      0.450000E-01      0.115896E-01
      0.500000E-01      0.109530E-01
      0.550000E-01      0.102864E-01
      0.600000E-01      0.959864E-02
      0.650000E-01      0.889855E-02
      0.700000E-01      0.819476E-02
      0.750000E-01      0.749547E-02
      0.800000E-01      0.680838E-02
      0.850000E-01      0.614049E-02
      0.900000E-01      0.549806E-02
      0.950000E-01      0.488649E-02
      0.100000          0.431027E-02
      0.105000          0.377297E-02
      0.110000          0.327720E-02
      0.115000          0.282464E-02
      0.120000          0.241610E-02
      0.125000          0.205154E-02
      0.130000          0.173014E-02
      0.135000          0.145044E-02
      0.140000          0.121037E-02
      0.145000          0.100738E-02
      0.150000          0.838573E-03
      0.155000          0.700750E-03
      0.160000          0.590562E-03
      0.165000          0.504586E-03
      0.170000          0.439418E-03
      0.175000          0.391750E-03
      0.180000          0.358440E-03
      0.185000          0.336566E-03
      0.190000          0.323469E-03
      0.195000          0.316785E-03
      0.200000          0.314462E-03
      0.205000          0.314767E-03
      0.210000          0.316283E-03
      0.215000          0.317898E-03
      0.220000          0.318779E-03
      0.225000          0.318356E-03
      0.230000          0.316283E-03
      0.235000          0.312406E-03
      0.240000          0.306734E-03
      0.245000          0.299396E-03
      0.250000          0.290617E-03
      0.255000          0.280678E-03
      0.260000          0.269895E-03
      0.265000          0.258592E-03
      0.270000          0.247080E-03
      0.275000          0.235642E-03
      0.280000          0.224524E-03
      0.285000          0.213923E-03
      0.290000          0.203986E-03
      0.295000          0.194808E-03
      0.300000          0.186437E-03
      0.305000          0.178876E-03
      0.310000          0.172090E-03
      0.315000          0.166013E-03
      0.320000          0.160557E-03
      0.325000          0.155622E-03
      0.330000          0.151098E-03
      0.335000          0.146877E-03
      0.340000          0.142860E-03
      0.345000          0.138957E-03
      0.350000          0.135095E-03
      0.355000          0.131218E-03
      0.360000          0.127292E-03
      0.365000          0.123299E-03
      0.370000          0.119243E-03
      0.375000          0.115142E-03
      0.380000          0.111029E-03
      0.385000          0.106949E-03
      0.390000          0.102953E-03
      0.395000          0.990966E-04
      0.400000          0.954380E-04
      0.405000          0.920318E-04
      0.410000          0.889283E-04
      0.415000          0.861703E-04
      0.420000          0.837918E-04
      0.425000          0.818164E-04
      0.430000          0.802570E-04
      0.435000          0.791150E-04
      0.440000          0.783811E-04
      0.445000          0.780358E-04
      0.450000          0.780505E-04
      0.455000          0.783892E-04
      0.460000          0.790095E-04
      0.465000          0.798647E-04
      0.470000          0.809054E-04
      0.475000          0.820811E-04
      0.480000          0.833418E-04
      0.485000          0.846396E-04
      0.490000          0.859296E-04
      0.495000          0.871711E-04
      0.500000          0.883283E-04
