 I_abs(s)[cm^-1]/c[mg/ml]
       0.00000          0.147595E-01
      0.500000E-02      0.147167E-01
      0.100000E-01      0.145889E-01
      0.150000E-01      0.143784E-01
      0.200000E-01      0.140888E-01
      0.250000E-01      0.137252E-01
      0.300000E-01      0.132936E-01
      0.350000E-01      0.128012E-01
      0.400000E-01      0.122558E-01
      0.450000E-01      0.116661E-01
      0.500000E-01      0.110409E-01
      0.550000E-01      0.103892E-01
      0.600000E-01      0.971991E-02
      0.650000E-01      0.904171E-02
      0.700000E-01      0.836283E-02
      0.750000E-01      0.769089E-02
      0.800000E-01      0.703278E-02
      0.850000E-01      0.639459E-02
      0.900000E-01      0.578154E-02
      0.950000E-01      0.519792E-02
      0.100000          0.464714E-02
      0.105000          0.413172E-02
      0.110000          0.365333E-02
      0.115000          0.321287E-02
      0.120000          0.281055E-02
      0.125000          0.244595E-02
      0.130000          0.211811E-02
      0.135000          0.182566E-02
      0.140000          0.156685E-02
      0.145000          0.133967E-02
      0.150000          0.114194E-02
      0.155000          0.971312E-03
      0.160000          0.825417E-03
      0.165000          0.701856E-03
      0.170000          0.598270E-03
      0.175000          0.512367E-03
      0.180000          0.441955E-03
      0.185000          0.384964E-03
      0.190000          0.339457E-03
      0.195000          0.303650E-03
      0.200000          0.275912E-03
      0.205000          0.254773E-03
      0.210000          0.238923E-03
      0.215000          0.227211E-03
      0.220000          0.218639E-03
      0.225000          0.212358E-03
      0.230000          0.207660E-03
      0.235000          0.203968E-03
      0.240000          0.200822E-03
      0.245000          0.197876E-03
      0.250000          0.194875E-03
      0.255000          0.191651E-03
      0.260000          0.188105E-03
      0.265000          0.184197E-03
      0.270000          0.179932E-03
      0.275000          0.175351E-03
      0.280000          0.170517E-03
      0.285000          0.165510E-03
      0.290000          0.160415E-03
      0.295000          0.155318E-03
      0.300000          0.150301E-03
      0.305000          0.145438E-03
      0.310000          0.140788E-03
      0.315000          0.136402E-03
      0.320000          0.132316E-03
      0.325000          0.128550E-03
      0.330000          0.125117E-03
      0.335000          0.122015E-03
      0.340000          0.119233E-03
      0.345000          0.116755E-03
      0.350000          0.114557E-03
      0.355000          0.112611E-03
      0.360000          0.110886E-03
      0.365000          0.109351E-03
      0.370000          0.107974E-03
      0.375000          0.106727E-03
      0.380000          0.105581E-03
      0.385000          0.104513E-03
      0.390000          0.103500E-03
      0.395000          0.102525E-03
      0.400000          0.101576E-03
      0.405000          0.100642E-03
      0.410000          0.997198E-04
      0.415000          0.988061E-04
      0.420000          0.979029E-04
      0.425000          0.970142E-04
      0.430000          0.961464E-04
      0.435000          0.953072E-04
      0.440000          0.945052E-04
      0.445000          0.937491E-04
      0.450000          0.930469E-04
      0.455000          0.924055E-04
      0.460000          0.918300E-04
      0.465000          0.913234E-04
      0.470000          0.908861E-04
      0.475000          0.905159E-04
      0.480000          0.902078E-04
      0.485000          0.899541E-04
      0.490000          0.897450E-04
      0.495000          0.895686E-04
      0.500000          0.894116E-04
