 I_abs(s)[cm^-1]/c[mg/ml]
       0.00000          0.147835E-01
      0.500000E-02      0.147379E-01
      0.100000E-01      0.146019E-01
      0.150000E-01      0.143779E-01
      0.200000E-01      0.140697E-01
      0.250000E-01      0.136827E-01
      0.300000E-01      0.132233E-01
      0.350000E-01      0.126993E-01
      0.400000E-01      0.121191E-01
      0.450000E-01      0.114920E-01
      0.500000E-01      0.108277E-01
      0.550000E-01      0.101360E-01
      0.600000E-01      0.942684E-02
      0.650000E-01      0.870988E-02
      0.700000E-01      0.799432E-02
      0.750000E-01      0.728876E-02
      0.800000E-01      0.660103E-02
      0.850000E-01      0.593805E-02
      0.900000E-01      0.530576E-02
      0.950000E-01      0.470903E-02
      0.100000          0.415167E-02
      0.105000          0.363640E-02
      0.110000          0.316489E-02
      0.115000          0.273783E-02
      0.120000          0.235502E-02
      0.125000          0.201544E-02
      0.130000          0.171739E-02
      0.135000          0.145858E-02
      0.140000          0.123630E-02
      0.145000          0.104750E-02
      0.150000          0.888931E-03
      0.155000          0.757246E-03
      0.160000          0.649108E-03
      0.165000          0.561270E-03
      0.170000          0.490648E-03
      0.175000          0.434382E-03
      0.180000          0.389869E-03
      0.185000          0.354799E-03
      0.190000          0.327162E-03
      0.195000          0.305254E-03
      0.200000          0.287661E-03
      0.205000          0.273248E-03
      0.210000          0.261131E-03
      0.215000          0.250647E-03
      0.220000          0.241325E-03
      0.225000          0.232849E-03
      0.230000          0.225030E-03
      0.235000          0.217772E-03
      0.240000          0.211044E-03
      0.245000          0.204859E-03
      0.250000          0.199249E-03
      0.255000          0.194252E-03
      0.260000          0.189897E-03
      0.265000          0.186197E-03
      0.270000          0.183143E-03
      0.275000          0.180704E-03
      0.280000          0.178823E-03
      0.285000          0.177427E-03
      0.290000          0.176423E-03
      0.295000          0.175709E-03
      0.300000          0.175178E-03
      0.305000          0.174719E-03
      0.310000          0.174230E-03
      0.315000          0.173615E-03
      0.320000          0.172792E-03
      0.325000          0.171695E-03
      0.330000          0.170274E-03
      0.335000          0.168498E-03
      0.340000          0.166354E-03
      0.345000          0.163846E-03
      0.350000          0.160993E-03
      0.355000          0.157829E-03
      0.360000          0.154397E-03
      0.365000          0.150749E-03
      0.370000          0.146944E-03
      0.375000          0.143042E-03
      0.380000          0.139103E-03
      0.385000          0.135186E-03
      0.390000          0.131345E-03
      0.395000          0.127628E-03
      0.400000          0.124074E-03
      0.405000          0.120716E-03
      0.410000          0.117578E-03
      0.415000          0.114674E-03
      0.420000          0.112009E-03
      0.425000          0.109581E-03
      0.430000          0.107380E-03
      0.435000          0.105389E-03
      0.440000          0.103588E-03
      0.445000          0.101950E-03
      0.450000          0.100449E-03
      0.455000          0.990550E-04
      0.460000          0.977394E-04
      0.465000          0.964745E-04
      0.470000          0.952352E-04
      0.475000          0.939995E-04
      0.480000          0.927496E-04
      0.485000          0.914721E-04
      0.490000          0.901585E-04
      0.495000          0.888055E-04
      0.500000          0.874146E-04
