 I_abs(s)[cm^-1]/c[mg/ml]
       0.00000          0.145922E-01
      0.500000E-02      0.145436E-01
      0.100000E-01      0.143986E-01
      0.150000E-01      0.141601E-01
      0.200000E-01      0.138331E-01
      0.250000E-01      0.134238E-01
      0.300000E-01      0.129403E-01
      0.350000E-01      0.123917E-01
      0.400000E-01      0.117882E-01
      0.450000E-01      0.111406E-01
      0.500000E-01      0.104599E-01
      0.550000E-01      0.975750E-02
      0.600000E-01      0.904415E-02
      0.650000E-01      0.833027E-02
      0.700000E-01      0.762546E-02
      0.750000E-01      0.693835E-02
      0.800000E-01      0.627646E-02
      0.850000E-01      0.564609E-02
      0.900000E-01      0.505224E-02
      0.950000E-01      0.449862E-02
      0.100000          0.398772E-02
      0.105000          0.352081E-02
      0.110000          0.309811E-02
      0.115000          0.271888E-02
      0.120000          0.238156E-02
      0.125000          0.208399E-02
      0.130000          0.182347E-02
      0.135000          0.159698E-02
      0.140000          0.140133E-02
      0.145000          0.123321E-02
      0.150000          0.108939E-02
      0.155000          0.966744E-03
      0.160000          0.862363E-03
      0.165000          0.773572E-03
      0.170000          0.697974E-03
      0.175000          0.633461E-03
      0.180000          0.578210E-03
      0.185000          0.530674E-03
      0.190000          0.489552E-03
      0.195000          0.453772E-03
      0.200000          0.422453E-03
      0.205000          0.394877E-03
      0.210000          0.370460E-03
      0.215000          0.348725E-03
      0.220000          0.329277E-03
      0.225000          0.311787E-03
      0.230000          0.295976E-03
      0.235000          0.281604E-03
      0.240000          0.268462E-03
      0.245000          0.256369E-03
      0.250000          0.245167E-03
      0.255000          0.234723E-03
      0.260000          0.224925E-03
      0.265000          0.215686E-03
      0.270000          0.206940E-03
      0.275000          0.198639E-03
      0.280000          0.190757E-03
      0.285000          0.183282E-03
      0.290000          0.176215E-03
      0.295000          0.169567E-03
      0.300000          0.163352E-03
      0.305000          0.157586E-03
      0.310000          0.152284E-03
      0.315000          0.147455E-03
      0.320000          0.143100E-03
      0.325000          0.139211E-03
      0.330000          0.135773E-03
      0.335000          0.132758E-03
      0.340000          0.130132E-03
      0.345000          0.127854E-03
      0.350000          0.125878E-03
      0.355000          0.124154E-03
      0.360000          0.122633E-03
      0.365000          0.121265E-03
      0.370000          0.120007E-03
      0.375000          0.118818E-03
      0.380000          0.117665E-03
      0.385000          0.116520E-03
      0.390000          0.115364E-03
      0.395000          0.114183E-03
      0.400000          0.112972E-03
      0.405000          0.111729E-03
      0.410000          0.110457E-03
      0.415000          0.109163E-03
      0.420000          0.107855E-03
      0.425000          0.106542E-03
      0.430000          0.105234E-03
      0.435000          0.103940E-03
      0.440000          0.102664E-03
      0.445000          0.101413E-03
      0.450000          0.100189E-03
      0.455000          0.989919E-04
      0.460000          0.978207E-04
      0.465000          0.966723E-04
      0.470000          0.955430E-04
      0.475000          0.944285E-04
      0.480000          0.933246E-04
      0.485000          0.922276E-04
      0.490000          0.911349E-04
      0.495000          0.900453E-04
      0.500000          0.889592E-04
