 I_abs(s)[cm^-1]/c[mg/ml]
       0.00000          0.146877E-01
      0.500000E-02      0.146405E-01
      0.100000E-01      0.144996E-01
      0.150000E-01      0.142677E-01
      0.200000E-01      0.139490E-01
      0.250000E-01      0.135493E-01
      0.300000E-01      0.130757E-01
      0.350000E-01      0.125365E-01
      0.400000E-01      0.119410E-01
      0.450000E-01      0.112991E-01
      0.500000E-01      0.106210E-01
      0.550000E-01      0.991744E-02
      0.600000E-01      0.919870E-02
      0.650000E-01      0.847489E-02
      0.700000E-01      0.775555E-02
      0.750000E-01      0.704945E-02
      0.800000E-01      0.636446E-02
      0.850000E-01      0.570739E-02
      0.900000E-01      0.508395E-02
      0.950000E-01      0.449870E-02
      0.100000          0.395500E-02
      0.105000          0.345507E-02
      0.110000          0.300004E-02
      0.115000          0.259005E-02
      0.120000          0.222435E-02
      0.125000          0.190140E-02
      0.130000          0.161906E-02
      0.135000          0.137468E-02
      0.140000          0.116523E-02
      0.145000          0.987495E-03
      0.150000          0.838134E-03
      0.155000          0.713812E-03
      0.160000          0.611294E-03
      0.165000          0.527510E-03
      0.170000          0.459620E-03
      0.175000          0.405047E-03
      0.180000          0.361503E-03
      0.185000          0.326991E-03
      0.190000          0.299807E-03
      0.195000          0.278517E-03
      0.200000          0.261938E-03
      0.205000          0.249107E-03
      0.210000          0.239249E-03
      0.215000          0.231747E-03
      0.220000          0.226107E-03
      0.225000          0.221934E-03
      0.230000          0.218904E-03
      0.235000          0.216747E-03
      0.240000          0.215228E-03
      0.245000          0.214140E-03
      0.250000          0.213293E-03
      0.255000          0.212517E-03
      0.260000          0.211657E-03
      0.265000          0.210574E-03
      0.270000          0.209154E-03
      0.275000          0.207305E-03
      0.280000          0.204965E-03
      0.285000          0.202100E-03
      0.290000          0.198708E-03
      0.295000          0.194815E-03
      0.300000          0.190475E-03
      0.305000          0.185769E-03
      0.310000          0.180791E-03
      0.315000          0.175654E-03
      0.320000          0.170472E-03
      0.325000          0.165363E-03
      0.330000          0.160434E-03
      0.335000          0.155782E-03
      0.340000          0.151487E-03
      0.345000          0.147608E-03
      0.350000          0.144180E-03
      0.355000          0.141217E-03
      0.360000          0.138707E-03
      0.365000          0.136620E-03
      0.370000          0.134906E-03
      0.375000          0.133502E-03
      0.380000          0.132337E-03
      0.385000          0.131332E-03
      0.390000          0.130411E-03
      0.395000          0.129499E-03
      0.400000          0.128533E-03
      0.405000          0.127457E-03
      0.410000          0.126232E-03
      0.415000          0.124831E-03
      0.420000          0.123244E-03
      0.425000          0.121475E-03
      0.430000          0.119542E-03
      0.435000          0.117474E-03
      0.440000          0.115310E-03
      0.445000          0.113092E-03
      0.450000          0.110870E-03
      0.455000          0.108690E-03
      0.460000          0.106599E-03
      0.465000          0.104635E-03
      0.470000          0.102832E-03
      0.475000          0.101212E-03
      0.480000          0.997906E-04
      0.485000          0.985706E-04
      0.490000          0.975452E-04
      0.495000          0.966982E-04
      0.500000          0.960048E-04
