 I_abs(s)[cm^-1]/c[mg/ml]
       0.00000          0.146320E-01
      0.500000E-02      0.145880E-01
      0.100000E-01      0.144566E-01
      0.150000E-01      0.142402E-01
      0.200000E-01      0.139423E-01
      0.250000E-01      0.135679E-01
      0.300000E-01      0.131232E-01
      0.350000E-01      0.126155E-01
      0.400000E-01      0.120526E-01
      0.450000E-01      0.114435E-01
      0.500000E-01      0.107973E-01
      0.550000E-01      0.101233E-01
      0.600000E-01      0.943104E-02
      0.650000E-01      0.872972E-02
      0.700000E-01      0.802822E-02
      0.750000E-01      0.733485E-02
      0.800000E-01      0.665723E-02
      0.850000E-01      0.600216E-02
      0.900000E-01      0.537552E-02
      0.950000E-01      0.478222E-02
      0.100000          0.422615E-02
      0.105000          0.371019E-02
      0.110000          0.323624E-02
      0.115000          0.280525E-02
      0.120000          0.241730E-02
      0.125000          0.207169E-02
      0.130000          0.176702E-02
      0.135000          0.150134E-02
      0.140000          0.127222E-02
      0.145000          0.107689E-02
      0.150000          0.912348E-03
      0.155000          0.775449E-03
      0.160000          0.663017E-03
      0.165000          0.571921E-03
      0.170000          0.499148E-03
      0.175000          0.441858E-03
      0.180000          0.397431E-03
      0.185000          0.363495E-03
      0.190000          0.337944E-03
      0.195000          0.318945E-03
      0.200000          0.304934E-03
      0.205000          0.294607E-03
      0.210000          0.286895E-03
      0.215000          0.280949E-03
      0.220000          0.276109E-03
      0.225000          0.271880E-03
      0.230000          0.267904E-03
      0.235000          0.263932E-03
      0.240000          0.259805E-03
      0.245000          0.255428E-03
      0.250000          0.250754E-03
      0.255000          0.245771E-03
      0.260000          0.240487E-03
      0.265000          0.234924E-03
      0.270000          0.229111E-03
      0.275000          0.223081E-03
      0.280000          0.216869E-03
      0.285000          0.210512E-03
      0.290000          0.204046E-03
      0.295000          0.197512E-03
      0.300000          0.190954E-03
      0.305000          0.184418E-03
      0.310000          0.177955E-03
      0.315000          0.171620E-03
      0.320000          0.165469E-03
      0.325000          0.159562E-03
      0.330000          0.153957E-03
      0.335000          0.148709E-03
      0.340000          0.143870E-03
      0.345000          0.139482E-03
      0.350000          0.135580E-03
      0.355000          0.132188E-03
      0.360000          0.129317E-03
      0.365000          0.126965E-03
      0.370000          0.125116E-03
      0.375000          0.123741E-03
      0.380000          0.122800E-03
      0.385000          0.122240E-03
      0.390000          0.122001E-03
      0.395000          0.122014E-03
      0.400000          0.122208E-03
      0.405000          0.122508E-03
      0.410000          0.122843E-03
      0.415000          0.123141E-03
      0.420000          0.123340E-03
      0.425000          0.123383E-03
      0.430000          0.123224E-03
      0.435000          0.122825E-03
      0.440000          0.122162E-03
      0.445000          0.121220E-03
      0.450000          0.119998E-03
      0.455000          0.118504E-03
      0.460000          0.116757E-03
      0.465000          0.114782E-03
      0.470000          0.112615E-03
      0.475000          0.110294E-03
      0.480000          0.107863E-03
      0.485000          0.105364E-03
      0.490000          0.102843E-03
      0.495000          0.100342E-03
      0.500000          0.978994E-04
