 I_abs(s)[cm^-1]/c[mg/ml]
       0.00000          0.143864E-01
      0.500000E-02      0.143179E-01
      0.100000E-01      0.141149E-01
      0.150000E-01      0.137845E-01
      0.200000E-01      0.133383E-01
      0.250000E-01      0.127913E-01
      0.300000E-01      0.121613E-01
      0.350000E-01      0.114674E-01
      0.400000E-01      0.107296E-01
      0.450000E-01      0.996727E-02
      0.500000E-01      0.919835E-02
      0.550000E-01      0.843874E-02
      0.600000E-01      0.770175E-02
      0.650000E-01      0.699781E-02
      0.700000E-01      0.633448E-02
      0.750000E-01      0.571656E-02
      0.800000E-01      0.514644E-02
      0.850000E-01      0.462446E-02
      0.900000E-01      0.414941E-02
      0.950000E-01      0.371898E-02
      0.100000          0.333016E-02
      0.105000          0.297965E-02
      0.110000          0.266410E-02
      0.115000          0.238029E-02
      0.120000          0.212529E-02
      0.125000          0.189645E-02
      0.130000          0.169143E-02
      0.135000          0.150815E-02
      0.140000          0.134471E-02
      0.145000          0.119942E-02
      0.150000          0.107065E-02
      0.155000          0.956878E-03
      0.160000          0.856660E-03
      0.165000          0.768605E-03
      0.170000          0.691402E-03
      0.175000          0.623827E-03
      0.180000          0.564750E-03
      0.185000          0.513146E-03
      0.190000          0.468100E-03
      0.195000          0.428802E-03
      0.200000          0.394542E-03
      0.205000          0.364706E-03
      0.210000          0.338756E-03
      0.215000          0.316227E-03
      0.220000          0.296712E-03
      0.225000          0.279856E-03
      0.230000          0.265344E-03
      0.235000          0.252894E-03
      0.240000          0.242255E-03
      0.245000          0.233197E-03
      0.250000          0.225509E-03
      0.255000          0.218994E-03
      0.260000          0.213465E-03
      0.265000          0.208748E-03
      0.270000          0.204675E-03
      0.275000          0.201093E-03
      0.280000          0.197860E-03
      0.285000          0.194852E-03
      0.290000          0.191966E-03
      0.295000          0.189117E-03
      0.300000          0.186247E-03
      0.305000          0.183320E-03
      0.310000          0.180317E-03
      0.315000          0.177240E-03
      0.320000          0.174098E-03
      0.325000          0.170908E-03
      0.330000          0.167688E-03
      0.335000          0.164452E-03
      0.340000          0.161207E-03
      0.345000          0.157957E-03
      0.350000          0.154697E-03
      0.355000          0.151420E-03
      0.360000          0.148117E-03
      0.365000          0.144783E-03
      0.370000          0.141418E-03
      0.375000          0.138030E-03
      0.380000          0.134633E-03
      0.385000          0.131250E-03
      0.390000          0.127905E-03
      0.395000          0.124626E-03
      0.400000          0.121439E-03
      0.405000          0.118364E-03
      0.410000          0.115413E-03
      0.415000          0.112590E-03
      0.420000          0.109892E-03
      0.425000          0.107305E-03
      0.430000          0.104812E-03
      0.435000          0.102393E-03
      0.440000          0.100030E-03
      0.445000          0.977092E-04
      0.450000          0.954206E-04
      0.455000          0.931639E-04
      0.460000          0.909452E-04
      0.465000          0.887775E-04
      0.470000          0.866782E-04
      0.475000          0.846668E-04
      0.480000          0.827625E-04
      0.485000          0.809816E-04
      0.490000          0.793355E-04
      0.495000          0.778297E-04
      0.500000          0.764633E-04
