 I_abs(s)[cm^-1]/c[mg/ml]
       0.00000          0.145367E-01
      0.500000E-02      0.144919E-01
      0.100000E-01      0.143584E-01
      0.150000E-01      0.141385E-01
      0.200000E-01      0.138361E-01
      0.250000E-01      0.134565E-01
      0.300000E-01      0.130060E-01
      0.350000E-01      0.124924E-01
      0.400000E-01      0.119241E-01
      0.450000E-01      0.113102E-01
      0.500000E-01      0.106602E-01
      0.550000E-01      0.998401E-02
      0.600000E-01      0.929120E-02
      0.650000E-01      0.859128E-02
      0.700000E-01      0.789325E-02
      0.750000E-01      0.720547E-02
      0.800000E-01      0.653554E-02
      0.850000E-01      0.589012E-02
      0.900000E-01      0.527490E-02
      0.950000E-01      0.469452E-02
      0.100000          0.415254E-02
      0.105000          0.365147E-02
      0.110000          0.319282E-02
      0.115000          0.277713E-02
      0.120000          0.240409E-02
      0.125000          0.207263E-02
      0.130000          0.178102E-02
      0.135000          0.152702E-02
      0.140000          0.130798E-02
      0.145000          0.112099E-02
      0.150000          0.962927E-03
      0.155000          0.830644E-03
      0.160000          0.720999E-03
      0.165000          0.630959E-03
      0.170000          0.557656E-03
      0.175000          0.498435E-03
      0.180000          0.450887E-03
      0.185000          0.412871E-03
      0.190000          0.382513E-03
      0.195000          0.358212E-03
      0.200000          0.338619E-03
      0.205000          0.322622E-03
      0.210000          0.309323E-03
      0.215000          0.298008E-03
      0.220000          0.288122E-03
      0.225000          0.279241E-03
      0.230000          0.271049E-03
      0.235000          0.263312E-03
      0.240000          0.255862E-03
      0.245000          0.248577E-03
      0.250000          0.241374E-03
      0.255000          0.234192E-03
      0.260000          0.226993E-03
      0.265000          0.219754E-03
      0.270000          0.212464E-03
      0.275000          0.205126E-03
      0.280000          0.197755E-03
      0.285000          0.190378E-03
      0.290000          0.183035E-03
      0.295000          0.175776E-03
      0.300000          0.168665E-03
      0.305000          0.161771E-03
      0.310000          0.155172E-03
      0.315000          0.148949E-03
      0.320000          0.143181E-03
      0.325000          0.137944E-03
      0.330000          0.133305E-03
      0.335000          0.129320E-03
      0.340000          0.126028E-03
      0.345000          0.123453E-03
      0.350000          0.121598E-03
      0.355000          0.120446E-03
      0.360000          0.119958E-03
      0.365000          0.120079E-03
      0.370000          0.120732E-03
      0.375000          0.121827E-03
      0.380000          0.123263E-03
      0.385000          0.124928E-03
      0.390000          0.126706E-03
      0.395000          0.128482E-03
      0.400000          0.130143E-03
      0.405000          0.131583E-03
      0.410000          0.132707E-03
      0.415000          0.133433E-03
      0.420000          0.133694E-03
      0.425000          0.133442E-03
      0.430000          0.132646E-03
      0.435000          0.131294E-03
      0.440000          0.129392E-03
      0.445000          0.126964E-03
      0.450000          0.124049E-03
      0.455000          0.120701E-03
      0.460000          0.116987E-03
      0.465000          0.112980E-03
      0.470000          0.108763E-03
      0.475000          0.104422E-03
      0.480000          0.100043E-03
      0.485000          0.957103E-04
      0.490000          0.915063E-04
      0.495000          0.875051E-04
      0.500000          0.837731E-04
