 I_abs(s)[cm^-1]/c[mg/ml]
       0.00000          0.144971E-01
      0.500000E-02      0.144447E-01
      0.100000E-01      0.142888E-01
      0.150000E-01      0.140328E-01
      0.200000E-01      0.136819E-01
      0.250000E-01      0.132438E-01
      0.300000E-01      0.127273E-01
      0.350000E-01      0.121430E-01
      0.400000E-01      0.115023E-01
      0.450000E-01      0.108175E-01
      0.500000E-01      0.101010E-01
      0.550000E-01      0.936539E-02
      0.600000E-01      0.862270E-02
      0.650000E-01      0.788433E-02
      0.700000E-01      0.716070E-02
      0.750000E-01      0.646103E-02
      0.800000E-01      0.579318E-02
      0.850000E-01      0.516354E-02
      0.900000E-01      0.457698E-02
      0.950000E-01      0.403686E-02
      0.100000          0.354510E-02
      0.105000          0.310225E-02
      0.110000          0.270770E-02
      0.115000          0.235976E-02
      0.120000          0.205592E-02
      0.125000          0.179303E-02
      0.130000          0.156745E-02
      0.135000          0.137532E-02
      0.140000          0.121264E-02
      0.145000          0.107547E-02
      0.150000          0.960071E-03
      0.155000          0.862949E-03
      0.160000          0.780962E-03
      0.165000          0.711355E-03
      0.170000          0.651775E-03
      0.175000          0.600270E-03
      0.180000          0.555269E-03
      0.185000          0.515545E-03
      0.190000          0.480172E-03
      0.195000          0.448477E-03
      0.200000          0.419985E-03
      0.205000          0.394374E-03
      0.210000          0.371425E-03
      0.215000          0.350984E-03
      0.220000          0.332930E-03
      0.225000          0.317148E-03
      0.230000          0.303512E-03
      0.235000          0.291876E-03
      0.240000          0.282068E-03
      0.245000          0.273891E-03
      0.250000          0.267127E-03
      0.255000          0.261548E-03
      0.260000          0.256918E-03
      0.265000          0.253005E-03
      0.270000          0.249591E-03
      0.275000          0.246475E-03
      0.280000          0.243480E-03
      0.285000          0.240456E-03
      0.290000          0.237283E-03
      0.295000          0.233868E-03
      0.300000          0.230146E-03
      0.305000          0.226079E-03
      0.310000          0.221648E-03
      0.315000          0.216852E-03
      0.320000          0.211706E-03
      0.325000          0.206237E-03
      0.330000          0.200479E-03
      0.335000          0.194473E-03
      0.340000          0.188264E-03
      0.345000          0.181899E-03
      0.350000          0.175429E-03
      0.355000          0.168904E-03
      0.360000          0.162377E-03
      0.365000          0.155900E-03
      0.370000          0.149526E-03
      0.375000          0.143307E-03
      0.380000          0.137293E-03
      0.385000          0.131534E-03
      0.390000          0.126074E-03
      0.395000          0.120954E-03
      0.400000          0.116209E-03
      0.405000          0.111866E-03
      0.410000          0.107944E-03
      0.415000          0.104456E-03
      0.420000          0.101400E-03
      0.425000          0.987678E-04
      0.430000          0.965418E-04
      0.435000          0.946947E-04
      0.440000          0.931918E-04
      0.445000          0.919923E-04
      0.450000          0.910509E-04
      0.455000          0.903198E-04
      0.460000          0.897508E-04
      0.465000          0.892968E-04
      0.470000          0.889142E-04
      0.475000          0.885640E-04
      0.480000          0.882132E-04
      0.485000          0.878357E-04
      0.490000          0.874124E-04
      0.495000          0.869319E-04
      0.500000          0.863892E-04
