 I_abs(s)[cm^-1]/c[mg/ml]
       0.00000          0.148315E-01
      0.500000E-02      0.147845E-01
      0.100000E-01      0.146442E-01
      0.150000E-01      0.144131E-01
      0.200000E-01      0.140952E-01
      0.250000E-01      0.136961E-01
      0.300000E-01      0.132225E-01
      0.350000E-01      0.126824E-01
      0.400000E-01      0.120846E-01
      0.450000E-01      0.114388E-01
      0.500000E-01      0.107551E-01
      0.550000E-01      0.100437E-01
      0.600000E-01      0.931491E-02
      0.650000E-01      0.857888E-02
      0.700000E-01      0.784519E-02
      0.750000E-01      0.712283E-02
      0.800000E-01      0.641996E-02
      0.850000E-01      0.574383E-02
      0.900000E-01      0.510062E-02
      0.950000E-01      0.449542E-02
      0.100000          0.393217E-02
      0.105000          0.341368E-02
      0.110000          0.294165E-02
      0.115000          0.251673E-02
      0.120000          0.213861E-02
      0.125000          0.180612E-02
      0.130000          0.151736E-02
      0.135000          0.126981E-02
      0.140000          0.106048E-02
      0.145000          0.886015E-03
      0.150000          0.742861E-03
      0.155000          0.627358E-03
      0.160000          0.535855E-03
      0.165000          0.464806E-03
      0.170000          0.410848E-03
      0.175000          0.370863E-03
      0.180000          0.342027E-03
      0.185000          0.321837E-03
      0.190000          0.308125E-03
      0.195000          0.299062E-03
      0.200000          0.293148E-03
      0.205000          0.289189E-03
      0.210000          0.286270E-03
      0.215000          0.283724E-03
      0.220000          0.281095E-03
      0.225000          0.278100E-03
      0.230000          0.274594E-03
      0.235000          0.270534E-03
      0.240000          0.265952E-03
      0.245000          0.260921E-03
      0.250000          0.255539E-03
      0.255000          0.249910E-03
      0.260000          0.244127E-03
      0.265000          0.238268E-03
      0.270000          0.232389E-03
      0.275000          0.226525E-03
      0.280000          0.220690E-03
      0.285000          0.214878E-03
      0.290000          0.209072E-03
      0.295000          0.203250E-03
      0.300000          0.197384E-03
      0.305000          0.191452E-03
      0.310000          0.185439E-03
      0.315000          0.179340E-03
      0.320000          0.173165E-03
      0.325000          0.166935E-03
      0.330000          0.160686E-03
      0.335000          0.154466E-03
      0.340000          0.148333E-03
      0.345000          0.142350E-03
      0.350000          0.136586E-03
      0.355000          0.131108E-03
      0.360000          0.125983E-03
      0.365000          0.121266E-03
      0.370000          0.117009E-03
      0.375000          0.113247E-03
      0.380000          0.110005E-03
      0.385000          0.107294E-03
      0.390000          0.105110E-03
      0.395000          0.103435E-03
      0.400000          0.102238E-03
      0.405000          0.101480E-03
      0.410000          0.101110E-03
      0.415000          0.101069E-03
      0.420000          0.101297E-03
      0.425000          0.101730E-03
      0.430000          0.102302E-03
      0.435000          0.102954E-03
      0.440000          0.103627E-03
      0.445000          0.104270E-03
      0.450000          0.104839E-03
      0.455000          0.105299E-03
      0.460000          0.105621E-03
      0.465000          0.105788E-03
      0.470000          0.105790E-03
      0.475000          0.105626E-03
      0.480000          0.105301E-03
      0.485000          0.104828E-03
      0.490000          0.104225E-03
      0.495000          0.103514E-03
      0.500000          0.102718E-03
