 I_abs(s)[cm^-1]/c[mg/ml]
       0.00000          0.148315E-01
      0.500000E-02      0.147876E-01
      0.100000E-01      0.146566E-01
      0.150000E-01      0.144407E-01
      0.200000E-01      0.141434E-01
      0.250000E-01      0.137696E-01
      0.300000E-01      0.133251E-01
      0.350000E-01      0.128172E-01
      0.400000E-01      0.122535E-01
      0.450000E-01      0.116427E-01
      0.500000E-01      0.109937E-01
      0.550000E-01      0.103158E-01
      0.600000E-01      0.961807E-02
      0.650000E-01      0.890977E-02
      0.700000E-01      0.819964E-02
      0.750000E-01      0.749596E-02
      0.800000E-01      0.680633E-02
      0.850000E-01      0.613763E-02
      0.900000E-01      0.549583E-02
      0.950000E-01      0.488602E-02
      0.100000          0.431230E-02
      0.105000          0.377782E-02
      0.110000          0.328475E-02
      0.115000          0.283437E-02
      0.120000          0.242710E-02
      0.125000          0.206258E-02
      0.130000          0.173977E-02
      0.135000          0.145703E-02
      0.140000          0.121225E-02
      0.145000          0.100291E-02
      0.150000          0.826229E-03
      0.155000          0.679247E-03
      0.160000          0.558900E-03
      0.165000          0.462116E-03
      0.170000          0.385882E-03
      0.175000          0.327299E-03
      0.180000          0.283634E-03
      0.185000          0.252353E-03
      0.190000          0.231146E-03
      0.195000          0.217942E-03
      0.200000          0.210915E-03
      0.205000          0.208481E-03
      0.210000          0.209291E-03
      0.215000          0.212218E-03
      0.220000          0.216340E-03
      0.225000          0.220920E-03
      0.230000          0.225387E-03
      0.235000          0.229317E-03
      0.240000          0.232409E-03
      0.245000          0.234469E-03
      0.250000          0.235390E-03
      0.255000          0.235136E-03
      0.260000          0.233729E-03
      0.265000          0.231233E-03
      0.270000          0.227747E-03
      0.275000          0.223392E-03
      0.280000          0.218304E-03
      0.285000          0.212626E-03
      0.290000          0.206504E-03
      0.295000          0.200081E-03
      0.300000          0.193494E-03
      0.305000          0.186868E-03
      0.310000          0.180317E-03
      0.315000          0.173940E-03
      0.320000          0.167820E-03
      0.325000          0.162022E-03
      0.330000          0.156596E-03
      0.335000          0.151575E-03
      0.340000          0.146975E-03
      0.345000          0.142799E-03
      0.350000          0.139035E-03
      0.355000          0.135663E-03
      0.360000          0.132652E-03
      0.365000          0.129964E-03
      0.370000          0.127558E-03
      0.375000          0.125390E-03
      0.380000          0.123418E-03
      0.385000          0.121598E-03
      0.390000          0.119894E-03
      0.395000          0.118272E-03
      0.400000          0.116705E-03
      0.405000          0.115171E-03
      0.410000          0.113656E-03
      0.415000          0.112152E-03
      0.420000          0.110657E-03
      0.425000          0.109171E-03
      0.430000          0.107703E-03
      0.435000          0.106262E-03
      0.440000          0.104861E-03
      0.445000          0.103512E-03
      0.450000          0.102230E-03
      0.455000          0.101026E-03
      0.460000          0.999114E-04
      0.465000          0.988956E-04
      0.470000          0.979845E-04
      0.475000          0.971816E-04
      0.480000          0.964875E-04
      0.485000          0.958996E-04
      0.490000          0.954131E-04
      0.495000          0.950204E-04
      0.500000          0.947123E-04
