 I_abs(s)[cm^-1]/c[mg/ml]
       0.00000          0.142841E-01
      0.500000E-02      0.142263E-01
      0.100000E-01      0.140544E-01
      0.150000E-01      0.137733E-01
      0.200000E-01      0.133904E-01
      0.250000E-01      0.129160E-01
      0.300000E-01      0.123622E-01
      0.350000E-01      0.117428E-01
      0.400000E-01      0.110725E-01
      0.450000E-01      0.103663E-01
      0.500000E-01      0.963917E-02
      0.550000E-01      0.890506E-02
      0.600000E-01      0.817685E-02
      0.650000E-01      0.746585E-02
      0.700000E-01      0.678153E-02
      0.750000E-01      0.613143E-02
      0.800000E-01      0.552113E-02
      0.850000E-01      0.495433E-02
      0.900000E-01      0.443298E-02
      0.950000E-01      0.395753E-02
      0.100000          0.352716E-02
      0.105000          0.314008E-02
      0.110000          0.279381E-02
      0.115000          0.248541E-02
      0.120000          0.221171E-02
      0.125000          0.196953E-02
      0.130000          0.175575E-02
      0.135000          0.156747E-02
      0.140000          0.140203E-02
      0.145000          0.125702E-02
      0.150000          0.113027E-02
      0.155000          0.101986E-02
      0.160000          0.924018E-03
      0.165000          0.841143E-03
      0.170000          0.769734E-03
      0.175000          0.708381E-03
      0.180000          0.655746E-03
      0.185000          0.610562E-03
      0.190000          0.571633E-03
      0.195000          0.537854E-03
      0.200000          0.508219E-03
      0.205000          0.481839E-03
      0.210000          0.457954E-03
      0.215000          0.435943E-03
      0.220000          0.415317E-03
      0.225000          0.395719E-03
      0.230000          0.376912E-03
      0.235000          0.358755E-03
      0.240000          0.341187E-03
      0.245000          0.324204E-03
      0.250000          0.307836E-03
      0.255000          0.292130E-03
      0.260000          0.277132E-03
      0.265000          0.262878E-03
      0.270000          0.249387E-03
      0.275000          0.236661E-03
      0.280000          0.224681E-03
      0.285000          0.213421E-03
      0.290000          0.202841E-03
      0.295000          0.192905E-03
      0.300000          0.183576E-03
      0.305000          0.174828E-03
      0.310000          0.166639E-03
      0.315000          0.159002E-03
      0.320000          0.151911E-03
      0.325000          0.145370E-03
      0.330000          0.139380E-03
      0.335000          0.133944E-03
      0.340000          0.129055E-03
      0.345000          0.124701E-03
      0.350000          0.120860E-03
      0.355000          0.117503E-03
      0.360000          0.114590E-03
      0.365000          0.112076E-03
      0.370000          0.109913E-03
      0.375000          0.108051E-03
      0.380000          0.106440E-03
      0.385000          0.105033E-03
      0.390000          0.103786E-03
      0.395000          0.102662E-03
      0.400000          0.101625E-03
      0.405000          0.100645E-03
      0.410000          0.996935E-04
      0.415000          0.987448E-04
      0.420000          0.977743E-04
      0.425000          0.967590E-04
      0.430000          0.956770E-04
      0.435000          0.945087E-04
      0.440000          0.932377E-04
      0.445000          0.918524E-04
      0.450000          0.903473E-04
      0.455000          0.887240E-04
      0.460000          0.869930E-04
      0.465000          0.851732E-04
      0.470000          0.832919E-04
      0.475000          0.813837E-04
      0.480000          0.794889E-04
      0.485000          0.776507E-04
      0.490000          0.759127E-04
      0.495000          0.743158E-04
      0.500000          0.728953E-04
