 I_abs(s)[cm^-1]/c[mg/ml]
       0.00000          0.143391E-01
      0.500000E-02      0.142788E-01
      0.100000E-01      0.140995E-01
      0.150000E-01      0.138058E-01
      0.200000E-01      0.134052E-01
      0.250000E-01      0.129079E-01
      0.300000E-01      0.123261E-01
      0.350000E-01      0.116739E-01
      0.400000E-01      0.109664E-01
      0.450000E-01      0.102195E-01
      0.500000E-01      0.944896E-02
      0.550000E-01      0.867033E-02
      0.600000E-01      0.789800E-02
      0.650000E-01      0.714505E-02
      0.700000E-01      0.642280E-02
      0.750000E-01      0.574063E-02
      0.800000E-01      0.510577E-02
      0.850000E-01      0.452332E-02
      0.900000E-01      0.399624E-02
      0.950000E-01      0.352549E-02
      0.100000          0.311026E-02
      0.105000          0.274821E-02
      0.110000          0.243577E-02
      0.115000          0.216843E-02
      0.120000          0.194109E-02
      0.125000          0.174837E-02
      0.130000          0.158484E-02
      0.135000          0.144530E-02
      0.140000          0.132495E-02
      0.145000          0.121955E-02
      0.150000          0.112552E-02
      0.155000          0.103995E-02
      0.160000          0.960625E-03
      0.165000          0.886004E-03
      0.170000          0.815115E-03
      0.175000          0.747492E-03
      0.180000          0.683062E-03
      0.185000          0.622041E-03
      0.190000          0.564825E-03
      0.195000          0.511893E-03
      0.200000          0.463720E-03
      0.205000          0.420707E-03
      0.210000          0.383132E-03
      0.215000          0.351112E-03
      0.220000          0.324590E-03
      0.225000          0.303334E-03
      0.230000          0.286948E-03
      0.235000          0.274902E-03
      0.240000          0.266556E-03
      0.245000          0.261204E-03
      0.250000          0.258104E-03
      0.255000          0.256524E-03
      0.260000          0.255768E-03
      0.265000          0.255212E-03
      0.270000          0.254320E-03
      0.275000          0.252667E-03
      0.280000          0.249944E-03
      0.285000          0.245962E-03
      0.290000          0.240648E-03
      0.295000          0.234035E-03
      0.300000          0.226250E-03
      0.305000          0.217492E-03
      0.310000          0.208020E-03
      0.315000          0.198126E-03
      0.320000          0.188116E-03
      0.325000          0.178292E-03
      0.330000          0.168937E-03
      0.335000          0.160296E-03
      0.340000          0.152567E-03
      0.345000          0.145894E-03
      0.350000          0.140366E-03
      0.355000          0.136008E-03
      0.360000          0.132794E-03
      0.365000          0.130645E-03
      0.370000          0.129442E-03
      0.375000          0.129030E-03
      0.380000          0.129236E-03
      0.385000          0.129870E-03
      0.390000          0.130743E-03
      0.395000          0.131674E-03
      0.400000          0.132495E-03
      0.405000          0.133064E-03
      0.410000          0.133262E-03
      0.415000          0.133003E-03
      0.420000          0.132230E-03
      0.425000          0.130916E-03
      0.430000          0.129064E-03
      0.435000          0.126702E-03
      0.440000          0.123880E-03
      0.445000          0.120665E-03
      0.450000          0.117137E-03
      0.455000          0.113385E-03
      0.460000          0.109502E-03
      0.465000          0.105580E-03
      0.470000          0.101709E-03
      0.475000          0.979722E-04
      0.480000          0.944433E-04
      0.485000          0.911862E-04
      0.490000          0.882522E-04
      0.495000          0.856794E-04
      0.500000          0.834920E-04
