 I_abs(s)[cm^-1]/c[mg/ml]
       0.00000          0.144812E-01
      0.500000E-02      0.144333E-01
      0.100000E-01      0.142904E-01
      0.150000E-01      0.140554E-01
      0.200000E-01      0.137325E-01
      0.250000E-01      0.133278E-01
      0.300000E-01      0.128488E-01
      0.350000E-01      0.123041E-01
      0.400000E-01      0.117032E-01
      0.450000E-01      0.110566E-01
      0.500000E-01      0.103749E-01
      0.550000E-01      0.966900E-02
      0.600000E-01      0.894966E-02
      0.650000E-01      0.822725E-02
      0.700000E-01      0.751155E-02
      0.750000E-01      0.681149E-02
      0.800000E-01      0.613507E-02
      0.850000E-01      0.548917E-02
      0.900000E-01      0.487945E-02
      0.950000E-01      0.431039E-02
      0.100000          0.378518E-02
      0.105000          0.330585E-02
      0.110000          0.287325E-02
      0.115000          0.248720E-02
      0.120000          0.214659E-02
      0.125000          0.184952E-02
      0.130000          0.159342E-02
      0.135000          0.137523E-02
      0.140000          0.119153E-02
      0.145000          0.103868E-02
      0.150000          0.912936E-03
      0.155000          0.810610E-03
      0.160000          0.728129E-03
      0.165000          0.662131E-03
      0.170000          0.609526E-03
      0.175000          0.567546E-03
      0.180000          0.533762E-03
      0.185000          0.506103E-03
      0.190000          0.482850E-03
      0.195000          0.462618E-03
      0.200000          0.444336E-03
      0.205000          0.427210E-03
      0.210000          0.410690E-03
      0.215000          0.394431E-03
      0.220000          0.378252E-03
      0.225000          0.362101E-03
      0.230000          0.346018E-03
      0.235000          0.330105E-03
      0.240000          0.314496E-03
      0.245000          0.299342E-03
      0.250000          0.284784E-03
      0.255000          0.270949E-03
      0.260000          0.257936E-03
      0.265000          0.245815E-03
      0.270000          0.234621E-03
      0.275000          0.224360E-03
      0.280000          0.215009E-03
      0.285000          0.206523E-03
      0.290000          0.198836E-03
      0.295000          0.191873E-03
      0.300000          0.185547E-03
      0.305000          0.179772E-03
      0.310000          0.174464E-03
      0.315000          0.169543E-03
      0.320000          0.164938E-03
      0.325000          0.160590E-03
      0.330000          0.156448E-03
      0.335000          0.152476E-03
      0.340000          0.148645E-03
      0.345000          0.144941E-03
      0.350000          0.141353E-03
      0.355000          0.137881E-03
      0.360000          0.134530E-03
      0.365000          0.131306E-03
      0.370000          0.128217E-03
      0.375000          0.125274E-03
      0.380000          0.122483E-03
      0.385000          0.119850E-03
      0.390000          0.117377E-03
      0.395000          0.115064E-03
      0.400000          0.112904E-03
      0.405000          0.110892E-03
      0.410000          0.109014E-03
      0.415000          0.107257E-03
      0.420000          0.105607E-03
      0.425000          0.104047E-03
      0.430000          0.102559E-03
      0.435000          0.101130E-03
      0.440000          0.997430E-04
      0.445000          0.983871E-04
      0.450000          0.970520E-04
      0.455000          0.957306E-04
      0.460000          0.944187E-04
      0.465000          0.931153E-04
      0.470000          0.918220E-04
      0.475000          0.905429E-04
      0.480000          0.892842E-04
      0.485000          0.880537E-04
      0.490000          0.868600E-04
      0.495000          0.857122E-04
      0.500000          0.846192E-04
