 I_abs(s)[cm^-1]/c[mg/ml]
       0.00000          0.147116E-01
      0.500000E-02      0.146623E-01
      0.100000E-01      0.145155E-01
      0.150000E-01      0.142740E-01
      0.200000E-01      0.139430E-01
      0.250000E-01      0.135289E-01
      0.300000E-01      0.130400E-01
      0.350000E-01      0.124857E-01
      0.400000E-01      0.118762E-01
      0.450000E-01      0.112226E-01
      0.500000E-01      0.105361E-01
      0.550000E-01      0.982784E-02
      0.600000E-01      0.910873E-02
      0.650000E-01      0.838903E-02
      0.700000E-01      0.767817E-02
      0.750000E-01      0.698457E-02
      0.800000E-01      0.631551E-02
      0.850000E-01      0.567704E-02
      0.900000E-01      0.507395E-02
      0.950000E-01      0.450979E-02
      0.100000          0.398694E-02
      0.105000          0.350667E-02
      0.110000          0.306927E-02
      0.115000          0.267417E-02
      0.120000          0.232013E-02
      0.125000          0.200530E-02
      0.130000          0.172745E-02
      0.135000          0.148402E-02
      0.140000          0.127231E-02
      0.145000          0.108950E-02
      0.150000          0.932823E-03
      0.155000          0.799546E-03
      0.160000          0.687069E-03
      0.165000          0.592942E-03
      0.170000          0.514883E-03
      0.175000          0.450794E-03
      0.180000          0.398754E-03
      0.185000          0.357025E-03
      0.190000          0.324036E-03
      0.195000          0.298378E-03
      0.200000          0.278795E-03
      0.205000          0.264169E-03
      0.210000          0.253515E-03
      0.215000          0.245972E-03
      0.220000          0.240795E-03
      0.225000          0.237348E-03
      0.230000          0.235095E-03
      0.235000          0.233594E-03
      0.240000          0.232490E-03
      0.245000          0.231505E-03
      0.250000          0.230431E-03
      0.255000          0.229119E-03
      0.260000          0.227472E-03
      0.265000          0.225431E-03
      0.270000          0.222975E-03
      0.275000          0.220104E-03
      0.280000          0.216837E-03
      0.285000          0.213206E-03
      0.290000          0.209251E-03
      0.295000          0.205015E-03
      0.300000          0.200544E-03
      0.305000          0.195884E-03
      0.310000          0.191084E-03
      0.315000          0.186190E-03
      0.320000          0.181250E-03
      0.325000          0.176312E-03
      0.330000          0.171425E-03
      0.335000          0.166636E-03
      0.340000          0.161994E-03
      0.345000          0.157540E-03
      0.350000          0.153317E-03
      0.355000          0.149359E-03
      0.360000          0.145693E-03
      0.365000          0.142337E-03
      0.370000          0.139301E-03
      0.375000          0.136582E-03
      0.380000          0.134168E-03
      0.385000          0.132034E-03
      0.390000          0.130149E-03
      0.395000          0.128473E-03
      0.400000          0.126958E-03
      0.405000          0.125556E-03
      0.410000          0.124218E-03
      0.415000          0.122894E-03
      0.420000          0.121542E-03
      0.425000          0.120123E-03
      0.430000          0.118607E-03
      0.435000          0.116975E-03
      0.440000          0.115214E-03
      0.445000          0.113323E-03
      0.450000          0.111311E-03
      0.455000          0.109191E-03
      0.460000          0.106988E-03
      0.465000          0.104727E-03
      0.470000          0.102440E-03
      0.475000          0.100158E-03
      0.480000          0.979133E-04
      0.485000          0.957340E-04
      0.490000          0.936462E-04
      0.495000          0.916713E-04
      0.500000          0.898253E-04
