 I_abs(s)[cm^-1]/c[mg/ml]
       0.00000          0.146877E-01
      0.500000E-02      0.146413E-01
      0.100000E-01      0.145030E-01
      0.150000E-01      0.142753E-01
      0.200000E-01      0.139621E-01
      0.250000E-01      0.135690E-01
      0.300000E-01      0.131029E-01
      0.350000E-01      0.125716E-01
      0.400000E-01      0.119842E-01
      0.450000E-01      0.113501E-01
      0.500000E-01      0.106793E-01
      0.550000E-01      0.998221E-02
      0.600000E-01      0.926892E-02
      0.650000E-01      0.854938E-02
      0.700000E-01      0.783304E-02
      0.750000E-01      0.712868E-02
      0.800000E-01      0.644423E-02
      0.850000E-01      0.578667E-02
      0.900000E-01      0.516192E-02
      0.950000E-01      0.457477E-02
      0.100000          0.402887E-02
      0.105000          0.352674E-02
      0.110000          0.306982E-02
      0.115000          0.265851E-02
      0.120000          0.229228E-02
      0.125000          0.196979E-02
      0.130000          0.168901E-02
      0.135000          0.144731E-02
      0.140000          0.124167E-02
      0.145000          0.106875E-02
      0.150000          0.925042E-03
      0.155000          0.806977E-03
      0.160000          0.711042E-03
      0.165000          0.633856E-03
      0.170000          0.572247E-03
      0.175000          0.523309E-03
      0.180000          0.484439E-03
      0.185000          0.453358E-03
      0.190000          0.428125E-03
      0.195000          0.407129E-03
      0.200000          0.389072E-03
      0.205000          0.372950E-03
      0.210000          0.358017E-03
      0.215000          0.343755E-03
      0.220000          0.329835E-03
      0.225000          0.316082E-03
      0.230000          0.302437E-03
      0.235000          0.288927E-03
      0.240000          0.275633E-03
      0.245000          0.262668E-03
      0.250000          0.250155E-03
      0.255000          0.238209E-03
      0.260000          0.226932E-03
      0.265000          0.216398E-03
      0.270000          0.206655E-03
      0.275000          0.197723E-03
      0.280000          0.189593E-03
      0.285000          0.182234E-03
      0.290000          0.175596E-03
      0.295000          0.169613E-03
      0.300000          0.164212E-03
      0.305000          0.159316E-03
      0.310000          0.154847E-03
      0.315000          0.150732E-03
      0.320000          0.146903E-03
      0.325000          0.143301E-03
      0.330000          0.139878E-03
      0.335000          0.136595E-03
      0.340000          0.133422E-03
      0.345000          0.130339E-03
      0.350000          0.127335E-03
      0.355000          0.124404E-03
      0.360000          0.121549E-03
      0.365000          0.118775E-03
      0.370000          0.116091E-03
      0.375000          0.113510E-03
      0.380000          0.111045E-03
      0.385000          0.108710E-03
      0.390000          0.106521E-03
      0.395000          0.104493E-03
      0.400000          0.102639E-03
      0.405000          0.100973E-03
      0.410000          0.995080E-04
      0.415000          0.982534E-04
      0.420000          0.972182E-04
      0.425000          0.964088E-04
      0.430000          0.958287E-04
      0.435000          0.954786E-04
      0.440000          0.953555E-04
      0.445000          0.954527E-04
      0.450000          0.957597E-04
      0.455000          0.962613E-04
      0.460000          0.969385E-04
      0.465000          0.977678E-04
      0.470000          0.987220E-04
      0.475000          0.997701E-04
      0.480000          0.100878E-03
      0.485000          0.102010E-03
      0.490000          0.103128E-03
      0.495000          0.104192E-03
      0.500000          0.105166E-03
