 I_abs(s)[cm^-1]/c[mg/ml]
       0.00000          0.147755E-01
      0.500000E-02      0.147291E-01
      0.100000E-01      0.145905E-01
      0.150000E-01      0.143624E-01
      0.200000E-01      0.140489E-01
      0.250000E-01      0.136555E-01
      0.300000E-01      0.131892E-01
      0.350000E-01      0.126580E-01
      0.400000E-01      0.120709E-01
      0.450000E-01      0.114375E-01
      0.500000E-01      0.107680E-01
      0.550000E-01      0.100725E-01
      0.600000E-01      0.936127E-02
      0.650000E-01      0.864407E-02
      0.700000E-01      0.793028E-02
      0.750000E-01      0.722849E-02
      0.800000E-01      0.654646E-02
      0.850000E-01      0.589096E-02
      0.900000E-01      0.526766E-02
      0.950000E-01      0.468115E-02
      0.100000          0.413485E-02
      0.105000          0.363110E-02
      0.110000          0.317118E-02
      0.115000          0.275539E-02
      0.120000          0.238316E-02
      0.125000          0.205315E-02
      0.130000          0.176339E-02
      0.135000          0.151142E-02
      0.140000          0.129439E-02
      0.145000          0.110918E-02
      0.150000          0.952589E-03
      0.155000          0.821341E-03
      0.160000          0.712244E-03
      0.165000          0.622241E-03
      0.170000          0.548471E-03
      0.175000          0.488314E-03
      0.180000          0.439418E-03
      0.185000          0.399713E-03
      0.190000          0.367415E-03
      0.195000          0.341015E-03
      0.200000          0.319262E-03
      0.205000          0.301142E-03
      0.210000          0.285849E-03
      0.215000          0.272759E-03
      0.220000          0.261397E-03
      0.225000          0.251412E-03
      0.230000          0.242548E-03
      0.235000          0.234621E-03
      0.240000          0.227498E-03
      0.245000          0.221084E-03
      0.250000          0.215302E-03
      0.255000          0.210090E-03
      0.260000          0.205388E-03
      0.265000          0.201141E-03
      0.270000          0.197287E-03
      0.275000          0.193765E-03
      0.280000          0.190514E-03
      0.285000          0.187470E-03
      0.290000          0.184573E-03
      0.295000          0.181766E-03
      0.300000          0.178999E-03
      0.305000          0.176227E-03
      0.310000          0.173416E-03
      0.315000          0.170538E-03
      0.320000          0.167578E-03
      0.325000          0.164526E-03
      0.330000          0.161384E-03
      0.335000          0.158160E-03
      0.340000          0.154867E-03
      0.345000          0.151526E-03
      0.350000          0.148161E-03
      0.355000          0.144799E-03
      0.360000          0.141466E-03
      0.365000          0.138191E-03
      0.370000          0.135000E-03
      0.375000          0.131918E-03
      0.380000          0.128966E-03
      0.385000          0.126162E-03
      0.390000          0.123521E-03
      0.395000          0.121051E-03
      0.400000          0.118757E-03
      0.405000          0.116641E-03
      0.410000          0.114699E-03
      0.415000          0.112923E-03
      0.420000          0.111304E-03
      0.425000          0.109829E-03
      0.430000          0.108483E-03
      0.435000          0.107251E-03
      0.440000          0.106116E-03
      0.445000          0.105062E-03
      0.450000          0.104075E-03
      0.455000          0.103139E-03
      0.460000          0.102243E-03
      0.465000          0.101375E-03
      0.470000          0.100527E-03
      0.475000          0.996921E-04
      0.480000          0.988638E-04
      0.485000          0.980383E-04
      0.490000          0.972125E-04
      0.495000          0.963838E-04
      0.500000          0.955501E-04
