 I_abs(s)[cm^-1]/c[mg/ml]
       0.00000          0.146798E-01
      0.500000E-02      0.146299E-01
      0.100000E-01      0.144816E-01
      0.150000E-01      0.142379E-01
      0.200000E-01      0.139038E-01
      0.250000E-01      0.134865E-01
      0.300000E-01      0.129942E-01
      0.350000E-01      0.124369E-01
      0.400000E-01      0.118251E-01
      0.450000E-01      0.111703E-01
      0.500000E-01      0.104839E-01
      0.550000E-01      0.977742E-02
      0.600000E-01      0.906202E-02
      0.650000E-01      0.834809E-02
      0.700000E-01      0.764513E-02
      0.750000E-01      0.696153E-02
      0.800000E-01      0.630445E-02
      0.850000E-01      0.567974E-02
      0.900000E-01      0.509190E-02
      0.950000E-01      0.454415E-02
      0.100000          0.403842E-02
      0.105000          0.357555E-02
      0.110000          0.315534E-02
      0.115000          0.277675E-02
      0.120000          0.243806E-02
      0.125000          0.213699E-02
      0.130000          0.187091E-02
      0.135000          0.163694E-02
      0.140000          0.143211E-02
      0.145000          0.125344E-02
      0.150000          0.109805E-02
      0.155000          0.963198E-03
      0.160000          0.846376E-03
      0.165000          0.745290E-03
      0.170000          0.657894E-03
      0.175000          0.582387E-03
      0.180000          0.517201E-03
      0.185000          0.460985E-03
      0.190000          0.412582E-03
      0.195000          0.371004E-03
      0.200000          0.335405E-03
      0.205000          0.305061E-03
      0.210000          0.279348E-03
      0.215000          0.257718E-03
      0.220000          0.239688E-03
      0.225000          0.224826E-03
      0.230000          0.212738E-03
      0.235000          0.203064E-03
      0.240000          0.195470E-03
      0.245000          0.189645E-03
      0.250000          0.185301E-03
      0.255000          0.182167E-03
      0.260000          0.179996E-03
      0.265000          0.178558E-03
      0.270000          0.177646E-03
      0.275000          0.177075E-03
      0.280000          0.176682E-03
      0.285000          0.176329E-03
      0.290000          0.175901E-03
      0.295000          0.175308E-03
      0.300000          0.174481E-03
      0.305000          0.173378E-03
      0.310000          0.171975E-03
      0.315000          0.170268E-03
      0.320000          0.168269E-03
      0.325000          0.166005E-03
      0.330000          0.163512E-03
      0.335000          0.160836E-03
      0.340000          0.158023E-03
      0.345000          0.155122E-03
      0.350000          0.152179E-03
      0.355000          0.149237E-03
      0.360000          0.146330E-03
      0.365000          0.143485E-03
      0.370000          0.140722E-03
      0.375000          0.138051E-03
      0.380000          0.135475E-03
      0.385000          0.132989E-03
      0.390000          0.130584E-03
      0.395000          0.128247E-03
      0.400000          0.125964E-03
      0.405000          0.123719E-03
      0.410000          0.121501E-03
      0.415000          0.119299E-03
      0.420000          0.117110E-03
      0.425000          0.114932E-03
      0.430000          0.112772E-03
      0.435000          0.110640E-03
      0.440000          0.108553E-03
      0.445000          0.106528E-03
      0.450000          0.104588E-03
      0.455000          0.102755E-03
      0.460000          0.101051E-03
      0.465000          0.994973E-04
      0.470000          0.981089E-04
      0.475000          0.968982E-04
      0.480000          0.958711E-04
      0.485000          0.950274E-04
      0.490000          0.943600E-04
      0.495000          0.938554E-04
      0.500000          0.934936E-04
