 I_abs(s)[cm^-1]/c[mg/ml]
       0.00000          0.146638E-01
      0.500000E-02      0.146179E-01
      0.100000E-01      0.144811E-01
      0.150000E-01      0.142560E-01
      0.200000E-01      0.139466E-01
      0.250000E-01      0.135586E-01
      0.300000E-01      0.130989E-01
      0.350000E-01      0.125755E-01
      0.400000E-01      0.119974E-01
      0.450000E-01      0.113741E-01
      0.500000E-01      0.107155E-01
      0.550000E-01      0.100315E-01
      0.600000E-01      0.933202E-02
      0.650000E-01      0.862657E-02
      0.700000E-01      0.792406E-02
      0.750000E-01      0.723268E-02
      0.800000E-01      0.655974E-02
      0.850000E-01      0.591159E-02
      0.900000E-01      0.529355E-02
      0.950000E-01      0.470988E-02
      0.100000          0.416383E-02
      0.105000          0.365760E-02
      0.110000          0.319250E-02
      0.115000          0.276897E-02
      0.120000          0.238669E-02
      0.125000          0.204470E-02
      0.130000          0.174149E-02
      0.135000          0.147515E-02
      0.140000          0.124341E-02
      0.145000          0.104378E-02
      0.150000          0.873650E-03
      0.155000          0.730313E-03
      0.160000          0.611074E-03
      0.165000          0.513283E-03
      0.170000          0.434380E-03
      0.175000          0.371928E-03
      0.180000          0.323635E-03
      0.185000          0.287368E-03
      0.190000          0.261165E-03
      0.195000          0.243239E-03
      0.200000          0.231979E-03
      0.205000          0.225948E-03
      0.210000          0.223879E-03
      0.215000          0.224671E-03
      0.220000          0.227378E-03
      0.225000          0.231206E-03
      0.230000          0.235501E-03
      0.235000          0.239738E-03
      0.240000          0.243511E-03
      0.245000          0.246522E-03
      0.250000          0.248570E-03
      0.255000          0.249534E-03
      0.260000          0.249364E-03
      0.265000          0.248068E-03
      0.270000          0.245698E-03
      0.275000          0.242342E-03
      0.280000          0.238108E-03
      0.285000          0.233123E-03
      0.290000          0.227518E-03
      0.295000          0.221426E-03
      0.300000          0.214974E-03
      0.305000          0.208284E-03
      0.310000          0.201464E-03
      0.315000          0.194614E-03
      0.320000          0.187822E-03
      0.325000          0.181162E-03
      0.330000          0.174698E-03
      0.335000          0.168485E-03
      0.340000          0.162567E-03
      0.345000          0.156980E-03
      0.350000          0.151751E-03
      0.355000          0.146900E-03
      0.360000          0.142437E-03
      0.365000          0.138368E-03
      0.370000          0.134690E-03
      0.375000          0.131390E-03
      0.380000          0.128452E-03
      0.385000          0.125850E-03
      0.390000          0.123555E-03
      0.395000          0.121530E-03
      0.400000          0.119738E-03
      0.405000          0.118135E-03
      0.410000          0.116679E-03
      0.415000          0.115330E-03
      0.420000          0.114048E-03
      0.425000          0.112798E-03
      0.430000          0.111552E-03
      0.435000          0.110287E-03
      0.440000          0.108987E-03
      0.445000          0.107645E-03
      0.450000          0.106262E-03
      0.455000          0.104843E-03
      0.460000          0.103403E-03
      0.465000          0.101959E-03
      0.470000          0.100534E-03
      0.475000          0.991510E-04
      0.480000          0.978350E-04
      0.485000          0.966086E-04
      0.490000          0.954919E-04
      0.495000          0.945011E-04
      0.500000          0.936468E-04
