 I_abs(s)[cm^-1]/c[mg/ml]
       0.00000          0.143628E-01
      0.500000E-02      0.143024E-01
      0.100000E-01      0.141228E-01
      0.150000E-01      0.138288E-01
      0.200000E-01      0.134279E-01
      0.250000E-01      0.129305E-01
      0.300000E-01      0.123488E-01
      0.350000E-01      0.116969E-01
      0.400000E-01      0.109900E-01
      0.450000E-01      0.102436E-01
      0.500000E-01      0.947344E-02
      0.550000E-01      0.869438E-02
      0.600000E-01      0.792044E-02
      0.650000E-01      0.716415E-02
      0.700000E-01      0.643634E-02
      0.750000E-01      0.574594E-02
      0.800000E-01      0.509992E-02
      0.850000E-01      0.450324E-02
      0.900000E-01      0.395899E-02
      0.950000E-01      0.346852E-02
      0.100000          0.303164E-02
      0.105000          0.264685E-02
      0.110000          0.231162E-02
      0.115000          0.202260E-02
      0.120000          0.177585E-02
      0.125000          0.156714E-02
      0.130000          0.139203E-02
      0.135000          0.124611E-02
      0.140000          0.112510E-02
      0.145000          0.102496E-02
      0.150000          0.941958E-03
      0.155000          0.872715E-03
      0.160000          0.814250E-03
      0.165000          0.763984E-03
      0.170000          0.719751E-03
      0.175000          0.679780E-03
      0.180000          0.642684E-03
      0.185000          0.607432E-03
      0.190000          0.573320E-03
      0.195000          0.539929E-03
      0.200000          0.507091E-03
      0.205000          0.474835E-03
      0.210000          0.443344E-03
      0.215000          0.412907E-03
      0.220000          0.383870E-03
      0.225000          0.356595E-03
      0.230000          0.331417E-03
      0.235000          0.308619E-03
      0.240000          0.288404E-03
      0.245000          0.270880E-03
      0.250000          0.256057E-03
      0.255000          0.243848E-03
      0.260000          0.234075E-03
      0.265000          0.226488E-03
      0.270000          0.220785E-03
      0.275000          0.216624E-03
      0.280000          0.213656E-03
      0.285000          0.211533E-03
      0.290000          0.209932E-03
      0.295000          0.208564E-03
      0.300000          0.207184E-03
      0.305000          0.205597E-03
      0.310000          0.203656E-03
      0.315000          0.201263E-03
      0.320000          0.198364E-03
      0.325000          0.194941E-03
      0.330000          0.191007E-03
      0.335000          0.186598E-03
      0.340000          0.181769E-03
      0.345000          0.176585E-03
      0.350000          0.171117E-03
      0.355000          0.165439E-03
      0.360000          0.159624E-03
      0.365000          0.153743E-03
      0.370000          0.147862E-03
      0.375000          0.142041E-03
      0.380000          0.136334E-03
      0.385000          0.130787E-03
      0.390000          0.125440E-03
      0.395000          0.120326E-03
      0.400000          0.115470E-03
      0.405000          0.110893E-03
      0.410000          0.106611E-03
      0.415000          0.102634E-03
      0.420000          0.989719E-04
      0.425000          0.956301E-04
      0.430000          0.926148E-04
      0.435000          0.899309E-04
      0.440000          0.875829E-04
      0.445000          0.855742E-04
      0.450000          0.839065E-04
      0.455000          0.825785E-04
      0.460000          0.815848E-04
      0.465000          0.809143E-04
      0.470000          0.805495E-04
      0.475000          0.804653E-04
      0.480000          0.806297E-04
      0.485000          0.810032E-04
      0.490000          0.815410E-04
      0.495000          0.821942E-04
      0.500000          0.829122E-04
