 I_abs(s)[cm^-1]/c[mg/ml]
       0.00000          0.146240E-01
      0.500000E-02      0.145826E-01
      0.100000E-01      0.144588E-01
      0.150000E-01      0.142546E-01
      0.200000E-01      0.139732E-01
      0.250000E-01      0.136185E-01
      0.300000E-01      0.131961E-01
      0.350000E-01      0.127120E-01
      0.400000E-01      0.121732E-01
      0.450000E-01      0.115873E-01
      0.500000E-01      0.109626E-01
      0.550000E-01      0.103073E-01
      0.600000E-01      0.963012E-02
      0.650000E-01      0.893954E-02
      0.700000E-01      0.824394E-02
      0.750000E-01      0.755134E-02
      0.800000E-01      0.686930E-02
      0.850000E-01      0.620474E-02
      0.900000E-01      0.556392E-02
      0.950000E-01      0.495227E-02
      0.100000          0.437440E-02
      0.105000          0.383402E-02
      0.110000          0.333395E-02
      0.115000          0.287609E-02
      0.120000          0.246150E-02
      0.125000          0.209039E-02
      0.130000          0.176223E-02
      0.135000          0.147578E-02
      0.140000          0.122922E-02
      0.145000          0.102021E-02
      0.150000          0.846015E-03
      0.155000          0.703577E-03
      0.160000          0.589638E-03
      0.165000          0.500826E-03
      0.170000          0.433744E-03
      0.175000          0.385053E-03
      0.180000          0.351545E-03
      0.185000          0.330198E-03
      0.190000          0.318233E-03
      0.195000          0.313145E-03
      0.200000          0.312732E-03
      0.205000          0.315109E-03
      0.210000          0.318708E-03
      0.215000          0.322278E-03
      0.220000          0.324862E-03
      0.225000          0.325786E-03
      0.230000          0.324621E-03
      0.235000          0.321161E-03
      0.240000          0.315383E-03
      0.245000          0.307415E-03
      0.250000          0.297503E-03
      0.255000          0.285974E-03
      0.260000          0.273207E-03
      0.265000          0.259604E-03
      0.270000          0.245569E-03
      0.275000          0.231483E-03
      0.280000          0.217692E-03
      0.285000          0.204492E-03
      0.290000          0.192125E-03
      0.295000          0.180771E-03
      0.300000          0.170551E-03
      0.305000          0.161528E-03
      0.310000          0.153710E-03
      0.315000          0.147062E-03
      0.320000          0.141507E-03
      0.325000          0.136940E-03
      0.330000          0.133234E-03
      0.335000          0.130250E-03
      0.340000          0.127846E-03
      0.345000          0.125881E-03
      0.350000          0.124222E-03
      0.355000          0.122753E-03
      0.360000          0.121374E-03
      0.365000          0.120002E-03
      0.370000          0.118578E-03
      0.375000          0.117063E-03
      0.380000          0.115435E-03
      0.385000          0.113691E-03
      0.390000          0.111844E-03
      0.395000          0.109915E-03
      0.400000          0.107939E-03
      0.405000          0.105952E-03
      0.410000          0.103996E-03
      0.415000          0.102109E-03
      0.420000          0.100330E-03
      0.425000          0.986915E-04
      0.430000          0.972187E-04
      0.435000          0.959307E-04
      0.440000          0.948384E-04
      0.445000          0.939447E-04
      0.450000          0.932446E-04
      0.455000          0.927265E-04
      0.460000          0.923726E-04
      0.465000          0.921602E-04
      0.470000          0.920634E-04
      0.475000          0.920539E-04
      0.480000          0.921026E-04
      0.485000          0.921809E-04
      0.490000          0.922619E-04
      0.495000          0.923208E-04
      0.500000          0.923364E-04
