 I_abs(s)[cm^-1]/c[mg/ml]
       0.00000          0.145367E-01
      0.500000E-02      0.144837E-01
      0.100000E-01      0.143261E-01
      0.150000E-01      0.140672E-01
      0.200000E-01      0.137129E-01
      0.250000E-01      0.132708E-01
      0.300000E-01      0.127504E-01
      0.350000E-01      0.121624E-01
      0.400000E-01      0.115189E-01
      0.450000E-01      0.108322E-01
      0.500000E-01      0.101152E-01
      0.550000E-01      0.938047E-02
      0.600000E-01      0.864017E-02
      0.650000E-01      0.790563E-02
      0.700000E-01      0.718711E-02
      0.750000E-01      0.649358E-02
      0.800000E-01      0.583262E-02
      0.850000E-01      0.521027E-02
      0.900000E-01      0.463105E-02
      0.950000E-01      0.409801E-02
      0.100000          0.361276E-02
      0.105000          0.317565E-02
      0.110000          0.278591E-02
      0.115000          0.244182E-02
      0.120000          0.214088E-02
      0.125000          0.188002E-02
      0.130000          0.165578E-02
      0.135000          0.146448E-02
      0.140000          0.130232E-02
      0.145000          0.116557E-02
      0.150000          0.105064E-02
      0.155000          0.954168E-03
      0.160000          0.873055E-03
      0.165000          0.804533E-03
      0.170000          0.746161E-03
      0.175000          0.695836E-03
      0.180000          0.651782E-03
      0.185000          0.612531E-03
      0.190000          0.576903E-03
      0.195000          0.543970E-03
      0.200000          0.513035E-03
      0.205000          0.483593E-03
      0.210000          0.455307E-03
      0.215000          0.427978E-03
      0.220000          0.401516E-03
      0.225000          0.375917E-03
      0.230000          0.351239E-03
      0.235000          0.327586E-03
      0.240000          0.305084E-03
      0.245000          0.283870E-03
      0.250000          0.264075E-03
      0.255000          0.245817E-03
      0.260000          0.229188E-03
      0.265000          0.214249E-03
      0.270000          0.201030E-03
      0.275000          0.189520E-03
      0.280000          0.179675E-03
      0.285000          0.171415E-03
      0.290000          0.164630E-03
      0.295000          0.159185E-03
      0.300000          0.154925E-03
      0.305000          0.151681E-03
      0.310000          0.149278E-03
      0.315000          0.147541E-03
      0.320000          0.146299E-03
      0.325000          0.145393E-03
      0.330000          0.144678E-03
      0.335000          0.144027E-03
      0.340000          0.143333E-03
      0.345000          0.142511E-03
      0.350000          0.141494E-03
      0.355000          0.140241E-03
      0.360000          0.138726E-03
      0.365000          0.136941E-03
      0.370000          0.134894E-03
      0.375000          0.132605E-03
      0.380000          0.130104E-03
      0.385000          0.127428E-03
      0.390000          0.124618E-03
      0.395000          0.121720E-03
      0.400000          0.118779E-03
      0.405000          0.115838E-03
      0.410000          0.112940E-03
      0.415000          0.110124E-03
      0.420000          0.107423E-03
      0.425000          0.104867E-03
      0.430000          0.102479E-03
      0.435000          0.100280E-03
      0.440000          0.982829E-04
      0.445000          0.964961E-04
      0.450000          0.949236E-04
      0.455000          0.935648E-04
      0.460000          0.924150E-04
      0.465000          0.914657E-04
      0.470000          0.907051E-04
      0.475000          0.901187E-04
      0.480000          0.896892E-04
      0.485000          0.893976E-04
      0.490000          0.892228E-04
      0.495000          0.891428E-04
      0.500000          0.891343E-04
