 I_abs(s)[cm^-1]/c[mg/ml]
       0.00000          0.144971E-01
      0.500000E-02      0.144490E-01
      0.100000E-01      0.143057E-01
      0.150000E-01      0.140701E-01
      0.200000E-01      0.137472E-01
      0.250000E-01      0.133433E-01
      0.300000E-01      0.128665E-01
      0.350000E-01      0.123260E-01
      0.400000E-01      0.117319E-01
      0.450000E-01      0.110948E-01
      0.500000E-01      0.104258E-01
      0.550000E-01      0.973587E-02
      0.600000E-01      0.903550E-02
      0.650000E-01      0.833475E-02
      0.700000E-01      0.764279E-02
      0.750000E-01      0.696778E-02
      0.800000E-01      0.631676E-02
      0.850000E-01      0.569554E-02
      0.900000E-01      0.510870E-02
      0.950000E-01      0.455958E-02
      0.100000          0.405038E-02
      0.105000          0.358219E-02
      0.110000          0.315519E-02
      0.115000          0.276871E-02
      0.120000          0.242141E-02
      0.125000          0.211143E-02
      0.130000          0.183655E-02
      0.135000          0.159425E-02
      0.140000          0.138191E-02
      0.145000          0.119686E-02
      0.150000          0.103648E-02
      0.155000          0.898237E-03
      0.160000          0.779740E-03
      0.165000          0.678772E-03
      0.170000          0.593289E-03
      0.175000          0.521428E-03
      0.180000          0.461493E-03
      0.185000          0.411950E-03
      0.190000          0.371406E-03
      0.195000          0.338601E-03
      0.200000          0.312387E-03
      0.205000          0.291725E-03
      0.210000          0.275670E-03
      0.215000          0.263369E-03
      0.220000          0.254057E-03
      0.225000          0.247055E-03
      0.230000          0.241769E-03
      0.235000          0.237693E-03
      0.240000          0.234403E-03
      0.245000          0.231556E-03
      0.250000          0.228891E-03
      0.255000          0.226215E-03
      0.260000          0.223404E-03
      0.265000          0.220387E-03
      0.270000          0.217143E-03
      0.275000          0.213685E-03
      0.280000          0.210052E-03
      0.285000          0.206297E-03
      0.290000          0.202483E-03
      0.295000          0.198669E-03
      0.300000          0.194910E-03
      0.305000          0.191247E-03
      0.310000          0.187710E-03
      0.315000          0.184313E-03
      0.320000          0.181061E-03
      0.325000          0.177941E-03
      0.330000          0.174937E-03
      0.335000          0.172023E-03
      0.340000          0.169172E-03
      0.345000          0.166356E-03
      0.350000          0.163550E-03
      0.355000          0.160731E-03
      0.360000          0.157884E-03
      0.365000          0.154996E-03
      0.370000          0.152063E-03
      0.375000          0.149085E-03
      0.380000          0.146065E-03
      0.385000          0.143009E-03
      0.390000          0.139928E-03
      0.395000          0.136831E-03
      0.400000          0.133727E-03
      0.405000          0.130627E-03
      0.410000          0.127539E-03
      0.415000          0.124472E-03
      0.420000          0.121431E-03
      0.425000          0.118425E-03
      0.430000          0.115458E-03
      0.435000          0.112537E-03
      0.440000          0.109671E-03
      0.445000          0.106866E-03
      0.450000          0.104131E-03
      0.455000          0.101476E-03
      0.460000          0.989116E-04
      0.465000          0.964468E-04
      0.470000          0.940915E-04
      0.475000          0.918541E-04
      0.480000          0.897414E-04
      0.485000          0.877580E-04
      0.490000          0.859060E-04
      0.495000          0.841842E-04
      0.500000          0.825891E-04
