 I_abs(s)[cm^-1]/c[mg/ml]
       0.00000          0.146081E-01
      0.500000E-02      0.145637E-01
      0.100000E-01      0.144313E-01
      0.150000E-01      0.142131E-01
      0.200000E-01      0.139128E-01
      0.250000E-01      0.135355E-01
      0.300000E-01      0.130874E-01
      0.350000E-01      0.125758E-01
      0.400000E-01      0.120088E-01
      0.450000E-01      0.113953E-01
      0.500000E-01      0.107446E-01
      0.550000E-01      0.100661E-01
      0.600000E-01      0.936950E-02
      0.650000E-01      0.866404E-02
      0.700000E-01      0.795870E-02
      0.750000E-01      0.726187E-02
      0.800000E-01      0.658125E-02
      0.850000E-01      0.592370E-02
      0.900000E-01      0.529513E-02
      0.950000E-01      0.470049E-02
      0.100000          0.414369E-02
      0.105000          0.362762E-02
      0.110000          0.315418E-02
      0.115000          0.272428E-02
      0.120000          0.233799E-02
      0.125000          0.199457E-02
      0.130000          0.169258E-02
      0.135000          0.143002E-02
      0.140000          0.120439E-02
      0.145000          0.101287E-02
      0.150000          0.852385E-03
      0.155000          0.719728E-03
      0.160000          0.611656E-03
      0.165000          0.524971E-03
      0.170000          0.456596E-03
      0.175000          0.403633E-03
      0.180000          0.363406E-03
      0.185000          0.333496E-03
      0.190000          0.311758E-03
      0.195000          0.296330E-03
      0.200000          0.285627E-03
      0.205000          0.278333E-03
      0.210000          0.273383E-03
      0.215000          0.269938E-03
      0.220000          0.267360E-03
      0.225000          0.265184E-03
      0.230000          0.263089E-03
      0.235000          0.260872E-03
      0.240000          0.258419E-03
      0.245000          0.255686E-03
      0.250000          0.252675E-03
      0.255000          0.249418E-03
      0.260000          0.245962E-03
      0.265000          0.242362E-03
      0.270000          0.238669E-03
      0.275000          0.234927E-03
      0.280000          0.231171E-03
      0.285000          0.227423E-03
      0.290000          0.223695E-03
      0.295000          0.219990E-03
      0.300000          0.216304E-03
      0.305000          0.212629E-03
      0.310000          0.208951E-03
      0.315000          0.205260E-03
      0.320000          0.201543E-03
      0.325000          0.197793E-03
      0.330000          0.194005E-03
      0.335000          0.190177E-03
      0.340000          0.186313E-03
      0.345000          0.182420E-03
      0.350000          0.178506E-03
      0.355000          0.174583E-03
      0.360000          0.170665E-03
      0.365000          0.166763E-03
      0.370000          0.162891E-03
      0.375000          0.159058E-03
      0.380000          0.155274E-03
      0.385000          0.151545E-03
      0.390000          0.147875E-03
      0.395000          0.144264E-03
      0.400000          0.140711E-03
      0.405000          0.137213E-03
      0.410000          0.133764E-03
      0.415000          0.130359E-03
      0.420000          0.126991E-03
      0.425000          0.123653E-03
      0.430000          0.120341E-03
      0.435000          0.117051E-03
      0.440000          0.113780E-03
      0.445000          0.110529E-03
      0.450000          0.107302E-03
      0.455000          0.104104E-03
      0.460000          0.100944E-03
      0.465000          0.978325E-04
      0.470000          0.947836E-04
      0.475000          0.918124E-04
      0.480000          0.889355E-04
      0.485000          0.861704E-04
      0.490000          0.835349E-04
      0.495000          0.810462E-04
      0.500000          0.787208E-04
