 I_abs(s)[cm^-1]/c[mg/ml]
       0.00000          0.143864E-01
      0.500000E-02      0.143123E-01
      0.100000E-01      0.140924E-01
      0.150000E-01      0.137345E-01
      0.200000E-01      0.132507E-01
      0.250000E-01      0.126574E-01
      0.300000E-01      0.119737E-01
      0.350000E-01      0.112209E-01
      0.400000E-01      0.104213E-01
      0.450000E-01      0.959719E-02
      0.500000E-01      0.876940E-02
      0.550000E-01      0.795696E-02
      0.600000E-01      0.717608E-02
      0.650000E-01      0.643978E-02
      0.700000E-01      0.575754E-02
      0.750000E-01      0.513537E-02
      0.800000E-01      0.457593E-02
      0.850000E-01      0.407889E-02
      0.900000E-01      0.364146E-02
      0.950000E-01      0.325897E-02
      0.100000          0.292546E-02
      0.105000          0.263433E-02
      0.110000          0.237886E-02
      0.115000          0.215272E-02
      0.120000          0.195026E-02
      0.125000          0.176682E-02
      0.130000          0.159878E-02
      0.135000          0.144356E-02
      0.140000          0.129959E-02
      0.145000          0.116607E-02
      0.150000          0.104280E-02
      0.155000          0.929974E-03
      0.160000          0.827927E-03
      0.165000          0.736983E-03
      0.170000          0.657295E-03
      0.175000          0.588753E-03
      0.180000          0.530937E-03
      0.185000          0.483122E-03
      0.190000          0.444318E-03
      0.195000          0.413338E-03
      0.200000          0.388883E-03
      0.205000          0.369634E-03
      0.210000          0.354333E-03
      0.215000          0.341850E-03
      0.220000          0.331234E-03
      0.225000          0.321737E-03
      0.230000          0.312823E-03
      0.235000          0.304146E-03
      0.240000          0.295527E-03
      0.245000          0.286917E-03
      0.250000          0.278351E-03
      0.255000          0.269913E-03
      0.260000          0.261698E-03
      0.265000          0.253790E-03
      0.270000          0.246246E-03
      0.275000          0.239085E-03
      0.280000          0.232295E-03
      0.285000          0.225838E-03
      0.290000          0.219660E-03
      0.295000          0.213707E-03
      0.300000          0.207932E-03
      0.305000          0.202306E-03
      0.310000          0.196820E-03
      0.315000          0.191487E-03
      0.320000          0.186338E-03
      0.325000          0.181414E-03
      0.330000          0.176760E-03
      0.335000          0.172413E-03
      0.340000          0.168400E-03
      0.345000          0.164726E-03
      0.350000          0.161378E-03
      0.355000          0.158320E-03
      0.360000          0.155499E-03
      0.365000          0.152849E-03
      0.370000          0.150299E-03
      0.375000          0.147778E-03
      0.380000          0.145225E-03
      0.385000          0.142592E-03
      0.390000          0.139850E-03
      0.395000          0.136990E-03
      0.400000          0.134023E-03
      0.405000          0.130974E-03
      0.410000          0.127886E-03
      0.415000          0.124804E-03
      0.420000          0.121779E-03
      0.425000          0.118857E-03
      0.430000          0.116076E-03
      0.435000          0.113462E-03
      0.440000          0.111028E-03
      0.445000          0.108773E-03
      0.450000          0.106682E-03
      0.455000          0.104731E-03
      0.460000          0.102886E-03
      0.465000          0.101112E-03
      0.470000          0.993724E-04
      0.475000          0.976356E-04
      0.480000          0.958762E-04
      0.485000          0.940778E-04
      0.490000          0.922341E-04
      0.495000          0.903491E-04
      0.500000          0.884362E-04
