 I_abs(s)[cm^-1]/c[mg/ml]
       0.00000          0.144654E-01
      0.500000E-02      0.144141E-01
      0.100000E-01      0.142613E-01
      0.150000E-01      0.140102E-01
      0.200000E-01      0.136660E-01
      0.250000E-01      0.132358E-01
      0.300000E-01      0.127285E-01
      0.350000E-01      0.121541E-01
      0.400000E-01      0.115236E-01
      0.450000E-01      0.108491E-01
      0.500000E-01      0.101426E-01
      0.550000E-01      0.941630E-02
      0.600000E-01      0.868214E-02
      0.650000E-01      0.795130E-02
      0.700000E-01      0.723411E-02
      0.750000E-01      0.653976E-02
      0.800000E-01      0.587614E-02
      0.850000E-01      0.524972E-02
      0.900000E-01      0.466550E-02
      0.950000E-01      0.412698E-02
      0.100000          0.363624E-02
      0.105000          0.319399E-02
      0.110000          0.279976E-02
      0.115000          0.245198E-02
      0.120000          0.214822E-02
      0.125000          0.188537E-02
      0.130000          0.165982E-02
      0.135000          0.146767E-02
      0.140000          0.130486E-02
      0.145000          0.116740E-02
      0.150000          0.105144E-02
      0.155000          0.953404E-03
      0.160000          0.870068E-03
      0.165000          0.798604E-03
      0.170000          0.736608E-03
      0.175000          0.682101E-03
      0.180000          0.633507E-03
      0.185000          0.589621E-03
      0.190000          0.549560E-03
      0.195000          0.512707E-03
      0.200000          0.478658E-03
      0.205000          0.447161E-03
      0.210000          0.418066E-03
      0.215000          0.391280E-03
      0.220000          0.366728E-03
      0.225000          0.344326E-03
      0.230000          0.323964E-03
      0.235000          0.305494E-03
      0.240000          0.288731E-03
      0.245000          0.273459E-03
      0.250000          0.259440E-03
      0.255000          0.246427E-03
      0.260000          0.234182E-03
      0.265000          0.222489E-03
      0.270000          0.211165E-03
      0.275000          0.200074E-03
      0.280000          0.189131E-03
      0.285000          0.178305E-03
      0.290000          0.167618E-03
      0.295000          0.157140E-03
      0.300000          0.146978E-03
      0.305000          0.137269E-03
      0.310000          0.128167E-03
      0.315000          0.119826E-03
      0.320000          0.112393E-03
      0.325000          0.105994E-03
      0.330000          0.100726E-03
      0.335000          0.966471E-04
      0.340000          0.937752E-04
      0.345000          0.920855E-04
      0.350000          0.915116E-04
      0.355000          0.919495E-04
      0.360000          0.932637E-04
      0.365000          0.952945E-04
      0.370000          0.978666E-04
      0.375000          0.100798E-03
      0.380000          0.103909E-03
      0.385000          0.107030E-03
      0.390000          0.110008E-03
      0.395000          0.112715E-03
      0.400000          0.115048E-03
      0.405000          0.116934E-03
      0.410000          0.118328E-03
      0.415000          0.119214E-03
      0.420000          0.119602E-03
      0.425000          0.119523E-03
      0.430000          0.119027E-03
      0.435000          0.118172E-03
      0.440000          0.117028E-03
      0.445000          0.115665E-03
      0.450000          0.114151E-03
      0.455000          0.112548E-03
      0.460000          0.110909E-03
      0.465000          0.109278E-03
      0.470000          0.107686E-03
      0.475000          0.106153E-03
      0.480000          0.104688E-03
      0.485000          0.103290E-03
      0.490000          0.101953E-03
      0.495000          0.100663E-03
      0.500000          0.994035E-04
