 I_abs(s)[cm^-1]/c[mg/ml]
       0.00000          0.145922E-01
      0.500000E-02      0.145428E-01
      0.100000E-01      0.143955E-01
      0.150000E-01      0.141533E-01
      0.200000E-01      0.138212E-01
      0.250000E-01      0.134056E-01
      0.300000E-01      0.129149E-01
      0.350000E-01      0.123583E-01
      0.400000E-01      0.117461E-01
      0.450000E-01      0.110895E-01
      0.500000E-01      0.103997E-01
      0.550000E-01      0.968818E-02
      0.600000E-01      0.896591E-02
      0.650000E-01      0.824345E-02
      0.700000E-01      0.753054E-02
      0.750000E-01      0.683591E-02
      0.800000E-01      0.616720E-02
      0.850000E-01      0.553077E-02
      0.900000E-01      0.493172E-02
      0.950000E-01      0.437387E-02
      0.100000          0.385975E-02
      0.105000          0.339076E-02
      0.110000          0.296719E-02
      0.115000          0.258839E-02
      0.120000          0.225289E-02
      0.125000          0.195857E-02
      0.130000          0.170278E-02
      0.135000          0.148250E-02
      0.140000          0.129447E-02
      0.145000          0.113531E-02
      0.150000          0.100162E-02
      0.155000          0.890099E-03
      0.160000          0.797573E-03
      0.165000          0.721078E-03
      0.170000          0.657897E-03
      0.175000          0.605578E-03
      0.180000          0.561956E-03
      0.185000          0.525149E-03
      0.190000          0.493558E-03
      0.195000          0.465856E-03
      0.200000          0.440965E-03
      0.205000          0.418042E-03
      0.210000          0.396453E-03
      0.215000          0.375749E-03
      0.220000          0.355642E-03
      0.225000          0.335978E-03
      0.230000          0.316709E-03
      0.235000          0.297877E-03
      0.240000          0.279580E-03
      0.245000          0.261960E-03
      0.250000          0.245176E-03
      0.255000          0.229390E-03
      0.260000          0.214753E-03
      0.265000          0.201391E-03
      0.270000          0.189396E-03
      0.275000          0.178823E-03
      0.280000          0.169684E-03
      0.285000          0.161950E-03
      0.290000          0.155554E-03
      0.295000          0.150396E-03
      0.300000          0.146347E-03
      0.305000          0.143262E-03
      0.310000          0.140980E-03
      0.315000          0.139343E-03
      0.320000          0.138194E-03
      0.325000          0.137389E-03
      0.330000          0.136800E-03
      0.335000          0.136323E-03
      0.340000          0.135873E-03
      0.345000          0.135390E-03
      0.350000          0.134835E-03
      0.355000          0.134192E-03
      0.360000          0.133458E-03
      0.365000          0.132643E-03
      0.370000          0.131767E-03
      0.375000          0.130851E-03
      0.380000          0.129918E-03
      0.385000          0.128986E-03
      0.390000          0.128068E-03
      0.395000          0.127168E-03
      0.400000          0.126283E-03
      0.405000          0.125400E-03
      0.410000          0.124501E-03
      0.415000          0.123561E-03
      0.420000          0.122552E-03
      0.425000          0.121446E-03
      0.430000          0.120215E-03
      0.435000          0.118837E-03
      0.440000          0.117293E-03
      0.445000          0.115574E-03
      0.450000          0.113678E-03
      0.455000          0.111611E-03
      0.460000          0.109389E-03
      0.465000          0.107035E-03
      0.470000          0.104578E-03
      0.475000          0.102053E-03
      0.480000          0.994967E-04
      0.485000          0.969488E-04
      0.490000          0.944468E-04
      0.495000          0.920265E-04
      0.500000          0.897193E-04
