 I_abs(s)[cm^-1]/c[mg/ml]
       0.00000          0.145129E-01
      0.500000E-02      0.144572E-01
      0.100000E-01      0.142916E-01
      0.150000E-01      0.140200E-01
      0.200000E-01      0.136490E-01
      0.250000E-01      0.131874E-01
      0.300000E-01      0.126458E-01
      0.350000E-01      0.120364E-01
      0.400000E-01      0.113723E-01
      0.450000E-01      0.106673E-01
      0.500000E-01      0.993522E-02
      0.550000E-01      0.918948E-02
      0.600000E-01      0.844273E-02
      0.650000E-01      0.770653E-02
      0.700000E-01      0.699105E-02
      0.750000E-01      0.630486E-02
      0.800000E-01      0.565488E-02
      0.850000E-01      0.504632E-02
      0.900000E-01      0.448272E-02
      0.950000E-01      0.396606E-02
      0.100000          0.349695E-02
      0.105000          0.307477E-02
      0.110000          0.269794E-02
      0.115000          0.236408E-02
      0.120000          0.207028E-02
      0.125000          0.181329E-02
      0.130000          0.158964E-02
      0.135000          0.139589E-02
      0.140000          0.122864E-02
      0.145000          0.108469E-02
      0.150000          0.961096E-03
      0.155000          0.855149E-03
      0.160000          0.764438E-03
      0.165000          0.686827E-03
      0.170000          0.620440E-03
      0.175000          0.563640E-03
      0.180000          0.515007E-03
      0.185000          0.473309E-03
      0.190000          0.437484E-03
      0.195000          0.406616E-03
      0.200000          0.379921E-03
      0.205000          0.356731E-03
      0.210000          0.336486E-03
      0.215000          0.318720E-03
      0.220000          0.303054E-03
      0.225000          0.289187E-03
      0.230000          0.276880E-03
      0.235000          0.265952E-03
      0.240000          0.256265E-03
      0.245000          0.247712E-03
      0.250000          0.240209E-03
      0.255000          0.233679E-03
      0.260000          0.228052E-03
      0.265000          0.223252E-03
      0.270000          0.219197E-03
      0.275000          0.215797E-03
      0.280000          0.212953E-03
      0.285000          0.210564E-03
      0.290000          0.208527E-03
      0.295000          0.206740E-03
      0.300000          0.205114E-03
      0.305000          0.203566E-03
      0.310000          0.202032E-03
      0.315000          0.200459E-03
      0.320000          0.198812E-03
      0.325000          0.197068E-03
      0.330000          0.195214E-03
      0.335000          0.193246E-03
      0.340000          0.191162E-03
      0.345000          0.188961E-03
      0.350000          0.186637E-03
      0.355000          0.184182E-03
      0.360000          0.181582E-03
      0.365000          0.178819E-03
      0.370000          0.175872E-03
      0.375000          0.172718E-03
      0.380000          0.169341E-03
      0.385000          0.165728E-03
      0.390000          0.161877E-03
      0.395000          0.157797E-03
      0.400000          0.153512E-03
      0.405000          0.149056E-03
      0.410000          0.144479E-03
      0.415000          0.139839E-03
      0.420000          0.135202E-03
      0.425000          0.130636E-03
      0.430000          0.126208E-03
      0.435000          0.121981E-03
      0.440000          0.118005E-03
      0.445000          0.114318E-03
      0.450000          0.110945E-03
      0.455000          0.107891E-03
      0.460000          0.105147E-03
      0.465000          0.102690E-03
      0.470000          0.100481E-03
      0.475000          0.984756E-04
      0.480000          0.966231E-04
      0.485000          0.948715E-04
      0.490000          0.931720E-04
      0.495000          0.914819E-04
      0.500000          0.897683E-04
