 I_abs(s)[cm^-1]/c[mg/ml]
       0.00000          0.146957E-01
      0.500000E-02      0.146553E-01
      0.100000E-01      0.145348E-01
      0.150000E-01      0.143361E-01
      0.200000E-01      0.140622E-01
      0.250000E-01      0.137172E-01
      0.300000E-01      0.133064E-01
      0.350000E-01      0.128359E-01
      0.400000E-01      0.123125E-01
      0.450000E-01      0.117437E-01
      0.500000E-01      0.111374E-01
      0.550000E-01      0.105016E-01
      0.600000E-01      0.984474E-02
      0.650000E-01      0.917491E-02
      0.700000E-01      0.850007E-02
      0.750000E-01      0.782778E-02
      0.800000E-01      0.716510E-02
      0.850000E-01      0.651846E-02
      0.900000E-01      0.589361E-02
      0.950000E-01      0.529549E-02
      0.100000          0.472825E-02
      0.105000          0.419519E-02
      0.110000          0.369876E-02
      0.115000          0.324061E-02
      0.120000          0.282162E-02
      0.125000          0.244192E-02
      0.130000          0.210101E-02
      0.135000          0.179780E-02
      0.140000          0.153072E-02
      0.145000          0.129777E-02
      0.150000          0.109667E-02
      0.155000          0.924888E-03
      0.160000          0.779760E-03
      0.165000          0.658547E-03
      0.170000          0.558516E-03
      0.175000          0.476992E-03
      0.180000          0.411415E-03
      0.185000          0.359378E-03
      0.190000          0.318656E-03
      0.195000          0.287229E-03
      0.200000          0.263298E-03
      0.205000          0.245283E-03
      0.210000          0.231824E-03
      0.215000          0.221777E-03
      0.220000          0.214191E-03
      0.225000          0.208304E-03
      0.230000          0.203514E-03
      0.235000          0.199366E-03
      0.240000          0.195527E-03
      0.245000          0.191772E-03
      0.250000          0.187957E-03
      0.255000          0.184008E-03
      0.260000          0.179902E-03
      0.265000          0.175654E-03
      0.270000          0.171305E-03
      0.275000          0.166910E-03
      0.280000          0.162534E-03
      0.285000          0.158244E-03
      0.290000          0.154101E-03
      0.295000          0.150164E-03
      0.300000          0.146480E-03
      0.305000          0.143087E-03
      0.310000          0.140015E-03
      0.315000          0.137281E-03
      0.320000          0.134894E-03
      0.325000          0.132853E-03
      0.330000          0.131149E-03
      0.335000          0.129765E-03
      0.340000          0.128680E-03
      0.345000          0.127864E-03
      0.350000          0.127284E-03
      0.355000          0.126906E-03
      0.360000          0.126689E-03
      0.365000          0.126594E-03
      0.370000          0.126580E-03
      0.375000          0.126607E-03
      0.380000          0.126635E-03
      0.385000          0.126626E-03
      0.390000          0.126547E-03
      0.395000          0.126365E-03
      0.400000          0.126054E-03
      0.405000          0.125592E-03
      0.410000          0.124960E-03
      0.415000          0.124147E-03
      0.420000          0.123144E-03
      0.425000          0.121951E-03
      0.430000          0.120570E-03
      0.435000          0.119010E-03
      0.440000          0.117282E-03
      0.445000          0.115403E-03
      0.450000          0.113393E-03
      0.455000          0.111275E-03
      0.460000          0.109072E-03
      0.465000          0.106810E-03
      0.470000          0.104516E-03
      0.475000          0.102216E-03
      0.480000          0.999364E-04
      0.485000          0.977027E-04
      0.490000          0.955382E-04
      0.495000          0.934646E-04
      0.500000          0.915016E-04
