 I_abs(s)[cm^-1]/c[mg/ml]
       0.00000          0.146479E-01
      0.500000E-02      0.146068E-01
      0.100000E-01      0.144841E-01
      0.150000E-01      0.142817E-01
      0.200000E-01      0.140030E-01
      0.250000E-01      0.136523E-01
      0.300000E-01      0.132350E-01
      0.350000E-01      0.127576E-01
      0.400000E-01      0.122272E-01
      0.450000E-01      0.116517E-01
      0.500000E-01      0.110393E-01
      0.550000E-01      0.103984E-01
      0.600000E-01      0.973751E-02
      0.650000E-01      0.906516E-02
      0.700000E-01      0.838942E-02
      0.750000E-01      0.771800E-02
      0.800000E-01      0.705802E-02
      0.850000E-01      0.641592E-02
      0.900000E-01      0.579737E-02
      0.950000E-01      0.520720E-02
      0.100000          0.464937E-02
      0.105000          0.412696E-02
      0.110000          0.364216E-02
      0.115000          0.319632E-02
      0.120000          0.279000E-02
      0.125000          0.242305E-02
      0.130000          0.209464E-02
      0.135000          0.180341E-02
      0.140000          0.154753E-02
      0.145000          0.132479E-02
      0.150000          0.113273E-02
      0.155000          0.968687E-03
      0.160000          0.829914E-03
      0.165000          0.713643E-03
      0.170000          0.617150E-03
      0.175000          0.537821E-03
      0.180000          0.473186E-03
      0.185000          0.420963E-03
      0.190000          0.379076E-03
      0.195000          0.345669E-03
      0.200000          0.319114E-03
      0.205000          0.298006E-03
      0.210000          0.281152E-03
      0.215000          0.267560E-03
      0.220000          0.256421E-03
      0.225000          0.247086E-03
      0.230000          0.239048E-03
      0.235000          0.231922E-03
      0.240000          0.225418E-03
      0.245000          0.219332E-03
      0.250000          0.213521E-03
      0.255000          0.207891E-03
      0.260000          0.202385E-03
      0.265000          0.196974E-03
      0.270000          0.191646E-03
      0.275000          0.186402E-03
      0.280000          0.181251E-03
      0.285000          0.176208E-03
      0.290000          0.171290E-03
      0.295000          0.166515E-03
      0.300000          0.161904E-03
      0.305000          0.157477E-03
      0.310000          0.153254E-03
      0.315000          0.149254E-03
      0.320000          0.145496E-03
      0.325000          0.141994E-03
      0.330000          0.138762E-03
      0.335000          0.135810E-03
      0.340000          0.133142E-03
      0.345000          0.130756E-03
      0.350000          0.128648E-03
      0.355000          0.126803E-03
      0.360000          0.125204E-03
      0.365000          0.123824E-03
      0.370000          0.122635E-03
      0.375000          0.121601E-03
      0.380000          0.120684E-03
      0.385000          0.119845E-03
      0.390000          0.119044E-03
      0.395000          0.118242E-03
      0.400000          0.117403E-03
      0.405000          0.116494E-03
      0.410000          0.115489E-03
      0.415000          0.114367E-03
      0.420000          0.113116E-03
      0.425000          0.111730E-03
      0.430000          0.110210E-03
      0.435000          0.108565E-03
      0.440000          0.106812E-03
      0.445000          0.104971E-03
      0.450000          0.103068E-03
      0.455000          0.101133E-03
      0.460000          0.991964E-04
      0.465000          0.972912E-04
      0.470000          0.954482E-04
      0.475000          0.936964E-04
      0.480000          0.920618E-04
      0.485000          0.905658E-04
      0.490000          0.892254E-04
      0.495000          0.880517E-04
      0.500000          0.870505E-04
