 I_abs(s)[cm^-1]/c[mg/ml]
       0.00000          0.147595E-01
      0.500000E-02      0.147087E-01
      0.100000E-01      0.145574E-01
      0.150000E-01      0.143089E-01
      0.200000E-01      0.139688E-01
      0.250000E-01      0.135443E-01
      0.300000E-01      0.130444E-01
      0.350000E-01      0.124794E-01
      0.400000E-01      0.118604E-01
      0.450000E-01      0.111991E-01
      0.500000E-01      0.105075E-01
      0.550000E-01      0.979724E-02
      0.600000E-01      0.907938E-02
      0.650000E-01      0.836429E-02
      0.700000E-01      0.766123E-02
      0.750000E-01      0.697826E-02
      0.800000E-01      0.632211E-02
      0.850000E-01      0.569815E-02
      0.900000E-01      0.511042E-02
      0.950000E-01      0.456165E-02
      0.100000          0.405344E-02
      0.105000          0.358634E-02
      0.110000          0.316001E-02
      0.115000          0.277342E-02
      0.120000          0.242500E-02
      0.125000          0.211279E-02
      0.130000          0.183455E-02
      0.135000          0.158794E-02
      0.140000          0.137056E-02
      0.145000          0.118004E-02
      0.150000          0.101409E-02
      0.155000          0.870524E-03
      0.160000          0.747291E-03
      0.165000          0.642448E-03
      0.170000          0.554175E-03
      0.175000          0.480757E-03
      0.180000          0.420577E-03
      0.185000          0.372101E-03
      0.190000          0.333873E-03
      0.195000          0.304513E-03
      0.200000          0.282717E-03
      0.205000          0.267258E-03
      0.210000          0.256995E-03
      0.215000          0.250878E-03
      0.220000          0.247957E-03
      0.225000          0.247383E-03
      0.230000          0.248416E-03
      0.235000          0.250423E-03
      0.240000          0.252875E-03
      0.245000          0.255343E-03
      0.250000          0.257493E-03
      0.255000          0.259070E-03
      0.260000          0.259894E-03
      0.265000          0.259848E-03
      0.270000          0.258865E-03
      0.275000          0.256920E-03
      0.280000          0.254025E-03
      0.285000          0.250217E-03
      0.290000          0.245554E-03
      0.295000          0.240114E-03
      0.300000          0.233988E-03
      0.305000          0.227279E-03
      0.310000          0.220097E-03
      0.315000          0.212560E-03
      0.320000          0.204790E-03
      0.325000          0.196909E-03
      0.330000          0.189034E-03
      0.335000          0.181278E-03
      0.340000          0.173744E-03
      0.345000          0.166519E-03
      0.350000          0.159676E-03
      0.355000          0.153271E-03
      0.360000          0.147341E-03
      0.365000          0.141902E-03
      0.370000          0.136956E-03
      0.375000          0.132489E-03
      0.380000          0.128476E-03
      0.385000          0.124882E-03
      0.390000          0.121668E-03
      0.395000          0.118795E-03
      0.400000          0.116226E-03
      0.405000          0.113928E-03
      0.410000          0.111873E-03
      0.415000          0.110042E-03
      0.420000          0.108421E-03
      0.425000          0.107000E-03
      0.430000          0.105775E-03
      0.435000          0.104740E-03
      0.440000          0.103890E-03
      0.445000          0.103216E-03
      0.450000          0.102701E-03
      0.455000          0.102324E-03
      0.460000          0.102057E-03
      0.465000          0.101862E-03
      0.470000          0.101697E-03
      0.475000          0.101518E-03
      0.480000          0.101277E-03
      0.485000          0.100927E-03
      0.490000          0.100428E-03
      0.495000          0.997441E-04
      0.500000          0.988503E-04
