 I_abs(s)[cm^-1]/c[mg/ml]
       0.00000          0.137469E-01
      0.500000E-02      0.136487E-01
      0.100000E-01      0.133590E-01
      0.150000E-01      0.128919E-01
      0.200000E-01      0.122701E-01
      0.250000E-01      0.115227E-01
      0.300000E-01      0.106831E-01
      0.350000E-01      0.978692E-02
      0.400000E-01      0.886930E-02
      0.450000E-01      0.796274E-02
      0.500000E-01      0.709525E-02
      0.550000E-01      0.628897E-02
      0.600000E-01      0.555940E-02
      0.650000E-01      0.491528E-02
      0.700000E-01      0.435892E-02
      0.750000E-01      0.388712E-02
      0.800000E-01      0.349238E-02
      0.850000E-01      0.316423E-02
      0.900000E-01      0.289072E-02
      0.950000E-01      0.265967E-02
      0.100000          0.245978E-02
      0.105000          0.228142E-02
      0.110000          0.211708E-02
      0.115000          0.196158E-02
      0.120000          0.181190E-02
      0.125000          0.166686E-02
      0.130000          0.152670E-02
      0.135000          0.139254E-02
      0.140000          0.126589E-02
      0.145000          0.114827E-02
      0.150000          0.104086E-02
      0.155000          0.944340E-03
      0.160000          0.858847E-03
      0.165000          0.783976E-03
      0.170000          0.718909E-03
      0.175000          0.662553E-03
      0.180000          0.613696E-03
      0.185000          0.571135E-03
      0.190000          0.533783E-03
      0.195000          0.500722E-03
      0.200000          0.471228E-03
      0.205000          0.444750E-03
      0.210000          0.420880E-03
      0.215000          0.399308E-03
      0.220000          0.379777E-03
      0.225000          0.362050E-03
      0.230000          0.345897E-03
      0.235000          0.331086E-03
      0.240000          0.317391E-03
      0.245000          0.304609E-03
      0.250000          0.292573E-03
      0.255000          0.281163E-03
      0.260000          0.270314E-03
      0.265000          0.260009E-03
      0.270000          0.250264E-03
      0.275000          0.241120E-03
      0.280000          0.232613E-03
      0.285000          0.224766E-03
      0.290000          0.217569E-03
      0.295000          0.210981E-03
      0.300000          0.204923E-03
      0.305000          0.199293E-03
      0.310000          0.193978E-03
      0.315000          0.188863E-03
      0.320000          0.183853E-03
      0.325000          0.178879E-03
      0.330000          0.173906E-03
      0.335000          0.168933E-03
      0.340000          0.163992E-03
      0.345000          0.159134E-03
      0.350000          0.154425E-03
      0.355000          0.149931E-03
      0.360000          0.145711E-03
      0.365000          0.141807E-03
      0.370000          0.138244E-03
      0.375000          0.135025E-03
      0.380000          0.132136E-03
      0.385000          0.129544E-03
      0.390000          0.127210E-03
      0.395000          0.125085E-03
      0.400000          0.123118E-03
      0.405000          0.121259E-03
      0.410000          0.119457E-03
      0.415000          0.117669E-03
      0.420000          0.115854E-03
      0.425000          0.113979E-03
      0.430000          0.112021E-03
      0.435000          0.109966E-03
      0.440000          0.107816E-03
      0.445000          0.105585E-03
      0.450000          0.103306E-03
      0.455000          0.101027E-03
      0.460000          0.988075E-04
      0.465000          0.967151E-04
      0.470000          0.948197E-04
      0.475000          0.931847E-04
      0.480000          0.918602E-04
      0.485000          0.908755E-04
      0.490000          0.902342E-04
      0.495000          0.899116E-04
      0.500000          0.898546E-04
