 I_abs(s)[cm^-1]/c[mg/ml]
       0.00000          0.144130E-01
      0.500000E-02      0.143617E-01
      0.100000E-01      0.142087E-01
      0.150000E-01      0.139576E-01
      0.200000E-01      0.136137E-01
      0.250000E-01      0.131845E-01
      0.300000E-01      0.126789E-01
      0.350000E-01      0.121074E-01
      0.400000E-01      0.114815E-01
      0.450000E-01      0.108131E-01
      0.500000E-01      0.101146E-01
      0.550000E-01      0.939814E-02
      0.600000E-01      0.867550E-02
      0.650000E-01      0.795767E-02
      0.700000E-01      0.725459E-02
      0.750000E-01      0.657500E-02
      0.800000E-01      0.592627E-02
      0.850000E-01      0.531428E-02
      0.900000E-01      0.474344E-02
      0.950000E-01      0.421671E-02
      0.100000          0.373565E-02
      0.105000          0.330059E-02
      0.110000          0.291076E-02
      0.115000          0.256446E-02
      0.120000          0.225925E-02
      0.125000          0.199218E-02
      0.130000          0.175989E-02
      0.135000          0.155888E-02
      0.140000          0.138556E-02
      0.145000          0.123646E-02
      0.150000          0.110829E-02
      0.155000          0.998000E-03
      0.160000          0.902863E-03
      0.165000          0.820475E-03
      0.170000          0.748772E-03
      0.175000          0.686010E-03
      0.180000          0.630745E-03
      0.185000          0.581800E-03
      0.190000          0.538226E-03
      0.195000          0.499265E-03
      0.200000          0.464312E-03
      0.205000          0.432883E-03
      0.210000          0.404582E-03
      0.215000          0.379082E-03
      0.220000          0.356103E-03
      0.225000          0.335400E-03
      0.230000          0.316756E-03
      0.235000          0.299973E-03
      0.240000          0.284871E-03
      0.245000          0.271289E-03
      0.250000          0.259079E-03
      0.255000          0.248112E-03
      0.260000          0.238269E-03
      0.265000          0.229448E-03
      0.270000          0.221556E-03
      0.275000          0.214509E-03
      0.280000          0.208226E-03
      0.285000          0.202632E-03
      0.290000          0.197650E-03
      0.295000          0.193201E-03
      0.300000          0.189204E-03
      0.305000          0.185575E-03
      0.310000          0.182231E-03
      0.315000          0.179085E-03
      0.320000          0.176054E-03
      0.325000          0.173063E-03
      0.330000          0.170043E-03
      0.335000          0.166935E-03
      0.340000          0.163695E-03
      0.345000          0.160295E-03
      0.350000          0.156720E-03
      0.355000          0.152972E-03
      0.360000          0.149068E-03
      0.365000          0.145035E-03
      0.370000          0.140912E-03
      0.375000          0.136744E-03
      0.380000          0.132579E-03
      0.385000          0.128467E-03
      0.390000          0.124453E-03
      0.395000          0.120579E-03
      0.400000          0.116878E-03
      0.405000          0.113377E-03
      0.410000          0.110091E-03
      0.415000          0.107029E-03
      0.420000          0.104189E-03
      0.425000          0.101564E-03
      0.430000          0.991412E-04
      0.435000          0.969053E-04
      0.440000          0.948384E-04
      0.445000          0.929232E-04
      0.450000          0.911444E-04
      0.455000          0.894895E-04
      0.460000          0.879499E-04
      0.465000          0.865215E-04
      0.470000          0.852040E-04
      0.475000          0.840012E-04
      0.480000          0.829200E-04
      0.485000          0.819694E-04
      0.490000          0.811596E-04
      0.495000          0.805005E-04
      0.500000          0.800009E-04
