 I_abs(s)[cm^-1]/c[mg/ml]
       0.00000          0.148345E-01
      0.500000E-02      0.147752E-01
      0.100000E-01      0.145989E-01
      0.150000E-01      0.143104E-01
      0.200000E-01      0.139174E-01
      0.250000E-01      0.134303E-01
      0.300000E-01      0.128614E-01
      0.350000E-01      0.122248E-01
      0.400000E-01      0.115354E-01
      0.450000E-01      0.108084E-01
      0.500000E-01      0.100589E-01
      0.550000E-01      0.930113E-02
      0.600000E-01      0.854803E-02
      0.650000E-01      0.781102E-02
      0.700000E-01      0.709966E-02
      0.750000E-01      0.642158E-02
      0.800000E-01      0.578243E-02
      0.850000E-01      0.518599E-02
      0.900000E-01      0.463435E-02
      0.950000E-01      0.412808E-02
      0.100000          0.366659E-02
      0.105000          0.324831E-02
      0.110000          0.287106E-02
      0.115000          0.253220E-02
      0.120000          0.222894E-02
      0.125000          0.195844E-02
      0.130000          0.171794E-02
      0.135000          0.150489E-02
      0.140000          0.131692E-02
      0.145000          0.115185E-02
      0.150000          0.100772E-02
      0.155000          0.882678E-03
      0.160000          0.775016E-03
      0.165000          0.683080E-03
      0.170000          0.605267E-03
      0.175000          0.540006E-03
      0.180000          0.485756E-03
      0.185000          0.441023E-03
      0.190000          0.404375E-03
      0.195000          0.374470E-03
      0.200000          0.350085E-03
      0.205000          0.330140E-03
      0.210000          0.313711E-03
      0.215000          0.300045E-03
      0.220000          0.288551E-03
      0.225000          0.278790E-03
      0.230000          0.270455E-03
      0.235000          0.263339E-03
      0.240000          0.257309E-03
      0.245000          0.252271E-03
      0.250000          0.248141E-03
      0.255000          0.244823E-03
      0.260000          0.242194E-03
      0.265000          0.240095E-03
      0.270000          0.238332E-03
      0.275000          0.236682E-03
      0.280000          0.234911E-03
      0.285000          0.232786E-03
      0.290000          0.230099E-03
      0.295000          0.226679E-03
      0.300000          0.222411E-03
      0.305000          0.217245E-03
      0.310000          0.211199E-03
      0.315000          0.204357E-03
      0.320000          0.196864E-03
      0.325000          0.188911E-03
      0.330000          0.180723E-03
      0.335000          0.172536E-03
      0.340000          0.164583E-03
      0.345000          0.157077E-03
      0.350000          0.150195E-03
      0.355000          0.144066E-03
      0.360000          0.138771E-03
      0.365000          0.134334E-03
      0.370000          0.130731E-03
      0.375000          0.127890E-03
      0.380000          0.125707E-03
      0.385000          0.124052E-03
      0.390000          0.122783E-03
      0.395000          0.121759E-03
      0.400000          0.120847E-03
      0.405000          0.119933E-03
      0.410000          0.118930E-03
      0.415000          0.117774E-03
      0.420000          0.116434E-03
      0.425000          0.114902E-03
      0.430000          0.113196E-03
      0.435000          0.111348E-03
      0.440000          0.109403E-03
      0.445000          0.107411E-03
      0.450000          0.105421E-03
      0.455000          0.103476E-03
      0.460000          0.101610E-03
      0.465000          0.998427E-04
      0.470000          0.981843E-04
      0.475000          0.966312E-04
      0.480000          0.951701E-04
      0.485000          0.937800E-04
      0.490000          0.924362E-04
      0.495000          0.911131E-04
      0.500000          0.897876E-04
