 I_abs(s)[cm^-1]/c[mg/ml]
       0.00000          0.144051E-01
      0.500000E-02      0.143509E-01
      0.100000E-01      0.141896E-01
      0.150000E-01      0.139253E-01
      0.200000E-01      0.135644E-01
      0.250000E-01      0.131159E-01
      0.300000E-01      0.125903E-01
      0.350000E-01      0.119998E-01
      0.400000E-01      0.113573E-01
      0.450000E-01      0.106764E-01
      0.500000E-01      0.997067E-02
      0.550000E-01      0.925309E-02
      0.600000E-01      0.853587E-02
      0.650000E-01      0.782997E-02
      0.700000E-01      0.714493E-02
      0.750000E-01      0.648867E-02
      0.800000E-01      0.586739E-02
      0.850000E-01      0.528563E-02
      0.900000E-01      0.474631E-02
      0.950000E-01      0.425085E-02
      0.100000          0.379941E-02
      0.105000          0.339108E-02
      0.110000          0.302407E-02
      0.115000          0.269600E-02
      0.120000          0.240408E-02
      0.125000          0.214531E-02
      0.130000          0.191661E-02
      0.135000          0.171501E-02
      0.140000          0.153766E-02
      0.145000          0.138196E-02
      0.150000          0.124551E-02
      0.155000          0.112619E-02
      0.160000          0.102208E-02
      0.165000          0.931485E-03
      0.170000          0.852851E-03
      0.175000          0.784782E-03
      0.180000          0.725983E-03
      0.185000          0.675252E-03
      0.190000          0.631458E-03
      0.195000          0.593542E-03
      0.200000          0.560515E-03
      0.205000          0.531467E-03
      0.210000          0.505573E-03
      0.215000          0.482104E-03
      0.220000          0.460436E-03
      0.225000          0.440054E-03
      0.230000          0.420555E-03
      0.235000          0.401644E-03
      0.240000          0.383124E-03
      0.245000          0.364887E-03
      0.250000          0.346898E-03
      0.255000          0.329179E-03
      0.260000          0.311790E-03
      0.265000          0.294817E-03
      0.270000          0.278354E-03
      0.275000          0.262495E-03
      0.280000          0.247321E-03
      0.285000          0.232901E-03
      0.290000          0.219282E-03
      0.295000          0.206494E-03
      0.300000          0.194550E-03
      0.305000          0.183450E-03
      0.310000          0.173183E-03
      0.315000          0.163728E-03
      0.320000          0.155063E-03
      0.325000          0.147160E-03
      0.330000          0.139988E-03
      0.335000          0.133517E-03
      0.340000          0.127711E-03
      0.345000          0.122533E-03
      0.350000          0.117938E-03
      0.355000          0.113879E-03
      0.360000          0.110302E-03
      0.365000          0.107149E-03
      0.370000          0.104359E-03
      0.375000          0.101868E-03
      0.380000          0.996147E-04
      0.385000          0.975417E-04
      0.390000          0.955979E-04
      0.395000          0.937413E-04
      0.400000          0.919412E-04
      0.405000          0.901791E-04
      0.410000          0.884488E-04
      0.415000          0.867558E-04
      0.420000          0.851156E-04
      0.425000          0.835514E-04
      0.430000          0.820909E-04
      0.435000          0.807634E-04
      0.440000          0.795961E-04
      0.445000          0.786117E-04
      0.450000          0.778254E-04
      0.455000          0.772436E-04
      0.460000          0.768628E-04
      0.465000          0.766695E-04
      0.470000          0.766414E-04
      0.475000          0.767487E-04
      0.480000          0.769563E-04
      0.485000          0.772265E-04
      0.490000          0.775219E-04
      0.495000          0.778075E-04
      0.500000          0.780535E-04
