 I_abs(s)[cm^-1]/c[mg/ml]
       0.00000          0.143815E-01
      0.500000E-02      0.143122E-01
      0.100000E-01      0.141067E-01
      0.150000E-01      0.137715E-01
      0.200000E-01      0.133174E-01
      0.250000E-01      0.127585E-01
      0.300000E-01      0.121118E-01
      0.350000E-01      0.113962E-01
      0.400000E-01      0.106317E-01
      0.450000E-01      0.983845E-02
      0.500000E-01      0.903591E-02
      0.550000E-01      0.824197E-02
      0.600000E-01      0.747240E-02
      0.650000E-01      0.674030E-02
      0.700000E-01      0.605584E-02
      0.750000E-01      0.542609E-02
      0.800000E-01      0.485513E-02
      0.850000E-01      0.434421E-02
      0.900000E-01      0.389213E-02
      0.950000E-01      0.349568E-02
      0.100000          0.315012E-02
      0.105000          0.284974E-02
      0.110000          0.258834E-02
      0.115000          0.235966E-02
      0.120000          0.215781E-02
      0.125000          0.197752E-02
      0.130000          0.181436E-02
      0.135000          0.166483E-02
      0.140000          0.152636E-02
      0.145000          0.139722E-02
      0.150000          0.127647E-02
      0.155000          0.116369E-02
      0.160000          0.105889E-02
      0.165000          0.962277E-03
      0.170000          0.874121E-03
      0.175000          0.794606E-03
      0.180000          0.723746E-03
      0.185000          0.661324E-03
      0.190000          0.606880E-03
      0.195000          0.559727E-03
      0.200000          0.518999E-03
      0.205000          0.483712E-03
      0.210000          0.452838E-03
      0.215000          0.425375E-03
      0.220000          0.400411E-03
      0.225000          0.377178E-03
      0.230000          0.355078E-03
      0.235000          0.333705E-03
      0.240000          0.312836E-03
      0.245000          0.292415E-03
      0.250000          0.272519E-03
      0.255000          0.253323E-03
      0.260000          0.235056E-03
      0.265000          0.217962E-03
      0.270000          0.202266E-03
      0.275000          0.188143E-03
      0.280000          0.175703E-03
      0.285000          0.164982E-03
      0.290000          0.155939E-03
      0.295000          0.148467E-03
      0.300000          0.142404E-03
      0.305000          0.137552E-03
      0.310000          0.133694E-03
      0.315000          0.130613E-03
      0.320000          0.128106E-03
      0.325000          0.125998E-03
      0.330000          0.124150E-03
      0.335000          0.122461E-03
      0.340000          0.120869E-03
      0.345000          0.119349E-03
      0.350000          0.117906E-03
      0.355000          0.116567E-03
      0.360000          0.115372E-03
      0.365000          0.114368E-03
      0.370000          0.113601E-03
      0.375000          0.113107E-03
      0.380000          0.112912E-03
      0.385000          0.113026E-03
      0.390000          0.113441E-03
      0.395000          0.114133E-03
      0.400000          0.115063E-03
      0.405000          0.116178E-03
      0.410000          0.117414E-03
      0.415000          0.118703E-03
      0.420000          0.119969E-03
      0.425000          0.121140E-03
      0.430000          0.122147E-03
      0.435000          0.122926E-03
      0.440000          0.123426E-03
      0.445000          0.123607E-03
      0.450000          0.123441E-03
      0.455000          0.122918E-03
      0.460000          0.122043E-03
      0.465000          0.120836E-03
      0.470000          0.119329E-03
      0.475000          0.117569E-03
      0.480000          0.115612E-03
      0.485000          0.113517E-03
      0.490000          0.111352E-03
      0.495000          0.109178E-03
      0.500000          0.107057E-03
