 I_abs(s)[cm^-1]/c[mg/ml]
       0.00000          0.142556E-01
      0.500000E-02      0.141947E-01
      0.100000E-01      0.140139E-01
      0.150000E-01      0.137183E-01
      0.200000E-01      0.133161E-01
      0.250000E-01      0.128182E-01
      0.300000E-01      0.122380E-01
      0.350000E-01      0.115901E-01
      0.400000E-01      0.108905E-01
      0.450000E-01      0.101553E-01
      0.500000E-01      0.940043E-02
      0.550000E-01      0.864090E-02
      0.600000E-01      0.789041E-02
      0.650000E-01      0.716097E-02
      0.700000E-01      0.646264E-02
      0.750000E-01      0.580341E-02
      0.800000E-01      0.518914E-02
      0.850000E-01      0.462371E-02
      0.900000E-01      0.410913E-02
      0.950000E-01      0.364579E-02
      0.100000          0.323268E-02
      0.105000          0.286773E-02
      0.110000          0.254802E-02
      0.115000          0.227005E-02
      0.120000          0.203000E-02
      0.125000          0.182386E-02
      0.130000          0.164764E-02
      0.135000          0.149747E-02
      0.140000          0.136965E-02
      0.145000          0.126075E-02
      0.150000          0.116764E-02
      0.155000          0.108749E-02
      0.160000          0.101778E-02
      0.165000          0.956325E-03
      0.170000          0.901252E-03
      0.175000          0.850995E-03
      0.180000          0.804290E-03
      0.185000          0.760155E-03
      0.190000          0.717872E-03
      0.195000          0.676963E-03
      0.200000          0.637161E-03
      0.205000          0.598375E-03
      0.210000          0.560653E-03
      0.215000          0.524143E-03
      0.220000          0.489053E-03
      0.225000          0.455617E-03
      0.230000          0.424062E-03
      0.235000          0.394580E-03
      0.240000          0.367311E-03
      0.245000          0.342331E-03
      0.250000          0.319649E-03
      0.255000          0.299206E-03
      0.260000          0.280886E-03
      0.265000          0.264526E-03
      0.270000          0.249931E-03
      0.275000          0.236886E-03
      0.280000          0.225172E-03
      0.285000          0.214576E-03
      0.290000          0.204899E-03
      0.295000          0.195966E-03
      0.300000          0.187627E-03
      0.305000          0.179758E-03
      0.310000          0.172261E-03
      0.315000          0.165064E-03
      0.320000          0.158113E-03
      0.325000          0.151375E-03
      0.330000          0.144833E-03
      0.335000          0.138483E-03
      0.340000          0.132333E-03
      0.345000          0.126398E-03
      0.350000          0.120706E-03
      0.355000          0.115289E-03
      0.360000          0.110185E-03
      0.365000          0.105433E-03
      0.370000          0.101077E-03
      0.375000          0.971541E-04
      0.380000          0.937002E-04
      0.385000          0.907418E-04
      0.390000          0.882951E-04
      0.395000          0.863640E-04
      0.400000          0.849383E-04
      0.405000          0.839929E-04
      0.410000          0.834888E-04
      0.415000          0.833734E-04
      0.420000          0.835835E-04
      0.425000          0.840476E-04
      0.430000          0.846895E-04
      0.435000          0.854320E-04
      0.440000          0.862002E-04
      0.445000          0.869253E-04
      0.450000          0.875474E-04
      0.455000          0.880178E-04
      0.460000          0.883005E-04
      0.465000          0.883732E-04
      0.470000          0.882270E-04
      0.475000          0.878658E-04
      0.480000          0.873051E-04
      0.485000          0.865698E-04
      0.490000          0.856920E-04
      0.495000          0.847091E-04
      0.500000          0.836606E-04
