 I_abs(s)[cm^-1]/c[mg/ml]
       0.00000          0.144446E-01
      0.500000E-02      0.143871E-01
      0.100000E-01      0.142160E-01
      0.150000E-01      0.139352E-01
      0.200000E-01      0.135517E-01
      0.250000E-01      0.130743E-01
      0.300000E-01      0.125140E-01
      0.350000E-01      0.118834E-01
      0.400000E-01      0.111962E-01
      0.450000E-01      0.104669E-01
      0.500000E-01      0.971007E-02
      0.550000E-01      0.894001E-02
      0.600000E-01      0.817038E-02
      0.650000E-01      0.741372E-02
      0.700000E-01      0.668120E-02
      0.750000E-01      0.598234E-02
      0.800000E-01      0.532486E-02
      0.850000E-01      0.471459E-02
      0.900000E-01      0.415550E-02
      0.950000E-01      0.364974E-02
      0.100000          0.319781E-02
      0.105000          0.279871E-02
      0.110000          0.245022E-02
      0.115000          0.214908E-02
      0.120000          0.189133E-02
      0.125000          0.167252E-02
      0.130000          0.148796E-02
      0.135000          0.133296E-02
      0.140000          0.120297E-02
      0.145000          0.109378E-02
      0.150000          0.100160E-02
      0.155000          0.923124E-03
      0.160000          0.855562E-03
      0.165000          0.796654E-03
      0.170000          0.744623E-03
      0.175000          0.698128E-03
      0.180000          0.656202E-03
      0.185000          0.618173E-03
      0.190000          0.583593E-03
      0.195000          0.552164E-03
      0.200000          0.523680E-03
      0.205000          0.497969E-03
      0.210000          0.474854E-03
      0.215000          0.454132E-03
      0.220000          0.435555E-03
      0.225000          0.418832E-03
      0.230000          0.403630E-03
      0.235000          0.389597E-03
      0.240000          0.376374E-03
      0.245000          0.363617E-03
      0.250000          0.351017E-03
      0.255000          0.338315E-03
      0.260000          0.325320E-03
      0.265000          0.311910E-03
      0.270000          0.298040E-03
      0.275000          0.283737E-03
      0.280000          0.269094E-03
      0.285000          0.254257E-03
      0.290000          0.239413E-03
      0.295000          0.224773E-03
      0.300000          0.210556E-03
      0.305000          0.196978E-03
      0.310000          0.184230E-03
      0.315000          0.172477E-03
      0.320000          0.161843E-03
      0.325000          0.152408E-03
      0.330000          0.144208E-03
      0.335000          0.137236E-03
      0.340000          0.131442E-03
      0.345000          0.126745E-03
      0.350000          0.123034E-03
      0.355000          0.120183E-03
      0.360000          0.118052E-03
      0.365000          0.116501E-03
      0.370000          0.115392E-03
      0.375000          0.114599E-03
      0.380000          0.114010E-03
      0.385000          0.113532E-03
      0.390000          0.113090E-03
      0.395000          0.112629E-03
      0.400000          0.112113E-03
      0.405000          0.111523E-03
      0.410000          0.110852E-03
      0.415000          0.110105E-03
      0.420000          0.109296E-03
      0.425000          0.108440E-03
      0.430000          0.107556E-03
      0.435000          0.106661E-03
      0.440000          0.105769E-03
      0.445000          0.104890E-03
      0.450000          0.104030E-03
      0.455000          0.103188E-03
      0.460000          0.102360E-03
      0.465000          0.101537E-03
      0.470000          0.100706E-03
      0.475000          0.998547E-04
      0.480000          0.989684E-04
      0.485000          0.980338E-04
      0.490000          0.970390E-04
      0.495000          0.959749E-04
      0.500000          0.948357E-04
