 I_abs(s)[cm^-1]/c[mg/ml]
       0.00000          0.145873E-01
      0.500000E-02      0.145312E-01
      0.100000E-01      0.143642E-01
      0.150000E-01      0.140902E-01
      0.200000E-01      0.137154E-01
      0.250000E-01      0.132484E-01
      0.300000E-01      0.126996E-01
      0.350000E-01      0.120808E-01
      0.400000E-01      0.114050E-01
      0.450000E-01      0.106861E-01
      0.500000E-01      0.993798E-02
      0.550000E-01      0.917440E-02
      0.600000E-01      0.840857E-02
      0.650000E-01      0.765270E-02
      0.700000E-01      0.691779E-02
      0.750000E-01      0.621329E-02
      0.800000E-01      0.554702E-02
      0.850000E-01      0.492502E-02
      0.900000E-01      0.435157E-02
      0.950000E-01      0.382924E-02
      0.100000          0.335896E-02
      0.105000          0.294022E-02
      0.110000          0.257127E-02
      0.115000          0.224934E-02
      0.120000          0.197087E-02
      0.125000          0.173178E-02
      0.130000          0.152767E-02
      0.135000          0.135405E-02
      0.140000          0.120654E-02
      0.145000          0.108101E-02
      0.150000          0.973658E-03
      0.155000          0.881170E-03
      0.160000          0.800701E-03
      0.165000          0.729911E-03
      0.170000          0.666947E-03
      0.175000          0.610404E-03
      0.180000          0.559267E-03
      0.185000          0.512850E-03
      0.190000          0.470718E-03
      0.195000          0.432621E-03
      0.200000          0.398426E-03
      0.205000          0.368057E-03
      0.210000          0.341448E-03
      0.215000          0.318509E-03
      0.220000          0.299101E-03
      0.225000          0.283022E-03
      0.230000          0.270007E-03
      0.235000          0.259734E-03
      0.240000          0.251835E-03
      0.245000          0.245916E-03
      0.250000          0.241573E-03
      0.255000          0.238412E-03
      0.260000          0.236066E-03
      0.265000          0.234206E-03
      0.270000          0.232555E-03
      0.275000          0.230893E-03
      0.280000          0.229056E-03
      0.285000          0.226937E-03
      0.290000          0.224480E-03
      0.295000          0.221670E-03
      0.300000          0.218528E-03
      0.305000          0.215098E-03
      0.310000          0.211438E-03
      0.315000          0.207613E-03
      0.320000          0.203685E-03
      0.325000          0.199710E-03
      0.330000          0.195731E-03
      0.335000          0.191781E-03
      0.340000          0.187877E-03
      0.345000          0.184028E-03
      0.350000          0.180230E-03
      0.355000          0.176474E-03
      0.360000          0.172749E-03
      0.365000          0.169042E-03
      0.370000          0.165341E-03
      0.375000          0.161643E-03
      0.380000          0.157946E-03
      0.385000          0.154255E-03
      0.390000          0.150584E-03
      0.395000          0.146947E-03
      0.400000          0.143364E-03
      0.405000          0.139856E-03
      0.410000          0.136444E-03
      0.415000          0.133145E-03
      0.420000          0.129976E-03
      0.425000          0.126944E-03
      0.430000          0.124055E-03
      0.435000          0.121307E-03
      0.440000          0.118694E-03
      0.445000          0.116205E-03
      0.450000          0.113825E-03
      0.455000          0.111538E-03
      0.460000          0.109328E-03
      0.465000          0.107178E-03
      0.470000          0.105077E-03
      0.475000          0.103014E-03
      0.480000          0.100984E-03
      0.485000          0.989863E-04
      0.490000          0.970254E-04
      0.495000          0.951095E-04
      0.500000          0.932508E-04
