 I_abs(s)[cm^-1]/c[mg/ml]
       0.00000          0.147226E-01
      0.500000E-02      0.146667E-01
      0.100000E-01      0.145004E-01
      0.150000E-01      0.142276E-01
      0.200000E-01      0.138548E-01
      0.250000E-01      0.133907E-01
      0.300000E-01      0.128459E-01
      0.350000E-01      0.122323E-01
      0.400000E-01      0.115632E-01
      0.450000E-01      0.108521E-01
      0.500000E-01      0.101129E-01
      0.550000E-01      0.935897E-02
      0.600000E-01      0.860311E-02
      0.650000E-01      0.785690E-02
      0.700000E-01      0.713062E-02
      0.750000E-01      0.643299E-02
      0.800000E-01      0.577102E-02
      0.850000E-01      0.515007E-02
      0.900000E-01      0.457377E-02
      0.950000E-01      0.404421E-02
      0.100000          0.356207E-02
      0.105000          0.312679E-02
      0.110000          0.273681E-02
      0.115000          0.238981E-02
      0.120000          0.208291E-02
      0.125000          0.181288E-02
      0.130000          0.157636E-02
      0.135000          0.136999E-02
      0.140000          0.119053E-02
      0.145000          0.103495E-02
      0.150000          0.900517E-03
      0.155000          0.784759E-03
      0.160000          0.685520E-03
      0.165000          0.600911E-03
      0.170000          0.529282E-03
      0.175000          0.469186E-03
      0.180000          0.419330E-03
      0.185000          0.378542E-03
      0.190000          0.345733E-03
      0.195000          0.319876E-03
      0.200000          0.299987E-03
      0.205000          0.285122E-03
      0.210000          0.274374E-03
      0.215000          0.266883E-03
      0.220000          0.261849E-03
      0.225000          0.258543E-03
      0.230000          0.256321E-03
      0.235000          0.254633E-03
      0.240000          0.253034E-03
      0.245000          0.251183E-03
      0.250000          0.248841E-03
      0.255000          0.245868E-03
      0.260000          0.242207E-03
      0.265000          0.237874E-03
      0.270000          0.232938E-03
      0.275000          0.227510E-03
      0.280000          0.221721E-03
      0.285000          0.215711E-03
      0.290000          0.209616E-03
      0.295000          0.203558E-03
      0.300000          0.197636E-03
      0.305000          0.191928E-03
      0.310000          0.186486E-03
      0.315000          0.181337E-03
      0.320000          0.176489E-03
      0.325000          0.171935E-03
      0.330000          0.167654E-03
      0.335000          0.163623E-03
      0.340000          0.159814E-03
      0.345000          0.156202E-03
      0.350000          0.152766E-03
      0.355000          0.149490E-03
      0.360000          0.146365E-03
      0.365000          0.143388E-03
      0.370000          0.140558E-03
      0.375000          0.137879E-03
      0.380000          0.135354E-03
      0.385000          0.132988E-03
      0.390000          0.130781E-03
      0.395000          0.128731E-03
      0.400000          0.126831E-03
      0.405000          0.125070E-03
      0.410000          0.123434E-03
      0.415000          0.121905E-03
      0.420000          0.120462E-03
      0.425000          0.119084E-03
      0.430000          0.117749E-03
      0.435000          0.116435E-03
      0.440000          0.115125E-03
      0.445000          0.113802E-03
      0.450000          0.112454E-03
      0.455000          0.111070E-03
      0.460000          0.109646E-03
      0.465000          0.108178E-03
      0.470000          0.106668E-03
      0.475000          0.105116E-03
      0.480000          0.103530E-03
      0.485000          0.101913E-03
      0.490000          0.100274E-03
      0.495000          0.986205E-04
      0.500000          0.969600E-04
