 I_abs(s)[cm^-1]/c[mg/ml]
       0.00000          0.145079E-01
      0.500000E-02      0.144585E-01
      0.100000E-01      0.143111E-01
      0.150000E-01      0.140690E-01
      0.200000E-01      0.137375E-01
      0.250000E-01      0.133234E-01
      0.300000E-01      0.128354E-01
      0.350000E-01      0.122832E-01
      0.400000E-01      0.116777E-01
      0.450000E-01      0.110301E-01
      0.500000E-01      0.103521E-01
      0.550000E-01      0.965518E-02
      0.600000E-01      0.895027E-02
      0.650000E-01      0.824769E-02
      0.700000E-01      0.755679E-02
      0.750000E-01      0.688579E-02
      0.800000E-01      0.624161E-02
      0.850000E-01      0.562988E-02
      0.900000E-01      0.505486E-02
      0.950000E-01      0.451953E-02
      0.100000          0.402563E-02
      0.105000          0.357380E-02
      0.110000          0.316373E-02
      0.115000          0.279430E-02
      0.120000          0.246375E-02
      0.125000          0.216985E-02
      0.130000          0.191002E-02
      0.135000          0.168152E-02
      0.140000          0.148154E-02
      0.145000          0.130726E-02
      0.150000          0.115601E-02
      0.155000          0.102525E-02
      0.160000          0.912604E-03
      0.165000          0.815934E-03
      0.170000          0.733285E-03
      0.175000          0.662902E-03
      0.180000          0.603206E-03
      0.185000          0.552784E-03
      0.190000          0.510362E-03
      0.195000          0.474789E-03
      0.200000          0.445024E-03
      0.205000          0.420119E-03
      0.210000          0.399215E-03
      0.215000          0.381537E-03
      0.220000          0.366387E-03
      0.225000          0.353151E-03
      0.230000          0.341296E-03
      0.235000          0.330372E-03
      0.240000          0.320010E-03
      0.245000          0.309927E-03
      0.250000          0.299918E-03
      0.255000          0.289850E-03
      0.260000          0.279661E-03
      0.265000          0.269343E-03
      0.270000          0.258938E-03
      0.275000          0.248523E-03
      0.280000          0.238201E-03
      0.285000          0.228087E-03
      0.290000          0.218297E-03
      0.295000          0.208944E-03
      0.300000          0.200123E-03
      0.305000          0.191912E-03
      0.310000          0.184364E-03
      0.315000          0.177507E-03
      0.320000          0.171343E-03
      0.325000          0.165853E-03
      0.330000          0.160995E-03
      0.335000          0.156712E-03
      0.340000          0.152935E-03
      0.345000          0.149587E-03
      0.350000          0.146588E-03
      0.355000          0.143862E-03
      0.360000          0.141335E-03
      0.365000          0.138943E-03
      0.370000          0.136632E-03
      0.375000          0.134358E-03
      0.380000          0.132091E-03
      0.385000          0.129810E-03
      0.390000          0.127505E-03
      0.395000          0.125174E-03
      0.400000          0.122824E-03
      0.405000          0.120464E-03
      0.410000          0.118107E-03
      0.415000          0.115769E-03
      0.420000          0.113461E-03
      0.425000          0.111196E-03
      0.430000          0.108982E-03
      0.435000          0.106825E-03
      0.440000          0.104725E-03
      0.445000          0.102682E-03
      0.450000          0.100690E-03
      0.455000          0.987418E-04
      0.460000          0.968294E-04
      0.465000          0.949435E-04
      0.470000          0.930759E-04
      0.475000          0.912192E-04
      0.480000          0.893688E-04
      0.485000          0.875221E-04
      0.490000          0.856801E-04
      0.495000          0.838467E-04
      0.500000          0.820289E-04
