 I_abs(s)[cm^-1]/c[mg/ml]
       0.00000          0.145793E-01
      0.500000E-02      0.145291E-01
      0.100000E-01      0.143797E-01
      0.150000E-01      0.141345E-01
      0.200000E-01      0.137990E-01
      0.250000E-01      0.133807E-01
      0.300000E-01      0.128887E-01
      0.350000E-01      0.123334E-01
      0.400000E-01      0.117260E-01
      0.450000E-01      0.110783E-01
      0.500000E-01      0.104022E-01
      0.550000E-01      0.970938E-02
      0.600000E-01      0.901077E-02
      0.650000E-01      0.831657E-02
      0.700000E-01      0.763579E-02
      0.750000E-01      0.697620E-02
      0.800000E-01      0.634418E-02
      0.850000E-01      0.574474E-02
      0.900000E-01      0.518151E-02
      0.950000E-01      0.465682E-02
      0.100000          0.417187E-02
      0.105000          0.372683E-02
      0.110000          0.332101E-02
      0.115000          0.295307E-02
      0.120000          0.262115E-02
      0.125000          0.232303E-02
      0.130000          0.205632E-02
      0.135000          0.181850E-02
      0.140000          0.160708E-02
      0.145000          0.141963E-02
      0.150000          0.125386E-02
      0.155000          0.110761E-02
      0.160000          0.978905E-03
      0.165000          0.865933E-03
      0.170000          0.767044E-03
      0.175000          0.680740E-03
      0.180000          0.605658E-03
      0.185000          0.540560E-03
      0.190000          0.484318E-03
      0.195000          0.435904E-03
      0.200000          0.394384E-03
      0.205000          0.358909E-03
      0.210000          0.328711E-03
      0.215000          0.303100E-03
      0.220000          0.281458E-03
      0.225000          0.263239E-03
      0.230000          0.247959E-03
      0.235000          0.235192E-03
      0.240000          0.224566E-03
      0.245000          0.215754E-03
      0.250000          0.208468E-03
      0.255000          0.202452E-03
      0.260000          0.197478E-03
      0.265000          0.193339E-03
      0.270000          0.189849E-03
      0.275000          0.186838E-03
      0.280000          0.184152E-03
      0.285000          0.181654E-03
      0.290000          0.179225E-03
      0.295000          0.176766E-03
      0.300000          0.174195E-03
      0.305000          0.171453E-03
      0.310000          0.168504E-03
      0.315000          0.165329E-03
      0.320000          0.161931E-03
      0.325000          0.158330E-03
      0.330000          0.154561E-03
      0.335000          0.150669E-03
      0.340000          0.146706E-03
      0.345000          0.142729E-03
      0.350000          0.138793E-03
      0.355000          0.134949E-03
      0.360000          0.131245E-03
      0.365000          0.127716E-03
      0.370000          0.124393E-03
      0.375000          0.121292E-03
      0.380000          0.118423E-03
      0.385000          0.115785E-03
      0.390000          0.113372E-03
      0.395000          0.111171E-03
      0.400000          0.109165E-03
      0.405000          0.107335E-03
      0.410000          0.105662E-03
      0.415000          0.104127E-03
      0.420000          0.102715E-03
      0.425000          0.101412E-03
      0.430000          0.100209E-03
      0.435000          0.990989E-04
      0.440000          0.980794E-04
      0.445000          0.971494E-04
      0.450000          0.963099E-04
      0.455000          0.955631E-04
      0.460000          0.949111E-04
      0.465000          0.943552E-04
      0.470000          0.938954E-04
      0.475000          0.935296E-04
      0.480000          0.932532E-04
      0.485000          0.930593E-04
      0.490000          0.929383E-04
      0.495000          0.928789E-04
      0.500000          0.928677E-04
