 I_abs(s)[cm^-1]/c[mg/ml]
       0.00000          0.147386E-01
      0.500000E-02      0.146883E-01
      0.100000E-01      0.145387E-01
      0.150000E-01      0.142926E-01
      0.200000E-01      0.139549E-01
      0.250000E-01      0.135323E-01
      0.300000E-01      0.130329E-01
      0.350000E-01      0.124663E-01
      0.400000E-01      0.118428E-01
      0.450000E-01      0.111736E-01
      0.500000E-01      0.104704E-01
      0.550000E-01      0.974477E-02
      0.600000E-01      0.900815E-02
      0.650000E-01      0.827145E-02
      0.700000E-01      0.754484E-02
      0.750000E-01      0.683750E-02
      0.800000E-01      0.615744E-02
      0.850000E-01      0.551143E-02
      0.900000E-01      0.490489E-02
      0.950000E-01      0.434184E-02
      0.100000          0.382498E-02
      0.105000          0.335569E-02
      0.110000          0.293419E-02
      0.115000          0.255961E-02
      0.120000          0.223018E-02
      0.125000          0.194335E-02
      0.130000          0.169603E-02
      0.135000          0.148468E-02
      0.140000          0.130555E-02
      0.145000          0.115477E-02
      0.150000          0.102852E-02
      0.155000          0.923121E-03
      0.160000          0.835152E-03
      0.165000          0.761496E-03
      0.170000          0.699395E-03
      0.175000          0.646472E-03
      0.180000          0.600737E-03
      0.185000          0.560570E-03
      0.190000          0.524703E-03
      0.195000          0.492174E-03
      0.200000          0.462293E-03
      0.205000          0.434590E-03
      0.210000          0.408769E-03
      0.215000          0.384664E-03
      0.220000          0.362198E-03
      0.225000          0.341345E-03
      0.230000          0.322099E-03
      0.235000          0.304456E-03
      0.240000          0.288394E-03
      0.245000          0.273865E-03
      0.250000          0.260789E-03
      0.255000          0.249056E-03
      0.260000          0.238530E-03
      0.265000          0.229057E-03
      0.270000          0.220470E-03
      0.275000          0.212601E-03
      0.280000          0.205288E-03
      0.285000          0.198385E-03
      0.290000          0.191765E-03
      0.295000          0.185323E-03
      0.300000          0.178985E-03
      0.305000          0.172701E-03
      0.310000          0.166449E-03
      0.315000          0.160230E-03
      0.320000          0.154064E-03
      0.325000          0.147988E-03
      0.330000          0.142047E-03
      0.335000          0.136294E-03
      0.340000          0.130780E-03
      0.345000          0.125556E-03
      0.350000          0.120664E-03
      0.355000          0.116139E-03
      0.360000          0.112003E-03
      0.365000          0.108268E-03
      0.370000          0.104935E-03
      0.375000          0.101992E-03
      0.380000          0.994204E-04
      0.385000          0.971910E-04
      0.390000          0.952706E-04
      0.395000          0.936213E-04
      0.400000          0.922039E-04
      0.405000          0.909790E-04
      0.410000          0.899092E-04
      0.415000          0.889601E-04
      0.420000          0.881017E-04
      0.425000          0.873087E-04
      0.430000          0.865612E-04
      0.435000          0.858444E-04
      0.440000          0.851488E-04
      0.445000          0.844689E-04
      0.450000          0.838032E-04
      0.455000          0.831534E-04
      0.460000          0.825229E-04
      0.465000          0.819165E-04
      0.470000          0.813395E-04
      0.475000          0.807967E-04
      0.480000          0.802920E-04
      0.485000          0.798279E-04
      0.490000          0.794050E-04
      0.495000          0.790222E-04
      0.500000          0.786764E-04
