 I_abs(s)[cm^-1]/c[mg/ml]
       0.00000          0.144130E-01
      0.500000E-02      0.143481E-01
      0.100000E-01      0.141553E-01
      0.150000E-01      0.138400E-01
      0.200000E-01      0.134111E-01
      0.250000E-01      0.128804E-01
      0.300000E-01      0.122624E-01
      0.350000E-01      0.115732E-01
      0.400000E-01      0.108301E-01
      0.450000E-01      0.100509E-01
      0.500000E-01      0.925327E-02
      0.550000E-01      0.845384E-02
      0.600000E-01      0.766794E-02
      0.650000E-01      0.690896E-02
      0.700000E-01      0.618812E-02
      0.750000E-01      0.551421E-02
      0.800000E-01      0.489352E-02
      0.850000E-01      0.432993E-02
      0.900000E-01      0.382502E-02
      0.950000E-01      0.337836E-02
      0.100000          0.298780E-02
      0.105000          0.264983E-02
      0.110000          0.235996E-02
      0.115000          0.211307E-02
      0.120000          0.190377E-02
      0.125000          0.172665E-02
      0.130000          0.157659E-02
      0.135000          0.144885E-02
      0.140000          0.133928E-02
      0.145000          0.124430E-02
      0.150000          0.116097E-02
      0.155000          0.108694E-02
      0.160000          0.102036E-02
      0.165000          0.959866E-03
      0.170000          0.904413E-03
      0.175000          0.853242E-03
      0.180000          0.805779E-03
      0.185000          0.761569E-03
      0.190000          0.720229E-03
      0.195000          0.681414E-03
      0.200000          0.644797E-03
      0.205000          0.610069E-03
      0.210000          0.576944E-03
      0.215000          0.545166E-03
      0.220000          0.514531E-03
      0.225000          0.484893E-03
      0.230000          0.456174E-03
      0.235000          0.428366E-03
      0.240000          0.401531E-03
      0.245000          0.375782E-03
      0.250000          0.351279E-03
      0.255000          0.328198E-03
      0.260000          0.306720E-03
      0.265000          0.287005E-03
      0.270000          0.269177E-03
      0.275000          0.253308E-03
      0.280000          0.239408E-03
      0.285000          0.227426E-03
      0.290000          0.217246E-03
      0.295000          0.208699E-03
      0.300000          0.201568E-03
      0.305000          0.195610E-03
      0.310000          0.190564E-03
      0.315000          0.186168E-03
      0.320000          0.182179E-03
      0.325000          0.178376E-03
      0.330000          0.174579E-03
      0.335000          0.170648E-03
      0.340000          0.166490E-03
      0.345000          0.162054E-03
      0.350000          0.157333E-03
      0.355000          0.152353E-03
      0.360000          0.147168E-03
      0.365000          0.141852E-03
      0.370000          0.136488E-03
      0.375000          0.131163E-03
      0.380000          0.125958E-03
      0.385000          0.120946E-03
      0.390000          0.116185E-03
      0.395000          0.111717E-03
      0.400000          0.107567E-03
      0.405000          0.103746E-03
      0.410000          0.100249E-03
      0.415000          0.970614E-04
      0.420000          0.941612E-04
      0.425000          0.915219E-04
      0.430000          0.891160E-04
      0.435000          0.869182E-04
      0.440000          0.849071E-04
      0.445000          0.830665E-04
      0.450000          0.813863E-04
      0.455000          0.798618E-04
      0.460000          0.784931E-04
      0.465000          0.772836E-04
      0.470000          0.762382E-04
      0.475000          0.753612E-04
      0.480000          0.746548E-04
      0.485000          0.741173E-04
      0.490000          0.737418E-04
      0.495000          0.735159E-04
      0.500000          0.734212E-04
