 I_abs(s)[cm^-1]/c[mg/ml]
       0.00000          0.143736E-01
      0.500000E-02      0.143125E-01
      0.100000E-01      0.141308E-01
      0.150000E-01      0.138335E-01
      0.200000E-01      0.134287E-01
      0.250000E-01      0.129272E-01
      0.300000E-01      0.123419E-01
      0.350000E-01      0.116876E-01
      0.400000E-01      0.109800E-01
      0.450000E-01      0.102352E-01
      0.500000E-01      0.946927E-02
      0.550000E-01      0.869738E-02
      0.600000E-01      0.793351E-02
      0.650000E-01      0.718999E-02
      0.700000E-01      0.647720E-02
      0.750000E-01      0.580345E-02
      0.800000E-01      0.517490E-02
      0.850000E-01      0.459560E-02
      0.900000E-01      0.406767E-02
      0.950000E-01      0.359147E-02
      0.100000          0.316592E-02
      0.105000          0.278876E-02
      0.110000          0.245688E-02
      0.115000          0.216660E-02
      0.120000          0.191393E-02
      0.125000          0.169481E-02
      0.130000          0.150530E-02
      0.135000          0.134168E-02
      0.140000          0.120058E-02
      0.145000          0.107898E-02
      0.150000          0.974259E-03
      0.155000          0.884138E-03
      0.160000          0.806664E-03
      0.165000          0.740158E-03
      0.170000          0.683161E-03
      0.175000          0.634391E-03
      0.180000          0.592703E-03
      0.185000          0.557058E-03
      0.190000          0.526508E-03
      0.195000          0.500184E-03
      0.200000          0.477297E-03
      0.205000          0.457140E-03
      0.210000          0.439094E-03
      0.215000          0.422636E-03
      0.220000          0.407341E-03
      0.225000          0.392880E-03
      0.230000          0.379020E-03
      0.235000          0.365611E-03
      0.240000          0.352574E-03
      0.245000          0.339887E-03
      0.250000          0.327570E-03
      0.255000          0.315664E-03
      0.260000          0.304220E-03
      0.265000          0.293285E-03
      0.270000          0.282896E-03
      0.275000          0.273070E-03
      0.280000          0.263804E-03
      0.285000          0.255080E-03
      0.290000          0.246862E-03
      0.295000          0.239103E-03
      0.300000          0.231754E-03
      0.305000          0.224764E-03
      0.310000          0.218091E-03
      0.315000          0.211697E-03
      0.320000          0.205559E-03
      0.325000          0.199662E-03
      0.330000          0.194001E-03
      0.335000          0.188582E-03
      0.340000          0.183411E-03
      0.345000          0.178498E-03
      0.350000          0.173850E-03
      0.355000          0.169472E-03
      0.360000          0.165358E-03
      0.365000          0.161497E-03
      0.370000          0.157870E-03
      0.375000          0.154451E-03
      0.380000          0.151204E-03
      0.385000          0.148095E-03
      0.390000          0.145084E-03
      0.395000          0.142133E-03
      0.400000          0.139208E-03
      0.405000          0.136281E-03
      0.410000          0.133330E-03
      0.415000          0.130342E-03
      0.420000          0.127315E-03
      0.425000          0.124252E-03
      0.430000          0.121168E-03
      0.435000          0.118083E-03
      0.440000          0.115026E-03
      0.445000          0.112026E-03
      0.450000          0.109116E-03
      0.455000          0.106329E-03
      0.460000          0.103696E-03
      0.465000          0.101242E-03
      0.470000          0.989902E-04
      0.475000          0.969556E-04
      0.480000          0.951469E-04
      0.485000          0.935659E-04
      0.490000          0.922075E-04
      0.495000          0.910609E-04
      0.500000          0.901096E-04
