 I_abs(s)[cm^-1]/c[mg/ml]
       0.00000          0.143106E-01
      0.500000E-02      0.142476E-01
      0.100000E-01      0.140607E-01
      0.150000E-01      0.137552E-01
      0.200000E-01      0.133399E-01
      0.250000E-01      0.128267E-01
      0.300000E-01      0.122298E-01
      0.350000E-01      0.115650E-01
      0.400000E-01      0.108493E-01
      0.450000E-01      0.101003E-01
      0.500000E-01      0.933479E-02
      0.550000E-01      0.856891E-02
      0.600000E-01      0.781717E-02
      0.650000E-01      0.709212E-02
      0.700000E-01      0.640408E-02
      0.750000E-01      0.576092E-02
      0.800000E-01      0.516807E-02
      0.850000E-01      0.462859E-02
      0.900000E-01      0.414336E-02
      0.950000E-01      0.371141E-02
      0.100000          0.333018E-02
      0.105000          0.299597E-02
      0.110000          0.270427E-02
      0.115000          0.245013E-02
      0.120000          0.222847E-02
      0.125000          0.203439E-02
      0.130000          0.186332E-02
      0.135000          0.171124E-02
      0.140000          0.157471E-02
      0.145000          0.145090E-02
      0.150000          0.133763E-02
      0.155000          0.123325E-02
      0.160000          0.113660E-02
      0.165000          0.104691E-02
      0.170000          0.963700E-03
      0.175000          0.886675E-03
      0.180000          0.815664E-03
      0.185000          0.750544E-03
      0.190000          0.691190E-03
      0.195000          0.637444E-03
      0.200000          0.589096E-03
      0.205000          0.545877E-03
      0.210000          0.507464E-03
      0.215000          0.473491E-03
      0.220000          0.443558E-03
      0.225000          0.417250E-03
      0.230000          0.394144E-03
      0.235000          0.373823E-03
      0.240000          0.355883E-03
      0.245000          0.339939E-03
      0.250000          0.325630E-03
      0.255000          0.312621E-03
      0.260000          0.300604E-03
      0.265000          0.289306E-03
      0.270000          0.278487E-03
      0.275000          0.267948E-03
      0.280000          0.257530E-03
      0.285000          0.247118E-03
      0.290000          0.236648E-03
      0.295000          0.226098E-03
      0.300000          0.215492E-03
      0.305000          0.204895E-03
      0.310000          0.194404E-03
      0.315000          0.184140E-03
      0.320000          0.174238E-03
      0.325000          0.164832E-03
      0.330000          0.156049E-03
      0.335000          0.147994E-03
      0.340000          0.140745E-03
      0.345000          0.134344E-03
      0.350000          0.128796E-03
      0.355000          0.124070E-03
      0.360000          0.120099E-03
      0.365000          0.116790E-03
      0.370000          0.114033E-03
      0.375000          0.111703E-03
      0.380000          0.109681E-03
      0.385000          0.107853E-03
      0.390000          0.106124E-03
      0.395000          0.104423E-03
      0.400000          0.102704E-03
      0.405000          0.100947E-03
      0.410000          0.991608E-04
      0.415000          0.973710E-04
      0.420000          0.956206E-04
      0.425000          0.939597E-04
      0.430000          0.924391E-04
      0.435000          0.911030E-04
      0.440000          0.899829E-04
      0.445000          0.890936E-04
      0.450000          0.884298E-04
      0.455000          0.879668E-04
      0.460000          0.876609E-04
      0.465000          0.874537E-04
      0.470000          0.872767E-04
      0.475000          0.870567E-04
      0.480000          0.867226E-04
      0.485000          0.862108E-04
      0.490000          0.854707E-04
      0.495000          0.844690E-04
      0.500000          0.831916E-04
