 I_abs(s)[cm^-1]/c[mg/ml]
       0.00000          0.144525E-01
      0.500000E-02      0.143992E-01
      0.100000E-01      0.142404E-01
      0.150000E-01      0.139801E-01
      0.200000E-01      0.136246E-01
      0.250000E-01      0.131823E-01
      0.300000E-01      0.126634E-01
      0.350000E-01      0.120796E-01
      0.400000E-01      0.114436E-01
      0.450000E-01      0.107682E-01
      0.500000E-01      0.100667E-01
      0.550000E-01      0.935163E-02
      0.600000E-01      0.863490E-02
      0.650000E-01      0.792728E-02
      0.700000E-01      0.723817E-02
      0.750000E-01      0.657548E-02
      0.800000E-01      0.594554E-02
      0.850000E-01      0.535307E-02
      0.900000E-01      0.480131E-02
      0.950000E-01      0.429206E-02
      0.100000          0.382592E-02
      0.105000          0.340243E-02
      0.110000          0.302029E-02
      0.115000          0.267757E-02
      0.120000          0.237187E-02
      0.125000          0.210055E-02
      0.130000          0.186082E-02
      0.135000          0.164986E-02
      0.140000          0.146494E-02
      0.145000          0.130346E-02
      0.150000          0.116298E-02
      0.155000          0.104125E-02
      0.160000          0.936186E-03
      0.165000          0.845879E-03
      0.170000          0.768582E-03
      0.175000          0.702687E-03
      0.180000          0.646712E-03
      0.185000          0.599290E-03
      0.190000          0.559163E-03
      0.195000          0.525177E-03
      0.200000          0.496280E-03
      0.205000          0.471526E-03
      0.210000          0.450074E-03
      0.215000          0.431191E-03
      0.220000          0.414252E-03
      0.225000          0.398736E-03
      0.230000          0.384223E-03
      0.235000          0.370384E-03
      0.240000          0.356973E-03
      0.245000          0.343820E-03
      0.250000          0.330809E-03
      0.255000          0.317878E-03
      0.260000          0.305000E-03
      0.265000          0.292178E-03
      0.270000          0.279431E-03
      0.275000          0.266793E-03
      0.280000          0.254307E-03
      0.285000          0.242017E-03
      0.290000          0.229973E-03
      0.295000          0.218222E-03
      0.300000          0.206814E-03
      0.305000          0.195797E-03
      0.310000          0.185216E-03
      0.315000          0.175116E-03
      0.320000          0.165539E-03
      0.325000          0.156519E-03
      0.330000          0.148089E-03
      0.335000          0.140271E-03
      0.340000          0.133080E-03
      0.345000          0.126520E-03
      0.350000          0.120587E-03
      0.355000          0.115267E-03
      0.360000          0.110535E-03
      0.365000          0.106360E-03
      0.370000          0.102700E-03
      0.375000          0.995129E-04
      0.380000          0.967497E-04
      0.385000          0.943617E-04
      0.390000          0.923004E-04
      0.395000          0.905198E-04
      0.400000          0.889777E-04
      0.405000          0.876369E-04
      0.410000          0.864658E-04
      0.415000          0.854386E-04
      0.420000          0.845353E-04
      0.425000          0.837415E-04
      0.430000          0.830473E-04
      0.435000          0.824466E-04
      0.440000          0.819362E-04
      0.445000          0.815144E-04
      0.450000          0.811803E-04
      0.455000          0.809325E-04
      0.460000          0.807687E-04
      0.465000          0.806848E-04
      0.470000          0.806746E-04
      0.475000          0.807299E-04
      0.480000          0.808404E-04
      0.485000          0.809940E-04
      0.490000          0.811775E-04
      0.495000          0.813767E-04
      0.500000          0.815779E-04
