 I_abs(s)[cm^-1]/c[mg/ml]
       0.00000          0.144051E-01
      0.500000E-02      0.143463E-01
      0.100000E-01      0.141714E-01
      0.150000E-01      0.138853E-01
      0.200000E-01      0.134955E-01
      0.250000E-01      0.130125E-01
      0.300000E-01      0.124485E-01
      0.350000E-01      0.118176E-01
      0.400000E-01      0.111347E-01
      0.450000E-01      0.104154E-01
      0.500000E-01      0.967486E-02
      0.550000E-01      0.892751E-02
      0.600000E-01      0.818667E-02
      0.650000E-01      0.746407E-02
      0.700000E-01      0.676953E-02
      0.750000E-01      0.611090E-02
      0.800000E-01      0.549394E-02
      0.850000E-01      0.492240E-02
      0.900000E-01      0.439817E-02
      0.950000E-01      0.392148E-02
      0.100000          0.349120E-02
      0.105000          0.310510E-02
      0.110000          0.276019E-02
      0.115000          0.245300E-02
      0.120000          0.217983E-02
      0.125000          0.193703E-02
      0.130000          0.172110E-02
      0.135000          0.152889E-02
      0.140000          0.135762E-02
      0.145000          0.120493E-02
      0.150000          0.106888E-02
      0.155000          0.947886E-03
      0.160000          0.840659E-03
      0.165000          0.746153E-03
      0.170000          0.663472E-03
      0.175000          0.591812E-03
      0.180000          0.530398E-03
      0.185000          0.478452E-03
      0.190000          0.435160E-03
      0.195000          0.399671E-03
      0.200000          0.371095E-03
      0.205000          0.348528E-03
      0.210000          0.331065E-03
      0.215000          0.317832E-03
      0.220000          0.308009E-03
      0.225000          0.300848E-03
      0.230000          0.295692E-03
      0.235000          0.291979E-03
      0.240000          0.289247E-03
      0.245000          0.287124E-03
      0.250000          0.285322E-03
      0.255000          0.283620E-03
      0.260000          0.281850E-03
      0.265000          0.279879E-03
      0.270000          0.277600E-03
      0.275000          0.274919E-03
      0.280000          0.271752E-03
      0.285000          0.268019E-03
      0.290000          0.263645E-03
      0.295000          0.258568E-03
      0.300000          0.252742E-03
      0.305000          0.246143E-03
      0.310000          0.238776E-03
      0.315000          0.230679E-03
      0.320000          0.221924E-03
      0.325000          0.212620E-03
      0.330000          0.202905E-03
      0.335000          0.192944E-03
      0.340000          0.182917E-03
      0.345000          0.173014E-03
      0.350000          0.163419E-03
      0.355000          0.154306E-03
      0.360000          0.145824E-03
      0.365000          0.138095E-03
      0.370000          0.131204E-03
      0.375000          0.125201E-03
      0.380000          0.120096E-03
      0.385000          0.115865E-03
      0.390000          0.112455E-03
      0.395000          0.109786E-03
      0.400000          0.107762E-03
      0.405000          0.106274E-03
      0.410000          0.105214E-03
      0.415000          0.104475E-03
      0.420000          0.103959E-03
      0.425000          0.103581E-03
      0.430000          0.103274E-03
      0.435000          0.102983E-03
      0.440000          0.102675E-03
      0.445000          0.102326E-03
      0.450000          0.101928E-03
      0.455000          0.101481E-03
      0.460000          0.100994E-03
      0.465000          0.100475E-03
      0.470000          0.999359E-04
      0.475000          0.993871E-04
      0.480000          0.988354E-04
      0.485000          0.982843E-04
      0.490000          0.977334E-04
      0.495000          0.971787E-04
      0.500000          0.966137E-04
