 I_abs(s)[cm^-1]/c[mg/ml]
       0.00000          0.145396E-01
      0.500000E-02      0.144962E-01
      0.100000E-01      0.143668E-01
      0.150000E-01      0.141536E-01
      0.200000E-01      0.138606E-01
      0.250000E-01      0.134931E-01
      0.300000E-01      0.130573E-01
      0.350000E-01      0.125609E-01
      0.400000E-01      0.120121E-01
      0.450000E-01      0.114198E-01
      0.500000E-01      0.107932E-01
      0.550000E-01      0.101417E-01
      0.600000E-01      0.947446E-02
      0.650000E-01      0.880041E-02
      0.700000E-01      0.812790E-02
      0.750000E-01      0.746464E-02
      0.800000E-01      0.681751E-02
      0.850000E-01      0.619252E-02
      0.900000E-01      0.559470E-02
      0.950000E-01      0.502815E-02
      0.100000          0.449596E-02
      0.105000          0.400031E-02
      0.110000          0.354252E-02
      0.115000          0.312308E-02
      0.120000          0.274181E-02
      0.125000          0.239790E-02
      0.130000          0.209005E-02
      0.135000          0.181654E-02
      0.140000          0.157536E-02
      0.145000          0.136426E-02
      0.150000          0.118088E-02
      0.155000          0.102278E-02
      0.160000          0.887524E-03
      0.165000          0.772711E-03
      0.170000          0.676030E-03
      0.175000          0.595284E-03
      0.180000          0.528407E-03
      0.185000          0.473486E-03
      0.190000          0.428761E-03
      0.195000          0.392634E-03
      0.200000          0.363669E-03
      0.205000          0.340583E-03
      0.210000          0.322251E-03
      0.215000          0.307689E-03
      0.220000          0.296054E-03
      0.225000          0.286632E-03
      0.230000          0.278828E-03
      0.235000          0.272160E-03
      0.240000          0.266242E-03
      0.245000          0.260780E-03
      0.250000          0.255555E-03
      0.255000          0.250417E-03
      0.260000          0.245272E-03
      0.265000          0.240067E-03
      0.270000          0.234788E-03
      0.275000          0.229443E-03
      0.280000          0.224060E-03
      0.285000          0.218675E-03
      0.290000          0.213326E-03
      0.295000          0.208054E-03
      0.300000          0.202893E-03
      0.305000          0.197869E-03
      0.310000          0.193002E-03
      0.315000          0.188303E-03
      0.320000          0.183775E-03
      0.325000          0.179414E-03
      0.330000          0.175209E-03
      0.335000          0.171147E-03
      0.340000          0.167212E-03
      0.345000          0.163386E-03
      0.350000          0.159650E-03
      0.355000          0.155989E-03
      0.360000          0.152388E-03
      0.365000          0.148835E-03
      0.370000          0.145321E-03
      0.375000          0.141842E-03
      0.380000          0.138395E-03
      0.385000          0.134982E-03
      0.390000          0.131609E-03
      0.395000          0.128284E-03
      0.400000          0.125018E-03
      0.405000          0.121828E-03
      0.410000          0.118729E-03
      0.415000          0.115742E-03
      0.420000          0.112887E-03
      0.425000          0.110186E-03
      0.430000          0.107663E-03
      0.435000          0.105339E-03
      0.440000          0.103234E-03
      0.445000          0.101366E-03
      0.450000          0.997504E-04
      0.455000          0.983972E-04
      0.460000          0.973118E-04
      0.465000          0.964938E-04
      0.470000          0.959369E-04
      0.475000          0.956281E-04
      0.480000          0.955484E-04
      0.485000          0.956727E-04
      0.490000          0.959703E-04
      0.495000          0.964059E-04
      0.500000          0.969408E-04
