 I_abs(s)[cm^-1]/c[mg/ml]
       0.00000          0.142007E-01
      0.500000E-02      0.141348E-01
      0.100000E-01      0.139391E-01
      0.150000E-01      0.136192E-01
      0.200000E-01      0.131841E-01
      0.250000E-01      0.126459E-01
      0.300000E-01      0.120193E-01
      0.350000E-01      0.113207E-01
      0.400000E-01      0.105680E-01
      0.450000E-01      0.977950E-02
      0.500000E-01      0.897346E-02
      0.550000E-01      0.816720E-02
      0.600000E-01      0.737667E-02
      0.650000E-01      0.661591E-02
      0.700000E-01      0.589669E-02
      0.750000E-01      0.522825E-02
      0.800000E-01      0.461722E-02
      0.850000E-01      0.406760E-02
      0.900000E-01      0.358092E-02
      0.950000E-01      0.315647E-02
      0.100000          0.279160E-02
      0.105000          0.248211E-02
      0.110000          0.222266E-02
      0.115000          0.200715E-02
      0.120000          0.182911E-02
      0.125000          0.168210E-02
      0.130000          0.155995E-02
      0.135000          0.145704E-02
      0.140000          0.136848E-02
      0.145000          0.129017E-02
      0.150000          0.121888E-02
      0.155000          0.115222E-02
      0.160000          0.108857E-02
      0.165000          0.102698E-02
      0.170000          0.967054E-03
      0.175000          0.908793E-03
      0.180000          0.852476E-03
      0.185000          0.798531E-03
      0.190000          0.747416E-03
      0.195000          0.699542E-03
      0.200000          0.655203E-03
      0.205000          0.614543E-03
      0.210000          0.577539E-03
      0.215000          0.544011E-03
      0.220000          0.513642E-03
      0.225000          0.486017E-03
      0.230000          0.460656E-03
      0.235000          0.437068E-03
      0.240000          0.414781E-03
      0.245000          0.393380E-03
      0.250000          0.372533E-03
      0.255000          0.352010E-03
      0.260000          0.331684E-03
      0.265000          0.311531E-03
      0.270000          0.291622E-03
      0.275000          0.272102E-03
      0.280000          0.253169E-03
      0.285000          0.235056E-03
      0.290000          0.218001E-03
      0.295000          0.202229E-03
      0.300000          0.187933E-03
      0.305000          0.175259E-03
      0.310000          0.164296E-03
      0.315000          0.155074E-03
      0.320000          0.147561E-03
      0.325000          0.141664E-03
      0.330000          0.137246E-03
      0.335000          0.134124E-03
      0.340000          0.132090E-03
      0.345000          0.130916E-03
      0.350000          0.130371E-03
      0.355000          0.130228E-03
      0.360000          0.130278E-03
      0.365000          0.130334E-03
      0.370000          0.130236E-03
      0.375000          0.129859E-03
      0.380000          0.129114E-03
      0.385000          0.127943E-03
      0.390000          0.126323E-03
      0.395000          0.124259E-03
      0.400000          0.121784E-03
      0.405000          0.118950E-03
      0.410000          0.115827E-03
      0.415000          0.112493E-03
      0.420000          0.109035E-03
      0.425000          0.105538E-03
      0.430000          0.102088E-03
      0.435000          0.987598E-04
      0.440000          0.956218E-04
      0.445000          0.927289E-04
      0.450000          0.901228E-04
      0.455000          0.878306E-04
      0.460000          0.858647E-04
      0.465000          0.842231E-04
      0.470000          0.828907E-04
      0.475000          0.818403E-04
      0.480000          0.810350E-04
      0.485000          0.804304E-04
      0.490000          0.799767E-04
      0.495000          0.796218E-04
      0.500000          0.793136E-04
