 I_abs(s)[cm^-1]/c[mg/ml]
       0.00000          0.140443E-01
      0.500000E-02      0.139690E-01
      0.100000E-01      0.137459E-01
      0.150000E-01      0.133830E-01
      0.200000E-01      0.128934E-01
      0.250000E-01      0.122942E-01
      0.300000E-01      0.116056E-01
      0.350000E-01      0.108498E-01
      0.400000E-01      0.100499E-01
      0.450000E-01      0.922872E-02
      0.500000E-01      0.840745E-02
      0.550000E-01      0.760513E-02
      0.600000E-01      0.683772E-02
      0.650000E-01      0.611775E-02
      0.700000E-01      0.545412E-02
      0.750000E-01      0.485216E-02
      0.800000E-01      0.431387E-02
      0.850000E-01      0.383840E-02
      0.900000E-01      0.342256E-02
      0.950000E-01      0.306148E-02
      0.100000          0.274919E-02
      0.105000          0.247920E-02
      0.110000          0.224505E-02
      0.115000          0.204064E-02
      0.120000          0.186056E-02
      0.125000          0.170024E-02
      0.130000          0.155602E-02
      0.135000          0.142511E-02
      0.140000          0.130550E-02
      0.145000          0.119582E-02
      0.150000          0.109517E-02
      0.155000          0.100301E-02
      0.160000          0.918955E-03
      0.165000          0.842693E-03
      0.170000          0.773905E-03
      0.175000          0.712210E-03
      0.180000          0.657142E-03
      0.185000          0.608155E-03
      0.190000          0.564646E-03
      0.195000          0.525983E-03
      0.200000          0.491537E-03
      0.205000          0.460712E-03
      0.210000          0.432968E-03
      0.215000          0.407839E-03
      0.220000          0.384938E-03
      0.225000          0.363959E-03
      0.230000          0.344669E-03
      0.235000          0.326898E-03
      0.240000          0.310525E-03
      0.245000          0.295468E-03
      0.250000          0.281665E-03
      0.255000          0.269070E-03
      0.260000          0.257638E-03
      0.265000          0.247323E-03
      0.270000          0.238070E-03
      0.275000          0.229813E-03
      0.280000          0.222479E-03
      0.285000          0.215980E-03
      0.290000          0.210224E-03
      0.295000          0.205111E-03
      0.300000          0.200539E-03
      0.305000          0.196405E-03
      0.310000          0.192611E-03
      0.315000          0.189068E-03
      0.320000          0.185692E-03
      0.325000          0.182414E-03
      0.330000          0.179176E-03
      0.335000          0.175933E-03
      0.340000          0.172653E-03
      0.345000          0.169319E-03
      0.350000          0.165922E-03
      0.355000          0.162468E-03
      0.360000          0.158969E-03
      0.365000          0.155449E-03
      0.370000          0.151937E-03
      0.375000          0.148468E-03
      0.380000          0.145083E-03
      0.385000          0.141825E-03
      0.390000          0.138737E-03
      0.395000          0.135859E-03
      0.400000          0.133227E-03
      0.405000          0.130867E-03
      0.410000          0.128794E-03
      0.415000          0.127010E-03
      0.420000          0.125499E-03
      0.425000          0.124230E-03
      0.430000          0.123157E-03
      0.435000          0.122222E-03
      0.440000          0.121358E-03
      0.445000          0.120495E-03
      0.450000          0.119562E-03
      0.455000          0.118501E-03
      0.460000          0.117262E-03
      0.465000          0.115815E-03
      0.470000          0.114148E-03
      0.475000          0.112270E-03
      0.480000          0.110207E-03
      0.485000          0.108002E-03
      0.490000          0.105709E-03
      0.495000          0.103388E-03
      0.500000          0.101099E-03
