 I_abs(s)[cm^-1]/c[mg/ml]
       0.00000          0.144446E-01
      0.500000E-02      0.143886E-01
      0.100000E-01      0.142220E-01
      0.150000E-01      0.139491E-01
      0.200000E-01      0.135770E-01
      0.250000E-01      0.131150E-01
      0.300000E-01      0.125746E-01
      0.350000E-01      0.119686E-01
      0.400000E-01      0.113107E-01
      0.450000E-01      0.106153E-01
      0.500000E-01      0.989641E-02
      0.550000E-01      0.916756E-02
      0.600000E-01      0.844126E-02
      0.650000E-01      0.772867E-02
      0.700000E-01      0.703935E-02
      0.750000E-01      0.638110E-02
      0.800000E-01      0.575991E-02
      0.850000E-01      0.518002E-02
      0.900000E-01      0.464400E-02
      0.950000E-01      0.415293E-02
      0.100000          0.370662E-02
      0.105000          0.330383E-02
      0.110000          0.294254E-02
      0.115000          0.262015E-02
      0.120000          0.233372E-02
      0.125000          0.208015E-02
      0.130000          0.185631E-02
      0.135000          0.165920E-02
      0.140000          0.148594E-02
      0.145000          0.133391E-02
      0.150000          0.120073E-02
      0.155000          0.108422E-02
      0.160000          0.982443E-03
      0.165000          0.893672E-03
      0.170000          0.816338E-03
      0.175000          0.749029E-03
      0.180000          0.690467E-03
      0.185000          0.639490E-03
      0.190000          0.595049E-03
      0.195000          0.556195E-03
      0.200000          0.522084E-03
      0.205000          0.491970E-03
      0.210000          0.465204E-03
      0.215000          0.441232E-03
      0.220000          0.419587E-03
      0.225000          0.399882E-03
      0.230000          0.381800E-03
      0.235000          0.365079E-03
      0.240000          0.349504E-03
      0.245000          0.334893E-03
      0.250000          0.321088E-03
      0.255000          0.307946E-03
      0.260000          0.295340E-03
      0.265000          0.283148E-03
      0.270000          0.271265E-03
      0.275000          0.259596E-03
      0.280000          0.248067E-03
      0.285000          0.236627E-03
      0.290000          0.225251E-03
      0.295000          0.213942E-03
      0.300000          0.202734E-03
      0.305000          0.191688E-03
      0.310000          0.180886E-03
      0.315000          0.170430E-03
      0.320000          0.160427E-03
      0.325000          0.150989E-03
      0.330000          0.142216E-03
      0.335000          0.134196E-03
      0.340000          0.126992E-03
      0.345000          0.120642E-03
      0.350000          0.115155E-03
      0.355000          0.110513E-03
      0.360000          0.106667E-03
      0.365000          0.103551E-03
      0.370000          0.101077E-03
      0.375000          0.991475E-04
      0.380000          0.976602E-04
      0.385000          0.965130E-04
      0.390000          0.956100E-04
      0.395000          0.948654E-04
      0.400000          0.942065E-04
      0.405000          0.935749E-04
      0.410000          0.929272E-04
      0.415000          0.922335E-04
      0.420000          0.914763E-04
      0.425000          0.906478E-04
      0.430000          0.897478E-04
      0.435000          0.887815E-04
      0.440000          0.877569E-04
      0.445000          0.866833E-04
      0.450000          0.855708E-04
      0.455000          0.844286E-04
      0.460000          0.832660E-04
      0.465000          0.820918E-04
      0.470000          0.809151E-04
      0.475000          0.797458E-04
      0.480000          0.785953E-04
      0.485000          0.774762E-04
      0.490000          0.764031E-04
      0.495000          0.753919E-04
      0.500000          0.744593E-04
