 I_abs(s)[cm^-1]/c[mg/ml]
       0.00000          0.148105E-01
      0.500000E-02      0.147649E-01
      0.100000E-01      0.146290E-01
      0.150000E-01      0.144052E-01
      0.200000E-01      0.140974E-01
      0.250000E-01      0.137110E-01
      0.300000E-01      0.132526E-01
      0.350000E-01      0.127301E-01
      0.400000E-01      0.121521E-01
      0.450000E-01      0.115278E-01
      0.500000E-01      0.108671E-01
      0.550000E-01      0.101798E-01
      0.600000E-01      0.947579E-02
      0.650000E-01      0.876477E-02
      0.700000E-01      0.805583E-02
      0.750000E-01      0.735745E-02
      0.800000E-01      0.667731E-02
      0.850000E-01      0.602215E-02
      0.900000E-01      0.539769E-02
      0.950000E-01      0.480863E-02
      0.100000          0.425853E-02
      0.105000          0.374993E-02
      0.110000          0.328432E-02
      0.115000          0.286225E-02
      0.120000          0.248340E-02
      0.125000          0.214669E-02
      0.130000          0.185038E-02
      0.135000          0.159222E-02
      0.140000          0.136956E-02
      0.145000          0.117944E-02
      0.150000          0.101874E-02
      0.155000          0.884277E-03
      0.160000          0.772867E-03
      0.165000          0.681432E-03
      0.170000          0.607045E-03
      0.175000          0.546986E-03
      0.180000          0.498772E-03
      0.185000          0.460180E-03
      0.190000          0.429255E-03
      0.195000          0.404310E-03
      0.200000          0.383916E-03
      0.205000          0.366889E-03
      0.210000          0.352269E-03
      0.215000          0.339294E-03
      0.220000          0.327380E-03
      0.225000          0.316095E-03
      0.230000          0.305130E-03
      0.235000          0.294284E-03
      0.240000          0.283438E-03
      0.245000          0.272539E-03
      0.250000          0.261581E-03
      0.255000          0.250597E-03
      0.260000          0.239644E-03
      0.265000          0.228794E-03
      0.270000          0.218129E-03
      0.275000          0.207733E-03
      0.280000          0.197689E-03
      0.285000          0.188075E-03
      0.290000          0.178962E-03
      0.295000          0.170410E-03
      0.300000          0.162470E-03
      0.305000          0.155179E-03
      0.310000          0.148563E-03
      0.315000          0.142633E-03
      0.320000          0.137389E-03
      0.325000          0.132815E-03
      0.330000          0.128886E-03
      0.335000          0.125565E-03
      0.340000          0.122806E-03
      0.345000          0.120555E-03
      0.350000          0.118753E-03
      0.355000          0.117334E-03
      0.360000          0.116235E-03
      0.365000          0.115390E-03
      0.370000          0.114735E-03
      0.375000          0.114213E-03
      0.380000          0.113770E-03
      0.385000          0.113360E-03
      0.390000          0.112943E-03
      0.395000          0.112487E-03
      0.400000          0.111970E-03
      0.405000          0.111375E-03
      0.410000          0.110694E-03
      0.415000          0.109924E-03
      0.420000          0.109068E-03
      0.425000          0.108131E-03
      0.430000          0.107123E-03
      0.435000          0.106055E-03
      0.440000          0.104939E-03
      0.445000          0.103787E-03
      0.450000          0.102609E-03
      0.455000          0.101416E-03
      0.460000          0.100213E-03
      0.465000          0.990082E-04
      0.470000          0.978051E-04
      0.475000          0.966067E-04
      0.480000          0.954148E-04
      0.485000          0.942306E-04
      0.490000          0.930553E-04
      0.495000          0.918900E-04
      0.500000          0.907368E-04
