 I_abs(s)[cm^-1]/c[mg/ml]
       0.00000          0.147785E-01
      0.500000E-02      0.147291E-01
      0.100000E-01      0.145817E-01
      0.150000E-01      0.143391E-01
      0.200000E-01      0.140060E-01
      0.250000E-01      0.135884E-01
      0.300000E-01      0.130940E-01
      0.350000E-01      0.125316E-01
      0.400000E-01      0.119112E-01
      0.450000E-01      0.112433E-01
      0.500000E-01      0.105390E-01
      0.550000E-01      0.980943E-02
      0.600000E-01      0.906570E-02
      0.650000E-01      0.831849E-02
      0.700000E-01      0.757789E-02
      0.750000E-01      0.685314E-02
      0.800000E-01      0.615251E-02
      0.850000E-01      0.548312E-02
      0.900000E-01      0.485087E-02
      0.950000E-01      0.426042E-02
      0.100000          0.371514E-02
      0.105000          0.321716E-02
      0.110000          0.276746E-02
      0.115000          0.236592E-02
      0.120000          0.201148E-02
      0.125000          0.170226E-02
      0.130000          0.143569E-02
      0.135000          0.120871E-02
      0.140000          0.101787E-02
      0.145000          0.859495E-03
      0.150000          0.729834E-03
      0.155000          0.625148E-03
      0.160000          0.541831E-03
      0.165000          0.476486E-03
      0.170000          0.425988E-03
      0.175000          0.387527E-03
      0.180000          0.358636E-03
      0.185000          0.337194E-03
      0.190000          0.321426E-03
      0.195000          0.309879E-03
      0.200000          0.301402E-03
      0.205000          0.295105E-03
      0.210000          0.290326E-03
      0.215000          0.286592E-03
      0.220000          0.283578E-03
      0.225000          0.281074E-03
      0.230000          0.278950E-03
      0.235000          0.277128E-03
      0.240000          0.275561E-03
      0.245000          0.274215E-03
      0.250000          0.273055E-03
      0.255000          0.272037E-03
      0.260000          0.271107E-03
      0.265000          0.270196E-03
      0.270000          0.269225E-03
      0.275000          0.268108E-03
      0.280000          0.266758E-03
      0.285000          0.265089E-03
      0.290000          0.263023E-03
      0.295000          0.260496E-03
      0.300000          0.257456E-03
      0.305000          0.253872E-03
      0.310000          0.249729E-03
      0.315000          0.245034E-03
      0.320000          0.239808E-03
      0.325000          0.234090E-03
      0.330000          0.227933E-03
      0.335000          0.221399E-03
      0.340000          0.214559E-03
      0.345000          0.207488E-03
      0.350000          0.200263E-03
      0.355000          0.192960E-03
      0.360000          0.185652E-03
      0.365000          0.178410E-03
      0.370000          0.171296E-03
      0.375000          0.164369E-03
      0.380000          0.157677E-03
      0.385000          0.151265E-03
      0.390000          0.145168E-03
      0.395000          0.139417E-03
      0.400000          0.134035E-03
      0.405000          0.129038E-03
      0.410000          0.124438E-03
      0.415000          0.120242E-03
      0.420000          0.116448E-03
      0.425000          0.113055E-03
      0.430000          0.110051E-03
      0.435000          0.107425E-03
      0.440000          0.105156E-03
      0.445000          0.103224E-03
      0.450000          0.101600E-03
      0.455000          0.100257E-03
      0.460000          0.991593E-04
      0.465000          0.982728E-04
      0.470000          0.975602E-04
      0.475000          0.969835E-04
      0.480000          0.965047E-04
      0.485000          0.960869E-04
      0.490000          0.956950E-04
      0.495000          0.952969E-04
      0.500000          0.948639E-04
