 I_abs(s)[cm^-1]/c[mg/ml]
       0.00000          0.143578E-01
      0.500000E-02      0.142885E-01
      0.100000E-01      0.140830E-01
      0.150000E-01      0.137478E-01
      0.200000E-01      0.132939E-01
      0.250000E-01      0.127355E-01
      0.300000E-01      0.120895E-01
      0.350000E-01      0.113749E-01
      0.400000E-01      0.106113E-01
      0.450000E-01      0.981860E-02
      0.500000E-01      0.901565E-02
      0.550000E-01      0.821976E-02
      0.600000E-01      0.744608E-02
      0.650000E-01      0.670715E-02
      0.700000E-01      0.601273E-02
      0.750000E-01      0.536974E-02
      0.800000E-01      0.478238E-02
      0.850000E-01      0.425238E-02
      0.900000E-01      0.377936E-02
      0.950000E-01      0.336123E-02
      0.100000          0.299462E-02
      0.105000          0.267525E-02
      0.110000          0.239836E-02
      0.115000          0.215898E-02
      0.120000          0.195221E-02
      0.125000          0.177340E-02
      0.130000          0.161828E-02
      0.135000          0.148299E-02
      0.140000          0.136416E-02
      0.145000          0.125890E-02
      0.150000          0.116474E-02
      0.155000          0.107965E-02
      0.160000          0.100197E-02
      0.165000          0.930420E-03
      0.170000          0.864012E-03
      0.175000          0.802058E-03
      0.180000          0.744121E-03
      0.185000          0.689977E-03
      0.190000          0.639574E-03
      0.195000          0.592981E-03
      0.200000          0.550336E-03
      0.205000          0.511796E-03
      0.210000          0.477483E-03
      0.215000          0.447444E-03
      0.220000          0.421614E-03
      0.225000          0.399801E-03
      0.230000          0.381674E-03
      0.235000          0.366781E-03
      0.240000          0.354564E-03
      0.245000          0.344403E-03
      0.250000          0.335649E-03
      0.255000          0.327676E-03
      0.260000          0.319917E-03
      0.265000          0.311902E-03
      0.270000          0.303287E-03
      0.275000          0.293863E-03
      0.280000          0.283563E-03
      0.285000          0.272450E-03
      0.290000          0.260697E-03
      0.295000          0.248559E-03
      0.300000          0.236342E-03
      0.305000          0.224370E-03
      0.310000          0.212955E-03
      0.315000          0.202367E-03
      0.320000          0.192817E-03
      0.325000          0.184444E-03
      0.330000          0.177310E-03
      0.335000          0.171398E-03
      0.340000          0.166629E-03
      0.345000          0.162864E-03
      0.350000          0.159928E-03
      0.355000          0.157620E-03
      0.360000          0.155735E-03
      0.365000          0.154072E-03
      0.370000          0.152450E-03
      0.375000          0.150718E-03
      0.380000          0.148757E-03
      0.385000          0.146484E-03
      0.390000          0.143853E-03
      0.395000          0.140852E-03
      0.400000          0.137499E-03
      0.405000          0.133834E-03
      0.410000          0.129917E-03
      0.415000          0.125822E-03
      0.420000          0.121627E-03
      0.425000          0.117411E-03
      0.430000          0.113252E-03
      0.435000          0.109219E-03
      0.440000          0.105371E-03
      0.445000          0.101754E-03
      0.450000          0.984041E-04
      0.455000          0.953417E-04
      0.460000          0.925760E-04
      0.465000          0.901046E-04
      0.470000          0.879155E-04
      0.475000          0.859887E-04
      0.480000          0.842983E-04
      0.485000          0.828146E-04
      0.490000          0.815053E-04
      0.495000          0.803377E-04
      0.500000          0.792800E-04
