 I_abs(s)[cm^-1]/c[mg/ml]
       0.00000          0.144604E-01
      0.500000E-02      0.143923E-01
      0.100000E-01      0.141903E-01
      0.150000E-01      0.138613E-01
      0.200000E-01      0.134161E-01
      0.250000E-01      0.128692E-01
      0.300000E-01      0.122377E-01
      0.350000E-01      0.115405E-01
      0.400000E-01      0.107969E-01
      0.450000E-01      0.100264E-01
      0.500000E-01      0.924727E-02
      0.550000E-01      0.847579E-02
      0.600000E-01      0.772603E-02
      0.650000E-01      0.700932E-02
      0.700000E-01      0.633412E-02
      0.750000E-01      0.570608E-02
      0.800000E-01      0.512831E-02
      0.850000E-01      0.460167E-02
      0.900000E-01      0.412523E-02
      0.950000E-01      0.369670E-02
      0.100000          0.331290E-02
      0.105000          0.297017E-02
      0.110000          0.266468E-02
      0.115000          0.239273E-02
      0.120000          0.215084E-02
      0.125000          0.193589E-02
      0.130000          0.174514E-02
      0.135000          0.157614E-02
      0.140000          0.142673E-02
      0.145000          0.129493E-02
      0.150000          0.117890E-02
      0.155000          0.107687E-02
      0.160000          0.987124E-03
      0.165000          0.908024E-03
      0.170000          0.837993E-03
      0.175000          0.775578E-03
      0.180000          0.719478E-03
      0.185000          0.668580E-03
      0.190000          0.621990E-03
      0.195000          0.579030E-03
      0.200000          0.539238E-03
      0.205000          0.502334E-03
      0.210000          0.468182E-03
      0.215000          0.436740E-03
      0.220000          0.408008E-03
      0.225000          0.381985E-03
      0.230000          0.358630E-03
      0.235000          0.337837E-03
      0.240000          0.319430E-03
      0.245000          0.303162E-03
      0.250000          0.288739E-03
      0.255000          0.275836E-03
      0.260000          0.264132E-03
      0.265000          0.253332E-03
      0.270000          0.243187E-03
      0.275000          0.233516E-03
      0.280000          0.224201E-03
      0.285000          0.215192E-03
      0.290000          0.206492E-03
      0.295000          0.198138E-03
      0.300000          0.190188E-03
      0.305000          0.182700E-03
      0.310000          0.175717E-03
      0.315000          0.169258E-03
      0.320000          0.163309E-03
      0.325000          0.157833E-03
      0.330000          0.152769E-03
      0.335000          0.148043E-03
      0.340000          0.143583E-03
      0.345000          0.139328E-03
      0.350000          0.135233E-03
      0.355000          0.131282E-03
      0.360000          0.127482E-03
      0.365000          0.123868E-03
      0.370000          0.120489E-03
      0.375000          0.117405E-03
      0.380000          0.114676E-03
      0.385000          0.112349E-03
      0.390000          0.110456E-03
      0.395000          0.109004E-03
      0.400000          0.107973E-03
      0.405000          0.107319E-03
      0.410000          0.106972E-03
      0.415000          0.106849E-03
      0.420000          0.106857E-03
      0.425000          0.106901E-03
      0.430000          0.106893E-03
      0.435000          0.106758E-03
      0.440000          0.106439E-03
      0.445000          0.105896E-03
      0.450000          0.105114E-03
      0.455000          0.104095E-03
      0.460000          0.102858E-03
      0.465000          0.101437E-03
      0.470000          0.998716E-04
      0.475000          0.982076E-04
      0.480000          0.964903E-04
      0.485000          0.947623E-04
      0.490000          0.930602E-04
      0.495000          0.914133E-04
      0.500000          0.898427E-04
