 I_abs(s)[cm^-1]/c[mg/ml]
       0.00000          0.145714E-01
      0.500000E-02      0.145137E-01
      0.100000E-01      0.143420E-01
      0.150000E-01      0.140604E-01
      0.200000E-01      0.136752E-01
      0.250000E-01      0.131955E-01
      0.300000E-01      0.126319E-01
      0.350000E-01      0.119968E-01
      0.400000E-01      0.113038E-01
      0.450000E-01      0.105669E-01
      0.500000E-01      0.980074E-02
      0.550000E-01      0.901948E-02
      0.600000E-01      0.823674E-02
      0.650000E-01      0.746513E-02
      0.700000E-01      0.671597E-02
      0.750000E-01      0.599902E-02
      0.800000E-01      0.532233E-02
      0.850000E-01      0.469218E-02
      0.900000E-01      0.411301E-02
      0.950000E-01      0.358754E-02
      0.100000          0.311683E-02
      0.105000          0.270047E-02
      0.110000          0.233679E-02
      0.115000          0.202307E-02
      0.120000          0.175576E-02
      0.125000          0.153076E-02
      0.130000          0.134359E-02
      0.135000          0.118963E-02
      0.140000          0.106428E-02
      0.145000          0.963118E-03
      0.150000          0.881990E-03
      0.155000          0.817119E-03
      0.160000          0.765142E-03
      0.165000          0.723133E-03
      0.170000          0.688605E-03
      0.175000          0.659493E-03
      0.180000          0.634123E-03
      0.185000          0.611174E-03
      0.190000          0.589633E-03
      0.195000          0.568749E-03
      0.200000          0.547996E-03
      0.205000          0.527032E-03
      0.210000          0.505666E-03
      0.215000          0.483829E-03
      0.220000          0.461551E-03
      0.225000          0.438942E-03
      0.230000          0.416176E-03
      0.235000          0.393474E-03
      0.240000          0.371091E-03
      0.245000          0.349304E-03
      0.250000          0.328399E-03
      0.255000          0.308653E-03
      0.260000          0.290325E-03
      0.265000          0.273640E-03
      0.270000          0.258776E-03
      0.275000          0.245858E-03
      0.280000          0.234945E-03
      0.285000          0.226025E-03
      0.290000          0.219020E-03
      0.295000          0.213781E-03
      0.300000          0.210100E-03
      0.305000          0.207719E-03
      0.310000          0.206339E-03
      0.315000          0.205642E-03
      0.320000          0.205302E-03
      0.325000          0.205001E-03
      0.330000          0.204451E-03
      0.335000          0.203400E-03
      0.340000          0.201649E-03
      0.345000          0.199055E-03
      0.350000          0.195539E-03
      0.355000          0.191087E-03
      0.360000          0.185742E-03
      0.365000          0.179603E-03
      0.370000          0.172813E-03
      0.375000          0.165548E-03
      0.380000          0.158004E-03
      0.385000          0.150389E-03
      0.390000          0.142902E-03
      0.395000          0.135731E-03
      0.400000          0.129038E-03
      0.405000          0.122951E-03
      0.410000          0.117564E-03
      0.415000          0.112932E-03
      0.420000          0.109070E-03
      0.425000          0.105958E-03
      0.430000          0.103545E-03
      0.435000          0.101754E-03
      0.440000          0.100491E-03
      0.445000          0.996502E-04
      0.450000          0.991228E-04
      0.455000          0.988030E-04
      0.460000          0.985942E-04
      0.465000          0.984137E-04
      0.470000          0.981958E-04
      0.475000          0.978934E-04
      0.480000          0.974785E-04
      0.485000          0.969407E-04
      0.490000          0.962858E-04
      0.495000          0.955318E-04
      0.500000          0.947062E-04
