 I_abs(s)[cm^-1]/c[mg/ml]
       0.00000          0.140833E-01
      0.500000E-02      0.140157E-01
      0.100000E-01      0.138150E-01
      0.150000E-01      0.134881E-01
      0.200000E-01      0.130458E-01
      0.250000E-01      0.125023E-01
      0.300000E-01      0.118749E-01
      0.350000E-01      0.111826E-01
      0.400000E-01      0.104452E-01
      0.450000E-01      0.968288E-02
      0.500000E-01      0.891463E-02
      0.550000E-01      0.815788E-02
      0.600000E-01      0.742768E-02
      0.650000E-01      0.673630E-02
      0.700000E-01      0.609293E-02
      0.750000E-01      0.550360E-02
      0.800000E-01      0.497128E-02
      0.850000E-01      0.449620E-02
      0.900000E-01      0.407620E-02
      0.950000E-01      0.370727E-02
      0.100000          0.338406E-02
      0.105000          0.310046E-02
      0.110000          0.285013E-02
      0.115000          0.262689E-02
      0.120000          0.242516E-02
      0.125000          0.224020E-02
      0.130000          0.206823E-02
      0.135000          0.190654E-02
      0.140000          0.175339E-02
      0.145000          0.160791E-02
      0.150000          0.146995E-02
      0.155000          0.133983E-02
      0.160000          0.121817E-02
      0.165000          0.110567E-02
      0.170000          0.100293E-02
      0.175000          0.910355E-03
      0.180000          0.828011E-03
      0.185000          0.755641E-03
      0.190000          0.692649E-03
      0.195000          0.638144E-03
      0.200000          0.591018E-03
      0.205000          0.550033E-03
      0.210000          0.513913E-03
      0.215000          0.481438E-03
      0.220000          0.451520E-03
      0.225000          0.423260E-03
      0.230000          0.395989E-03
      0.235000          0.369275E-03
      0.240000          0.342923E-03
      0.245000          0.316939E-03
      0.250000          0.291496E-03
      0.255000          0.266886E-03
      0.260000          0.243462E-03
      0.265000          0.221593E-03
      0.270000          0.201621E-03
      0.275000          0.183822E-03
      0.280000          0.168386E-03
      0.285000          0.155402E-03
      0.290000          0.144859E-03
      0.295000          0.136650E-03
      0.300000          0.130589E-03
      0.305000          0.126426E-03
      0.310000          0.123876E-03
      0.315000          0.122632E-03
      0.320000          0.122389E-03
      0.325000          0.122861E-03
      0.330000          0.123788E-03
      0.335000          0.124951E-03
      0.340000          0.126169E-03
      0.345000          0.127303E-03
      0.350000          0.128252E-03
      0.355000          0.128948E-03
      0.360000          0.129352E-03
      0.365000          0.129444E-03
      0.370000          0.129222E-03
      0.375000          0.128695E-03
      0.380000          0.127880E-03
      0.385000          0.126800E-03
      0.390000          0.125481E-03
      0.395000          0.123954E-03
      0.400000          0.122251E-03
      0.405000          0.120410E-03
      0.410000          0.118470E-03
      0.415000          0.116473E-03
      0.420000          0.114462E-03
      0.425000          0.112479E-03
      0.430000          0.110567E-03
      0.435000          0.108761E-03
      0.440000          0.107094E-03
      0.445000          0.105590E-03
      0.450000          0.104266E-03
      0.455000          0.103126E-03
      0.460000          0.102170E-03
      0.465000          0.101387E-03
      0.470000          0.100758E-03
      0.475000          0.100261E-03
      0.480000          0.998713E-04
      0.485000          0.995612E-04
      0.490000          0.993058E-04
      0.495000          0.990825E-04
      0.500000          0.988728E-04
