 I_abs(s)[cm^-1]/c[mg/ml]
       0.00000          0.142713E-01
      0.500000E-02      0.142119E-01
      0.100000E-01      0.140353E-01
      0.150000E-01      0.137461E-01
      0.200000E-01      0.133518E-01
      0.250000E-01      0.128624E-01
      0.300000E-01      0.122901E-01
      0.350000E-01      0.116488E-01
      0.400000E-01      0.109535E-01
      0.450000E-01      0.102196E-01
      0.500000E-01      0.946263E-02
      0.550000E-01      0.869767E-02
      0.600000E-01      0.793863E-02
      0.650000E-01      0.719806E-02
      0.700000E-01      0.648676E-02
      0.750000E-01      0.581356E-02
      0.800000E-01      0.518524E-02
      0.850000E-01      0.460647E-02
      0.900000E-01      0.407994E-02
      0.950000E-01      0.360645E-02
      0.100000          0.318520E-02
      0.105000          0.281401E-02
      0.110000          0.248963E-02
      0.115000          0.220805E-02
      0.120000          0.196478E-02
      0.125000          0.175516E-02
      0.130000          0.157455E-02
      0.135000          0.141856E-02
      0.140000          0.128317E-02
      0.145000          0.116486E-02
      0.150000          0.106062E-02
      0.155000          0.968000E-03
      0.160000          0.885059E-03
      0.165000          0.810315E-03
      0.170000          0.742682E-03
      0.175000          0.681381E-03
      0.180000          0.625865E-03
      0.185000          0.575740E-03
      0.190000          0.530697E-03
      0.195000          0.490461E-03
      0.200000          0.454754E-03
      0.205000          0.423270E-03
      0.210000          0.395666E-03
      0.215000          0.371569E-03
      0.220000          0.350581E-03
      0.225000          0.332301E-03
      0.230000          0.316340E-03
      0.235000          0.302339E-03
      0.240000          0.289983E-03
      0.245000          0.279011E-03
      0.250000          0.269221E-03
      0.255000          0.260466E-03
      0.260000          0.252646E-03
      0.265000          0.245703E-03
      0.270000          0.239599E-03
      0.275000          0.234310E-03
      0.280000          0.229808E-03
      0.285000          0.226050E-03
      0.290000          0.222969E-03
      0.295000          0.220474E-03
      0.300000          0.218442E-03
      0.305000          0.216731E-03
      0.310000          0.215177E-03
      0.315000          0.213611E-03
      0.320000          0.211866E-03
      0.325000          0.209789E-03
      0.330000          0.207255E-03
      0.335000          0.204169E-03
      0.340000          0.200478E-03
      0.345000          0.196172E-03
      0.350000          0.191285E-03
      0.355000          0.185890E-03
      0.360000          0.180096E-03
      0.365000          0.174037E-03
      0.370000          0.167861E-03
      0.375000          0.161724E-03
      0.380000          0.155774E-03
      0.385000          0.150143E-03
      0.390000          0.144940E-03
      0.395000          0.140242E-03
      0.400000          0.136092E-03
      0.405000          0.132498E-03
      0.410000          0.129431E-03
      0.415000          0.126834E-03
      0.420000          0.124621E-03
      0.425000          0.122691E-03
      0.430000          0.120932E-03
      0.435000          0.119229E-03
      0.440000          0.117475E-03
      0.445000          0.115574E-03
      0.450000          0.113452E-03
      0.455000          0.111058E-03
      0.460000          0.108366E-03
      0.465000          0.105380E-03
      0.470000          0.102125E-03
      0.475000          0.986542E-04
      0.480000          0.950356E-04
      0.485000          0.913522E-04
      0.490000          0.876945E-04
      0.495000          0.841546E-04
      0.500000          0.808203E-04
