 I_abs(s)[cm^-1]/c[mg/ml]
       0.00000          0.146270E-01
      0.500000E-02      0.145778E-01
      0.100000E-01      0.144313E-01
      0.150000E-01      0.141908E-01
      0.200000E-01      0.138616E-01
      0.250000E-01      0.134508E-01
      0.300000E-01      0.129672E-01
      0.350000E-01      0.124206E-01
      0.400000E-01      0.118220E-01
      0.450000E-01      0.111826E-01
      0.500000E-01      0.105138E-01
      0.550000E-01      0.982694E-02
      0.600000E-01      0.913260E-02
      0.650000E-01      0.844066E-02
      0.700000E-01      0.775999E-02
      0.750000E-01      0.709824E-02
      0.800000E-01      0.646185E-02
      0.850000E-01      0.585595E-02
      0.900000E-01      0.528439E-02
      0.950000E-01      0.474984E-02
      0.100000          0.425388E-02
      0.105000          0.379711E-02
      0.110000          0.337931E-02
      0.115000          0.299959E-02
      0.120000          0.265651E-02
      0.125000          0.234826E-02
      0.130000          0.207273E-02
      0.135000          0.182767E-02
      0.140000          0.161071E-02
      0.145000          0.141950E-02
      0.150000          0.125172E-02
      0.155000          0.110512E-02
      0.160000          0.977579E-03
      0.165000          0.867073E-03
      0.170000          0.771723E-03
      0.175000          0.689787E-03
      0.180000          0.619659E-03
      0.185000          0.559870E-03
      0.190000          0.509083E-03
      0.195000          0.466089E-03
      0.200000          0.429798E-03
      0.205000          0.399236E-03
      0.210000          0.373531E-03
      0.215000          0.351910E-03
      0.220000          0.333686E-03
      0.225000          0.318249E-03
      0.230000          0.305060E-03
      0.235000          0.293641E-03
      0.240000          0.283571E-03
      0.245000          0.274478E-03
      0.250000          0.266040E-03
      0.255000          0.257980E-03
      0.260000          0.250068E-03
      0.265000          0.242121E-03
      0.270000          0.234005E-03
      0.275000          0.225634E-03
      0.280000          0.216969E-03
      0.285000          0.208019E-03
      0.290000          0.198833E-03
      0.295000          0.189498E-03
      0.300000          0.180132E-03
      0.305000          0.170870E-03
      0.310000          0.161858E-03
      0.315000          0.153242E-03
      0.320000          0.145157E-03
      0.325000          0.137715E-03
      0.330000          0.131005E-03
      0.335000          0.125079E-03
      0.340000          0.119955E-03
      0.345000          0.115615E-03
      0.350000          0.112008E-03
      0.355000          0.109055E-03
      0.360000          0.106656E-03
      0.365000          0.104698E-03
      0.370000          0.103064E-03
      0.375000          0.101640E-03
      0.380000          0.100325E-03
      0.385000          0.990322E-04
      0.390000          0.976993E-04
      0.395000          0.962862E-04
      0.400000          0.947764E-04
      0.405000          0.931754E-04
      0.410000          0.915066E-04
      0.415000          0.898072E-04
      0.420000          0.881227E-04
      0.425000          0.865017E-04
      0.430000          0.849906E-04
      0.435000          0.836295E-04
      0.440000          0.824491E-04
      0.445000          0.814686E-04
      0.450000          0.806949E-04
      0.455000          0.801231E-04
      0.460000          0.797381E-04
      0.465000          0.795164E-04
      0.470000          0.794291E-04
      0.475000          0.794445E-04
      0.480000          0.795304E-04
      0.485000          0.796568E-04
      0.490000          0.797971E-04
      0.495000          0.799295E-04
      0.500000          0.800372E-04
