 I_abs(s)[cm^-1]/c[mg/ml]
       0.00000          0.141068E-01
      0.500000E-02      0.140432E-01
      0.100000E-01      0.138546E-01
      0.150000E-01      0.135476E-01
      0.200000E-01      0.131327E-01
      0.250000E-01      0.126236E-01
      0.300000E-01      0.120365E-01
      0.350000E-01      0.113889E-01
      0.400000E-01      0.106990E-01
      0.450000E-01      0.998427E-02
      0.500000E-01      0.926124E-02
      0.550000E-01      0.854433E-02
      0.600000E-01      0.784563E-02
      0.650000E-01      0.717469E-02
      0.700000E-01      0.653842E-02
      0.750000E-01      0.594132E-02
      0.800000E-01      0.538574E-02
      0.850000E-01      0.487230E-02
      0.900000E-01      0.440030E-02
      0.950000E-01      0.396816E-02
      0.100000          0.357378E-02
      0.105000          0.321490E-02
      0.110000          0.288921E-02
      0.115000          0.259461E-02
      0.120000          0.232912E-02
      0.125000          0.209097E-02
      0.130000          0.187847E-02
      0.135000          0.168998E-02
      0.140000          0.152380E-02
      0.145000          0.137814E-02
      0.150000          0.125109E-02
      0.155000          0.114065E-02
      0.160000          0.104475E-02
      0.165000          0.961315E-03
      0.170000          0.888347E-03
      0.175000          0.823998E-03
      0.180000          0.766634E-03
      0.185000          0.714871E-03
      0.190000          0.667606E-03
      0.195000          0.624002E-03
      0.200000          0.583472E-03
      0.205000          0.545632E-03
      0.210000          0.510250E-03
      0.215000          0.477196E-03
      0.220000          0.446396E-03
      0.225000          0.417788E-03
      0.230000          0.391301E-03
      0.235000          0.366840E-03
      0.240000          0.344284E-03
      0.245000          0.323490E-03
      0.250000          0.304308E-03
      0.255000          0.286594E-03
      0.260000          0.270216E-03
      0.265000          0.255065E-03
      0.270000          0.241055E-03
      0.275000          0.228124E-03
      0.280000          0.216222E-03
      0.285000          0.205309E-03
      0.290000          0.195343E-03
      0.295000          0.186275E-03
      0.300000          0.178049E-03
      0.305000          0.170594E-03
      0.310000          0.163834E-03
      0.315000          0.157690E-03
      0.320000          0.152084E-03
      0.325000          0.146949E-03
      0.330000          0.142228E-03
      0.335000          0.137881E-03
      0.340000          0.133882E-03
      0.345000          0.130215E-03
      0.350000          0.126870E-03
      0.355000          0.123841E-03
      0.360000          0.121114E-03
      0.365000          0.118669E-03
      0.370000          0.116474E-03
      0.375000          0.114487E-03
      0.380000          0.112655E-03
      0.385000          0.110924E-03
      0.390000          0.109238E-03
      0.395000          0.107547E-03
      0.400000          0.105811E-03
      0.405000          0.104004E-03
      0.410000          0.102117E-03
      0.415000          0.100151E-03
      0.420000          0.981229E-04
      0.425000          0.960549E-04
      0.430000          0.939734E-04
      0.435000          0.919027E-04
      0.440000          0.898616E-04
      0.445000          0.878610E-04
      0.450000          0.859020E-04
      0.455000          0.839777E-04
      0.460000          0.820746E-04
      0.465000          0.801765E-04
      0.470000          0.782678E-04
      0.475000          0.763382E-04
      0.480000          0.743848E-04
      0.485000          0.724148E-04
      0.490000          0.704456E-04
      0.495000          0.685039E-04
      0.500000          0.666234E-04
