 I_abs(s)[cm^-1]/c[mg/ml]
       0.00000          0.147226E-01
      0.500000E-02      0.146615E-01
      0.100000E-01      0.144799E-01
      0.150000E-01      0.141835E-01
      0.200000E-01      0.137811E-01
      0.250000E-01      0.132843E-01
      0.300000E-01      0.127072E-01
      0.350000E-01      0.120650E-01
      0.400000E-01      0.113741E-01
      0.450000E-01      0.106505E-01
      0.500000E-01      0.990985E-02
      0.550000E-01      0.916622E-02
      0.600000E-01      0.843211E-02
      0.650000E-01      0.771798E-02
      0.700000E-01      0.703207E-02
      0.750000E-01      0.638049E-02
      0.800000E-01      0.576727E-02
      0.850000E-01      0.519465E-02
      0.900000E-01      0.466337E-02
      0.950000E-01      0.417297E-02
      0.100000          0.372218E-02
      0.105000          0.330918E-02
      0.110000          0.293190E-02
      0.115000          0.258820E-02
      0.120000          0.227603E-02
      0.125000          0.199348E-02
      0.130000          0.173884E-02
      0.135000          0.151055E-02
      0.140000          0.130718E-02
      0.145000          0.112734E-02
      0.150000          0.969666E-03
      0.155000          0.832736E-03
      0.160000          0.715070E-03
      0.165000          0.615104E-03
      0.170000          0.531209E-03
      0.175000          0.461715E-03
      0.180000          0.404950E-03
      0.185000          0.359278E-03
      0.190000          0.323142E-03
      0.195000          0.295093E-03
      0.200000          0.273819E-03
      0.205000          0.258150E-03
      0.210000          0.247064E-03
      0.215000          0.239678E-03
      0.220000          0.235231E-03
      0.225000          0.233066E-03
      0.230000          0.232613E-03
      0.235000          0.233373E-03
      0.240000          0.234905E-03
      0.245000          0.236818E-03
      0.250000          0.238771E-03
      0.255000          0.240469E-03
      0.260000          0.241673E-03
      0.265000          0.242197E-03
      0.270000          0.241913E-03
      0.275000          0.240748E-03
      0.280000          0.238684E-03
      0.285000          0.235748E-03
      0.290000          0.232004E-03
      0.295000          0.227540E-03
      0.300000          0.222457E-03
      0.305000          0.216861E-03
      0.310000          0.210849E-03
      0.315000          0.204505E-03
      0.320000          0.197900E-03
      0.325000          0.191089E-03
      0.330000          0.184116E-03
      0.335000          0.177016E-03
      0.340000          0.169824E-03
      0.345000          0.162581E-03
      0.350000          0.155335E-03
      0.355000          0.148145E-03
      0.360000          0.141083E-03
      0.365000          0.134228E-03
      0.370000          0.127667E-03
      0.375000          0.121485E-03
      0.380000          0.115760E-03
      0.385000          0.110560E-03
      0.390000          0.105932E-03
      0.395000          0.101902E-03
      0.400000          0.984751E-04
      0.405000          0.956304E-04
      0.410000          0.933275E-04
      0.415000          0.915087E-04
      0.420000          0.901043E-04
      0.425000          0.890384E-04
      0.430000          0.882345E-04
      0.435000          0.876207E-04
      0.440000          0.871336E-04
      0.445000          0.867214E-04
      0.450000          0.863452E-04
      0.455000          0.859794E-04
      0.460000          0.856105E-04
      0.465000          0.852351E-04
      0.470000          0.848578E-04
      0.475000          0.844886E-04
      0.480000          0.841400E-04
      0.485000          0.838254E-04
      0.490000          0.835570E-04
      0.495000          0.833449E-04
      0.500000          0.831968E-04
