 I_abs(s)[cm^-1]/c[mg/ml]
       0.00000          0.140755E-01
      0.500000E-02      0.140035E-01
      0.100000E-01      0.137900E-01
      0.150000E-01      0.134421E-01
      0.200000E-01      0.129715E-01
      0.250000E-01      0.123934E-01
      0.300000E-01      0.117261E-01
      0.350000E-01      0.109901E-01
      0.400000E-01      0.102067E-01
      0.450000E-01      0.939735E-02
      0.500000E-01      0.858263E-02
      0.550000E-01      0.778130E-02
      0.600000E-01      0.700968E-02
      0.650000E-01      0.628116E-02
      0.700000E-01      0.560582E-02
      0.750000E-01      0.499040E-02
      0.800000E-01      0.443839E-02
      0.850000E-01      0.395026E-02
      0.900000E-01      0.352393E-02
      0.950000E-01      0.315524E-02
      0.100000          0.283850E-02
      0.105000          0.256713E-02
      0.110000          0.233413E-02
      0.115000          0.213261E-02
      0.120000          0.195615E-02
      0.125000          0.179916E-02
      0.130000          0.165698E-02
      0.135000          0.152602E-02
      0.140000          0.140375E-02
      0.145000          0.128858E-02
      0.150000          0.117971E-02
      0.155000          0.107700E-02
      0.160000          0.980716E-03
      0.165000          0.891369E-03
      0.170000          0.809537E-03
      0.175000          0.735728E-03
      0.180000          0.670276E-03
      0.185000          0.613281E-03
      0.190000          0.564584E-03
      0.195000          0.523774E-03
      0.200000          0.490221E-03
      0.205000          0.463128E-03
      0.210000          0.441582E-03
      0.215000          0.424621E-03
      0.220000          0.411285E-03
      0.225000          0.400658E-03
      0.230000          0.391912E-03
      0.235000          0.384318E-03
      0.240000          0.377267E-03
      0.245000          0.370267E-03
      0.250000          0.362941E-03
      0.255000          0.355018E-03
      0.260000          0.346319E-03
      0.265000          0.336751E-03
      0.270000          0.326290E-03
      0.275000          0.314974E-03
      0.280000          0.302896E-03
      0.285000          0.290193E-03
      0.290000          0.277037E-03
      0.295000          0.263632E-03
      0.300000          0.250198E-03
      0.305000          0.236962E-03
      0.310000          0.224152E-03
      0.315000          0.211974E-03
      0.320000          0.200611E-03
      0.325000          0.190206E-03
      0.330000          0.180857E-03
      0.335000          0.172612E-03
      0.340000          0.165467E-03
      0.345000          0.159369E-03
      0.350000          0.154222E-03
      0.355000          0.149899E-03
      0.360000          0.146252E-03
      0.365000          0.143124E-03
      0.370000          0.140362E-03
      0.375000          0.137832E-03
      0.380000          0.135421E-03
      0.385000          0.133049E-03
      0.390000          0.130670E-03
      0.395000          0.128270E-03
      0.400000          0.125862E-03
      0.405000          0.123483E-03
      0.410000          0.121180E-03
      0.415000          0.119008E-03
      0.420000          0.117016E-03
      0.425000          0.115241E-03
      0.430000          0.113705E-03
      0.435000          0.112407E-03
      0.440000          0.111329E-03
      0.445000          0.110432E-03
      0.450000          0.109662E-03
      0.455000          0.108956E-03
      0.460000          0.108248E-03
      0.465000          0.107473E-03
      0.470000          0.106577E-03
      0.475000          0.105516E-03
      0.480000          0.104263E-03
      0.485000          0.102808E-03
      0.490000          0.101157E-03
      0.495000          0.993306E-04
      0.500000          0.973604E-04
