 I_abs(s)[cm^-1]/c[mg/ml]
       0.00000          0.146031E-01
      0.500000E-02      0.145406E-01
      0.100000E-01      0.143549E-01
      0.150000E-01      0.140511E-01
      0.200000E-01      0.136378E-01
      0.250000E-01      0.131264E-01
      0.300000E-01      0.125305E-01
      0.350000E-01      0.118654E-01
      0.400000E-01      0.111479E-01
      0.450000E-01      0.103947E-01
      0.500000E-01      0.962259E-02
      0.550000E-01      0.884742E-02
      0.600000E-01      0.808362E-02
      0.650000E-01      0.734384E-02
      0.700000E-01      0.663858E-02
      0.750000E-01      0.597604E-02
      0.800000E-01      0.536204E-02
      0.850000E-01      0.480012E-02
      0.900000E-01      0.429164E-02
      0.950000E-01      0.383610E-02
      0.100000          0.343142E-02
      0.105000          0.307429E-02
      0.110000          0.276051E-02
      0.115000          0.248541E-02
      0.120000          0.224411E-02
      0.125000          0.203182E-02
      0.130000          0.184408E-02
      0.135000          0.167687E-02
      0.140000          0.152680E-02
      0.145000          0.139105E-02
      0.150000          0.126746E-02
      0.155000          0.115440E-02
      0.160000          0.105073E-02
      0.165000          0.955732E-03
      0.170000          0.868928E-03
      0.175000          0.790041E-03
      0.180000          0.718881E-03
      0.185000          0.655263E-03
      0.190000          0.598958E-03
      0.195000          0.549651E-03
      0.200000          0.506924E-03
      0.205000          0.470257E-03
      0.210000          0.439044E-03
      0.215000          0.412615E-03
      0.220000          0.390265E-03
      0.225000          0.371289E-03
      0.230000          0.355014E-03
      0.235000          0.340817E-03
      0.240000          0.328153E-03
      0.245000          0.316567E-03
      0.250000          0.305692E-03
      0.255000          0.295258E-03
      0.260000          0.285079E-03
      0.265000          0.275041E-03
      0.270000          0.265096E-03
      0.275000          0.255237E-03
      0.280000          0.245493E-03
      0.285000          0.235910E-03
      0.290000          0.226540E-03
      0.295000          0.217437E-03
      0.300000          0.208646E-03
      0.305000          0.200199E-03
      0.310000          0.192120E-03
      0.315000          0.184419E-03
      0.320000          0.177096E-03
      0.325000          0.170143E-03
      0.330000          0.163547E-03
      0.335000          0.157293E-03
      0.340000          0.151365E-03
      0.345000          0.145748E-03
      0.350000          0.140429E-03
      0.355000          0.135397E-03
      0.360000          0.130645E-03
      0.365000          0.126166E-03
      0.370000          0.121956E-03
      0.375000          0.118010E-03
      0.380000          0.114322E-03
      0.385000          0.110887E-03
      0.390000          0.107697E-03
      0.395000          0.104741E-03
      0.400000          0.102008E-03
      0.405000          0.994836E-04
      0.410000          0.971514E-04
      0.415000          0.949950E-04
      0.420000          0.929966E-04
      0.425000          0.911385E-04
      0.430000          0.894032E-04
      0.435000          0.877742E-04
      0.440000          0.862362E-04
      0.445000          0.847751E-04
      0.450000          0.833789E-04
      0.455000          0.820372E-04
      0.460000          0.807415E-04
      0.465000          0.794851E-04
      0.470000          0.782632E-04
      0.475000          0.770728E-04
      0.480000          0.759124E-04
      0.485000          0.747823E-04
      0.490000          0.736843E-04
      0.495000          0.726218E-04
      0.500000          0.715993E-04
