 I_abs(s)[cm^-1]/c[mg/ml]
       0.00000          0.145159E-01
      0.500000E-02      0.144647E-01
      0.100000E-01      0.143122E-01
      0.150000E-01      0.140615E-01
      0.200000E-01      0.137178E-01
      0.250000E-01      0.132881E-01
      0.300000E-01      0.127810E-01
      0.350000E-01      0.122064E-01
      0.400000E-01      0.115753E-01
      0.450000E-01      0.108992E-01
      0.500000E-01      0.101904E-01
      0.550000E-01      0.946067E-02
      0.600000E-01      0.872191E-02
      0.650000E-01      0.798524E-02
      0.700000E-01      0.726092E-02
      0.750000E-01      0.655818E-02
      0.800000E-01      0.588498E-02
      0.850000E-01      0.524792E-02
      0.900000E-01      0.465220E-02
      0.950000E-01      0.410157E-02
      0.100000          0.359840E-02
      0.105000          0.314376E-02
      0.110000          0.273752E-02
      0.115000          0.237851E-02
      0.120000          0.206468E-02
      0.125000          0.179328E-02
      0.130000          0.156101E-02
      0.135000          0.136427E-02
      0.140000          0.119922E-02
      0.145000          0.106200E-02
      0.150000          0.948822E-03
      0.155000          0.856090E-03
      0.160000          0.780460E-03
      0.165000          0.718902E-03
      0.170000          0.668737E-03
      0.175000          0.627639E-03
      0.180000          0.593639E-03
      0.185000          0.565100E-03
      0.190000          0.540691E-03
      0.195000          0.519350E-03
      0.200000          0.500248E-03
      0.205000          0.482749E-03
      0.210000          0.466370E-03
      0.215000          0.450753E-03
      0.220000          0.435632E-03
      0.225000          0.420812E-03
      0.230000          0.406151E-03
      0.235000          0.391545E-03
      0.240000          0.376924E-03
      0.245000          0.362243E-03
      0.250000          0.347483E-03
      0.255000          0.332647E-03
      0.260000          0.317763E-03
      0.265000          0.302878E-03
      0.270000          0.288064E-03
      0.275000          0.273410E-03
      0.280000          0.259019E-03
      0.285000          0.245006E-03
      0.290000          0.231491E-03
      0.295000          0.218590E-03
      0.300000          0.206413E-03
      0.305000          0.195056E-03
      0.310000          0.184593E-03
      0.315000          0.175080E-03
      0.320000          0.166541E-03
      0.325000          0.158978E-03
      0.330000          0.152363E-03
      0.335000          0.146647E-03
      0.340000          0.141755E-03
      0.345000          0.137599E-03
      0.350000          0.134077E-03
      0.355000          0.131083E-03
      0.360000          0.128506E-03
      0.365000          0.126243E-03
      0.370000          0.124195E-03
      0.375000          0.122279E-03
      0.380000          0.120422E-03
      0.385000          0.118570E-03
      0.390000          0.116685E-03
      0.395000          0.114741E-03
      0.400000          0.112730E-03
      0.405000          0.110656E-03
      0.410000          0.108530E-03
      0.415000          0.106373E-03
      0.420000          0.104209E-03
      0.425000          0.102064E-03
      0.430000          0.999641E-04
      0.435000          0.979322E-04
      0.440000          0.959884E-04
      0.445000          0.941480E-04
      0.450000          0.924214E-04
      0.455000          0.908142E-04
      0.460000          0.893273E-04
      0.465000          0.879577E-04
      0.470000          0.866996E-04
      0.475000          0.855450E-04
      0.480000          0.844846E-04
      0.485000          0.835090E-04
      0.490000          0.826091E-04
      0.495000          0.817766E-04
      0.500000          0.810047E-04
