 I_abs(s)[cm^-1]/c[mg/ml]
       0.00000          0.144684E-01
      0.500000E-02      0.144164E-01
      0.100000E-01      0.142617E-01
      0.150000E-01      0.140081E-01
      0.200000E-01      0.136614E-01
      0.250000E-01      0.132298E-01
      0.300000E-01      0.127230E-01
      0.350000E-01      0.121521E-01
      0.400000E-01      0.115294E-01
      0.450000E-01      0.108673E-01
      0.500000E-01      0.101785E-01
      0.550000E-01      0.947537E-02
      0.600000E-01      0.876945E-02
      0.650000E-01      0.807133E-02
      0.700000E-01      0.739029E-02
      0.750000E-01      0.673418E-02
      0.800000E-01      0.610932E-02
      0.850000E-01      0.552046E-02
      0.900000E-01      0.497084E-02
      0.950000E-01      0.446230E-02
      0.100000          0.399544E-02
      0.105000          0.356976E-02
      0.110000          0.318392E-02
      0.115000          0.283592E-02
      0.120000          0.252330E-02
      0.125000          0.224333E-02
      0.130000          0.199317E-02
      0.135000          0.177001E-02
      0.140000          0.157113E-02
      0.145000          0.139403E-02
      0.150000          0.123644E-02
      0.155000          0.109631E-02
      0.160000          0.971861E-03
      0.165000          0.861519E-03
      0.170000          0.763910E-03
      0.175000          0.677817E-03
      0.180000          0.602155E-03
      0.185000          0.535940E-03
      0.190000          0.478263E-03
      0.195000          0.428275E-03
      0.200000          0.385179E-03
      0.205000          0.348223E-03
      0.210000          0.316699E-03
      0.215000          0.289951E-03
      0.220000          0.267376E-03
      0.225000          0.248428E-03
      0.230000          0.232623E-03
      0.235000          0.219537E-03
      0.240000          0.208807E-03
      0.245000          0.200122E-03
      0.250000          0.193220E-03
      0.255000          0.187876E-03
      0.260000          0.183893E-03
      0.265000          0.181096E-03
      0.270000          0.179320E-03
      0.275000          0.178407E-03
      0.280000          0.178198E-03
      0.285000          0.178535E-03
      0.290000          0.179260E-03
      0.295000          0.180215E-03
      0.300000          0.181249E-03
      0.305000          0.182219E-03
      0.310000          0.182999E-03
      0.315000          0.183479E-03
      0.320000          0.183572E-03
      0.325000          0.183215E-03
      0.330000          0.182367E-03
      0.335000          0.181013E-03
      0.340000          0.179157E-03
      0.345000          0.176822E-03
      0.350000          0.174042E-03
      0.355000          0.170866E-03
      0.360000          0.167342E-03
      0.365000          0.163525E-03
      0.370000          0.159467E-03
      0.375000          0.155216E-03
      0.380000          0.150819E-03
      0.385000          0.146314E-03
      0.390000          0.141740E-03
      0.395000          0.137129E-03
      0.400000          0.132514E-03
      0.405000          0.127927E-03
      0.410000          0.123398E-03
      0.415000          0.118963E-03
      0.420000          0.114655E-03
      0.425000          0.110508E-03
      0.430000          0.106559E-03
      0.435000          0.102841E-03
      0.440000          0.993847E-04
      0.445000          0.962145E-04
      0.450000          0.933499E-04
      0.455000          0.908016E-04
      0.460000          0.885720E-04
      0.465000          0.866540E-04
      0.470000          0.850316E-04
      0.475000          0.836808E-04
      0.480000          0.825712E-04
      0.485000          0.816672E-04
      0.490000          0.809312E-04
      0.495000          0.803250E-04
      0.500000          0.798127E-04
