 I_abs(s)[cm^-1]/c[mg/ml]
       0.00000          0.148105E-01
      0.500000E-02      0.147590E-01
      0.100000E-01      0.146054E-01
      0.150000E-01      0.143530E-01
      0.200000E-01      0.140072E-01
      0.250000E-01      0.135749E-01
      0.300000E-01      0.130649E-01
      0.350000E-01      0.124873E-01
      0.400000E-01      0.118533E-01
      0.450000E-01      0.111745E-01
      0.500000E-01      0.104631E-01
      0.550000E-01      0.973118E-02
      0.600000E-01      0.899046E-02
      0.650000E-01      0.825202E-02
      0.700000E-01      0.752603E-02
      0.750000E-01      0.682152E-02
      0.800000E-01      0.614625E-02
      0.850000E-01      0.550660E-02
      0.900000E-01      0.490749E-02
      0.950000E-01      0.435244E-02
      0.100000          0.384358E-02
      0.105000          0.338175E-02
      0.110000          0.296667E-02
      0.115000          0.259704E-02
      0.120000          0.227075E-02
      0.125000          0.198506E-02
      0.130000          0.173676E-02
      0.135000          0.152234E-02
      0.140000          0.133819E-02
      0.145000          0.118067E-02
      0.150000          0.104627E-02
      0.155000          0.931707E-03
      0.160000          0.833961E-03
      0.165000          0.750332E-03
      0.170000          0.678466E-03
      0.175000          0.616347E-03
      0.180000          0.562292E-03
      0.185000          0.514920E-03
      0.190000          0.473121E-03
      0.195000          0.436018E-03
      0.200000          0.402924E-03
      0.205000          0.373307E-03
      0.210000          0.346752E-03
      0.215000          0.322927E-03
      0.220000          0.301564E-03
      0.225000          0.282430E-03
      0.230000          0.265319E-03
      0.235000          0.250036E-03
      0.240000          0.236399E-03
      0.245000          0.224232E-03
      0.250000          0.213365E-03
      0.255000          0.203640E-03
      0.260000          0.194910E-03
      0.265000          0.187046E-03
      0.270000          0.179933E-03
      0.275000          0.173477E-03
      0.280000          0.167603E-03
      0.285000          0.162253E-03
      0.290000          0.157386E-03
      0.295000          0.152974E-03
      0.300000          0.148998E-03
      0.305000          0.145449E-03
      0.310000          0.142317E-03
      0.315000          0.139597E-03
      0.320000          0.137279E-03
      0.325000          0.135348E-03
      0.330000          0.133787E-03
      0.335000          0.132569E-03
      0.340000          0.131664E-03
      0.345000          0.131036E-03
      0.350000          0.130643E-03
      0.355000          0.130444E-03
      0.360000          0.130392E-03
      0.365000          0.130446E-03
      0.370000          0.130562E-03
      0.375000          0.130702E-03
      0.380000          0.130833E-03
      0.385000          0.130924E-03
      0.390000          0.130953E-03
      0.395000          0.130903E-03
      0.400000          0.130763E-03
      0.405000          0.130527E-03
      0.410000          0.130193E-03
      0.415000          0.129765E-03
      0.420000          0.129250E-03
      0.425000          0.128657E-03
      0.430000          0.127997E-03
      0.435000          0.127282E-03
      0.440000          0.126524E-03
      0.445000          0.125733E-03
      0.450000          0.124919E-03
      0.455000          0.124091E-03
      0.460000          0.123254E-03
      0.465000          0.122411E-03
      0.470000          0.121564E-03
      0.475000          0.120711E-03
      0.480000          0.119850E-03
      0.485000          0.118976E-03
      0.490000          0.118082E-03
      0.495000          0.117161E-03
      0.500000          0.116207E-03
