 I_abs(s)[cm^-1]/c[mg/ml]
       0.00000          0.143657E-01
      0.500000E-02      0.143200E-01
      0.100000E-01      0.141837E-01
      0.150000E-01      0.139593E-01
      0.200000E-01      0.136511E-01
      0.250000E-01      0.132648E-01
      0.300000E-01      0.128073E-01
      0.350000E-01      0.122868E-01
      0.400000E-01      0.117122E-01
      0.450000E-01      0.110934E-01
      0.500000E-01      0.104402E-01
      0.550000E-01      0.976297E-02
      0.600000E-01      0.907163E-02
      0.650000E-01      0.837587E-02
      0.700000E-01      0.768477E-02
      0.750000E-01      0.700663E-02
      0.800000E-01      0.634886E-02
      0.850000E-01      0.571786E-02
      0.900000E-01      0.511893E-02
      0.950000E-01      0.455625E-02
      0.100000          0.403289E-02
      0.105000          0.355087E-02
      0.110000          0.311116E-02
      0.115000          0.271386E-02
      0.120000          0.235823E-02
      0.125000          0.204286E-02
      0.130000          0.176577E-02
      0.135000          0.152453E-02
      0.140000          0.131642E-02
      0.145000          0.113852E-02
      0.150000          0.987794E-03
      0.155000          0.861229E-03
      0.160000          0.755874E-03
      0.165000          0.668917E-03
      0.170000          0.597728E-03
      0.175000          0.539890E-03
      0.180000          0.493222E-03
      0.185000          0.455783E-03
      0.190000          0.425874E-03
      0.195000          0.402028E-03
      0.200000          0.382994E-03
      0.205000          0.367724E-03
      0.210000          0.355346E-03
      0.215000          0.345147E-03
      0.220000          0.336552E-03
      0.225000          0.329101E-03
      0.230000          0.322435E-03
      0.235000          0.316274E-03
      0.240000          0.310409E-03
      0.245000          0.304681E-03
      0.250000          0.298980E-03
      0.255000          0.293226E-03
      0.260000          0.287372E-03
      0.265000          0.281388E-03
      0.270000          0.275263E-03
      0.275000          0.268998E-03
      0.280000          0.262605E-03
      0.285000          0.256099E-03
      0.290000          0.249504E-03
      0.295000          0.242844E-03
      0.300000          0.236145E-03
      0.305000          0.229434E-03
      0.310000          0.222739E-03
      0.315000          0.216088E-03
      0.320000          0.209505E-03
      0.325000          0.203017E-03
      0.330000          0.196649E-03
      0.335000          0.190423E-03
      0.340000          0.184362E-03
      0.345000          0.178486E-03
      0.350000          0.172816E-03
      0.355000          0.167368E-03
      0.360000          0.162157E-03
      0.365000          0.157195E-03
      0.370000          0.152492E-03
      0.375000          0.148054E-03
      0.380000          0.143883E-03
      0.385000          0.139978E-03
      0.390000          0.136334E-03
      0.395000          0.132944E-03
      0.400000          0.129797E-03
      0.405000          0.126881E-03
      0.410000          0.124179E-03
      0.415000          0.121678E-03
      0.420000          0.119359E-03
      0.425000          0.117209E-03
      0.430000          0.115211E-03
      0.435000          0.113351E-03
      0.440000          0.111619E-03
      0.445000          0.110001E-03
      0.450000          0.108491E-03
      0.455000          0.107080E-03
      0.460000          0.105762E-03
      0.465000          0.104531E-03
      0.470000          0.103382E-03
      0.475000          0.102307E-03
      0.480000          0.101301E-03
      0.485000          0.100355E-03
      0.490000          0.994600E-04
      0.495000          0.986055E-04
      0.500000          0.977792E-04
