 I_abs(s)[cm^-1]/c[mg/ml]
       0.00000          0.146111E-01
      0.500000E-02      0.145637E-01
      0.100000E-01      0.144226E-01
      0.150000E-01      0.141907E-01
      0.200000E-01      0.138728E-01
      0.250000E-01      0.134754E-01
      0.300000E-01      0.130064E-01
      0.350000E-01      0.124748E-01
      0.400000E-01      0.118907E-01
      0.450000E-01      0.112646E-01
      0.500000E-01      0.106072E-01
      0.550000E-01      0.992913E-02
      0.600000E-01      0.924076E-02
      0.650000E-01      0.855174E-02
      0.700000E-01      0.787089E-02
      0.750000E-01      0.720606E-02
      0.800000E-01      0.656398E-02
      0.850000E-01      0.595020E-02
      0.900000E-01      0.536912E-02
      0.950000E-01      0.482395E-02
      0.100000          0.431685E-02
      0.105000          0.384894E-02
      0.110000          0.342051E-02
      0.115000          0.303106E-02
      0.120000          0.267948E-02
      0.125000          0.236418E-02
      0.130000          0.208317E-02
      0.135000          0.183422E-02
      0.140000          0.161492E-02
      0.145000          0.142281E-02
      0.150000          0.125538E-02
      0.155000          0.111019E-02
      0.160000          0.984871E-03
      0.165000          0.877165E-03
      0.170000          0.784948E-03
      0.175000          0.706245E-03
      0.180000          0.639234E-03
      0.185000          0.582250E-03
      0.190000          0.533790E-03
      0.195000          0.492508E-03
      0.200000          0.457213E-03
      0.205000          0.426865E-03
      0.210000          0.400566E-03
      0.215000          0.377555E-03
      0.220000          0.357198E-03
      0.225000          0.338973E-03
      0.230000          0.322463E-03
      0.235000          0.307341E-03
      0.240000          0.293354E-03
      0.245000          0.280316E-03
      0.250000          0.268086E-03
      0.255000          0.256564E-03
      0.260000          0.245676E-03
      0.265000          0.235367E-03
      0.270000          0.225594E-03
      0.275000          0.216321E-03
      0.280000          0.207516E-03
      0.285000          0.199149E-03
      0.290000          0.191191E-03
      0.295000          0.183617E-03
      0.300000          0.176407E-03
      0.305000          0.169543E-03
      0.310000          0.163015E-03
      0.315000          0.156818E-03
      0.320000          0.150954E-03
      0.325000          0.145431E-03
      0.330000          0.140259E-03
      0.335000          0.135453E-03
      0.340000          0.131026E-03
      0.345000          0.126989E-03
      0.350000          0.123350E-03
      0.355000          0.120108E-03
      0.360000          0.117258E-03
      0.365000          0.114783E-03
      0.370000          0.112660E-03
      0.375000          0.110856E-03
      0.380000          0.109332E-03
      0.385000          0.108044E-03
      0.390000          0.106943E-03
      0.395000          0.105981E-03
      0.400000          0.105109E-03
      0.405000          0.104282E-03
      0.410000          0.103460E-03
      0.415000          0.102607E-03
      0.420000          0.101699E-03
      0.425000          0.100717E-03
      0.430000          0.996502E-04
      0.435000          0.984976E-04
      0.440000          0.972642E-04
      0.445000          0.959612E-04
      0.450000          0.946048E-04
      0.455000          0.932144E-04
      0.460000          0.918109E-04
      0.465000          0.904158E-04
      0.470000          0.890488E-04
      0.475000          0.877276E-04
      0.480000          0.864663E-04
      0.485000          0.852750E-04
      0.490000          0.841595E-04
      0.495000          0.831212E-04
      0.500000          0.821574E-04
