 I_abs(s)[cm^-1]/c[mg/ml]
       0.00000          0.141693E-01
      0.500000E-02      0.141082E-01
      0.100000E-01      0.139266E-01
      0.150000E-01      0.136295E-01
      0.200000E-01      0.132247E-01
      0.250000E-01      0.127231E-01
      0.300000E-01      0.121375E-01
      0.350000E-01      0.114829E-01
      0.400000E-01      0.107752E-01
      0.450000E-01      0.100308E-01
      0.500000E-01      0.926635E-02
      0.550000E-01      0.849763E-02
      0.600000E-01      0.773939E-02
      0.650000E-01      0.700478E-02
      0.700000E-01      0.630499E-02
      0.750000E-01      0.564903E-02
      0.800000E-01      0.504358E-02
      0.850000E-01      0.449300E-02
      0.900000E-01      0.399937E-02
      0.950000E-01      0.356270E-02
      0.100000          0.318117E-02
      0.105000          0.285145E-02
      0.110000          0.256902E-02
      0.115000          0.232857E-02
      0.120000          0.212431E-02
      0.125000          0.195035E-02
      0.130000          0.180096E-02
      0.135000          0.167085E-02
      0.140000          0.155531E-02
      0.145000          0.145037E-02
      0.150000          0.135289E-02
      0.155000          0.126052E-02
      0.160000          0.117168E-02
      0.165000          0.108551E-02
      0.170000          0.100172E-02
      0.175000          0.920489E-03
      0.180000          0.842323E-03
      0.185000          0.767920E-03
      0.190000          0.698047E-03
      0.195000          0.633435E-03
      0.200000          0.574694E-03
      0.205000          0.522251E-03
      0.210000          0.476318E-03
      0.215000          0.436874E-03
      0.220000          0.403679E-03
      0.225000          0.376296E-03
      0.230000          0.354129E-03
      0.235000          0.336470E-03
      0.240000          0.322546E-03
      0.245000          0.311571E-03
      0.250000          0.302783E-03
      0.255000          0.295485E-03
      0.260000          0.289074E-03
      0.265000          0.283053E-03
      0.270000          0.277045E-03
      0.275000          0.270788E-03
      0.280000          0.264133E-03
      0.285000          0.257021E-03
      0.290000          0.249476E-03
      0.295000          0.241575E-03
      0.300000          0.233434E-03
      0.305000          0.225189E-03
      0.310000          0.216975E-03
      0.315000          0.208918E-03
      0.320000          0.201121E-03
      0.325000          0.193663E-03
      0.330000          0.186591E-03
      0.335000          0.179926E-03
      0.340000          0.173663E-03
      0.345000          0.167779E-03
      0.350000          0.162235E-03
      0.355000          0.156984E-03
      0.360000          0.151977E-03
      0.365000          0.147168E-03
      0.370000          0.142518E-03
      0.375000          0.137995E-03
      0.380000          0.133579E-03
      0.385000          0.129258E-03
      0.390000          0.125032E-03
      0.395000          0.120907E-03
      0.400000          0.116894E-03
      0.405000          0.113007E-03
      0.410000          0.109264E-03
      0.415000          0.105677E-03
      0.420000          0.102260E-03
      0.425000          0.990197E-04
      0.430000          0.959619E-04
      0.435000          0.930863E-04
      0.440000          0.903896E-04
      0.445000          0.878655E-04
      0.450000          0.855056E-04
      0.455000          0.833006E-04
      0.460000          0.812412E-04
      0.465000          0.793186E-04
      0.470000          0.775257E-04
      0.475000          0.758571E-04
      0.480000          0.743091E-04
      0.485000          0.728803E-04
      0.490000          0.715705E-04
      0.495000          0.703808E-04
      0.500000          0.693128E-04
