 I_abs(s)[cm^-1]/c[mg/ml]
       0.00000          0.146429E-01
      0.500000E-02      0.145867E-01
      0.100000E-01      0.144197E-01
      0.150000E-01      0.141462E-01
      0.200000E-01      0.137732E-01
      0.250000E-01      0.133103E-01
      0.300000E-01      0.127688E-01
      0.350000E-01      0.121617E-01
      0.400000E-01      0.115028E-01
      0.450000E-01      0.108063E-01
      0.500000E-01      0.100864E-01
      0.550000E-01      0.935660E-02
      0.600000E-01      0.862934E-02
      0.650000E-01      0.791572E-02
      0.700000E-01      0.722525E-02
      0.750000E-01      0.656564E-02
      0.800000E-01      0.594282E-02
      0.850000E-01      0.536095E-02
      0.900000E-01      0.482255E-02
      0.950000E-01      0.432867E-02
      0.100000          0.387910E-02
      0.105000          0.347264E-02
      0.110000          0.310729E-02
      0.115000          0.278052E-02
      0.120000          0.248945E-02
      0.125000          0.223108E-02
      0.130000          0.200234E-02
      0.135000          0.180027E-02
      0.140000          0.162208E-02
      0.145000          0.146513E-02
      0.150000          0.132701E-02
      0.155000          0.120553E-02
      0.160000          0.109864E-02
      0.165000          0.100451E-02
      0.170000          0.921446E-03
      0.175000          0.847896E-03
      0.180000          0.782449E-03
      0.185000          0.723824E-03
      0.190000          0.670879E-03
      0.195000          0.622612E-03
      0.200000          0.578171E-03
      0.205000          0.536858E-03
      0.210000          0.498129E-03
      0.215000          0.461590E-03
      0.220000          0.426984E-03
      0.225000          0.394180E-03
      0.230000          0.363147E-03
      0.235000          0.333929E-03
      0.240000          0.306619E-03
      0.245000          0.281332E-03
      0.250000          0.258177E-03
      0.255000          0.237238E-03
      0.260000          0.218559E-03
      0.265000          0.202127E-03
      0.270000          0.187876E-03
      0.275000          0.175683E-03
      0.280000          0.165378E-03
      0.285000          0.156749E-03
      0.290000          0.149563E-03
      0.295000          0.143574E-03
      0.300000          0.138539E-03
      0.305000          0.134233E-03
      0.310000          0.130454E-03
      0.315000          0.127037E-03
      0.320000          0.123855E-03
      0.325000          0.120817E-03
      0.330000          0.117873E-03
      0.335000          0.115004E-03
      0.340000          0.112220E-03
      0.345000          0.109548E-03
      0.350000          0.107031E-03
      0.355000          0.104715E-03
      0.360000          0.102645E-03
      0.365000          0.100860E-03
      0.370000          0.993877E-04
      0.375000          0.982426E-04
      0.380000          0.974241E-04
      0.385000          0.969169E-04
      0.390000          0.966923E-04
      0.395000          0.967102E-04
      0.400000          0.969212E-04
      0.405000          0.972703E-04
      0.410000          0.976992E-04
      0.415000          0.981500E-04
      0.420000          0.985672E-04
      0.425000          0.989004E-04
      0.430000          0.991059E-04
      0.435000          0.991483E-04
      0.440000          0.990013E-04
      0.445000          0.986478E-04
      0.450000          0.980800E-04
      0.455000          0.972989E-04
      0.460000          0.963135E-04
      0.465000          0.951395E-04
      0.470000          0.937983E-04
      0.475000          0.923157E-04
      0.480000          0.907202E-04
      0.485000          0.890419E-04
      0.490000          0.873109E-04
      0.495000          0.855567E-04
      0.500000          0.838067E-04
