 I_abs(s)[cm^-1]/c[mg/ml]
       0.00000          0.147306E-01
      0.500000E-02      0.146787E-01
      0.100000E-01      0.145245E-01
      0.150000E-01      0.142714E-01
      0.200000E-01      0.139255E-01
      0.250000E-01      0.134946E-01
      0.300000E-01      0.129885E-01
      0.350000E-01      0.124179E-01
      0.400000E-01      0.117949E-01
      0.450000E-01      0.111318E-01
      0.500000E-01      0.104408E-01
      0.550000E-01      0.973412E-02
      0.600000E-01      0.902296E-02
      0.650000E-01      0.831768E-02
      0.700000E-01      0.762735E-02
      0.750000E-01      0.695972E-02
      0.800000E-01      0.632106E-02
      0.850000E-01      0.571621E-02
      0.900000E-01      0.514861E-02
      0.950000E-01      0.462040E-02
      0.100000          0.413260E-02
      0.105000          0.368523E-02
      0.110000          0.327752E-02
      0.115000          0.290808E-02
      0.120000          0.257506E-02
      0.125000          0.227632E-02
      0.130000          0.200953E-02
      0.135000          0.177229E-02
      0.140000          0.156220E-02
      0.145000          0.137693E-02
      0.150000          0.121424E-02
      0.155000          0.107198E-02
      0.160000          0.948146E-03
      0.165000          0.840842E-03
      0.170000          0.748289E-03
      0.175000          0.668819E-03
      0.180000          0.600873E-03
      0.185000          0.543001E-03
      0.190000          0.493858E-03
      0.195000          0.452212E-03
      0.200000          0.416943E-03
      0.205000          0.387051E-03
      0.210000          0.361650E-03
      0.215000          0.339973E-03
      0.220000          0.321369E-03
      0.225000          0.305289E-03
      0.230000          0.291285E-03
      0.235000          0.278990E-03
      0.240000          0.268112E-03
      0.245000          0.258414E-03
      0.250000          0.249705E-03
      0.255000          0.241825E-03
      0.260000          0.234637E-03
      0.265000          0.228018E-03
      0.270000          0.221857E-03
      0.275000          0.216047E-03
      0.280000          0.210490E-03
      0.285000          0.205096E-03
      0.290000          0.199784E-03
      0.295000          0.194488E-03
      0.300000          0.189157E-03
      0.305000          0.183756E-03
      0.310000          0.178268E-03
      0.315000          0.172694E-03
      0.320000          0.167053E-03
      0.325000          0.161376E-03
      0.330000          0.155703E-03
      0.335000          0.150085E-03
      0.340000          0.144573E-03
      0.345000          0.139219E-03
      0.350000          0.134074E-03
      0.355000          0.129180E-03
      0.360000          0.124576E-03
      0.365000          0.120292E-03
      0.370000          0.116348E-03
      0.375000          0.112759E-03
      0.380000          0.109533E-03
      0.385000          0.106670E-03
      0.390000          0.104166E-03
      0.395000          0.102013E-03
      0.400000          0.100198E-03
      0.405000          0.987036E-04
      0.410000          0.975108E-04
      0.415000          0.965961E-04
      0.420000          0.959327E-04
      0.425000          0.954907E-04
      0.430000          0.952373E-04
      0.435000          0.951373E-04
      0.440000          0.951536E-04
      0.445000          0.952487E-04
      0.450000          0.953855E-04
      0.455000          0.955289E-04
      0.460000          0.956470E-04
      0.465000          0.957125E-04
      0.470000          0.957037E-04
      0.475000          0.956051E-04
      0.480000          0.954078E-04
      0.485000          0.951096E-04
      0.490000          0.947139E-04
      0.495000          0.942294E-04
      0.500000          0.936679E-04
