 I_abs(s)[cm^-1]/c[mg/ml]
       0.00000          0.145793E-01
      0.500000E-02      0.145198E-01
      0.100000E-01      0.143429E-01
      0.150000E-01      0.140539E-01
      0.200000E-01      0.136609E-01
      0.250000E-01      0.131750E-01
      0.300000E-01      0.126093E-01
      0.350000E-01      0.119783E-01
      0.400000E-01      0.112977E-01
      0.450000E-01      0.105830E-01
      0.500000E-01      0.984947E-02
      0.550000E-01      0.911131E-02
      0.600000E-01      0.838120E-02
      0.650000E-01      0.767003E-02
      0.700000E-01      0.698671E-02
      0.750000E-01      0.633810E-02
      0.800000E-01      0.572902E-02
      0.850000E-01      0.516248E-02
      0.900000E-01      0.463984E-02
      0.950000E-01      0.416111E-02
      0.100000          0.372525E-02
      0.105000          0.333042E-02
      0.110000          0.297430E-02
      0.115000          0.265429E-02
      0.120000          0.236768E-02
      0.125000          0.211179E-02
      0.130000          0.188407E-02
      0.135000          0.168212E-02
      0.140000          0.150371E-02
      0.145000          0.134679E-02
      0.150000          0.120941E-02
      0.155000          0.108977E-02
      0.160000          0.986103E-03
      0.165000          0.896750E-03
      0.170000          0.820084E-03
      0.175000          0.754541E-03
      0.180000          0.698619E-03
      0.185000          0.650899E-03
      0.190000          0.610053E-03
      0.195000          0.574867E-03
      0.200000          0.544252E-03
      0.205000          0.517249E-03
      0.210000          0.493037E-03
      0.215000          0.470927E-03
      0.220000          0.450353E-03
      0.225000          0.430867E-03
      0.230000          0.412122E-03
      0.235000          0.393862E-03
      0.240000          0.375906E-03
      0.245000          0.358139E-03
      0.250000          0.340501E-03
      0.255000          0.322979E-03
      0.260000          0.305600E-03
      0.265000          0.288423E-03
      0.270000          0.271534E-03
      0.275000          0.255036E-03
      0.280000          0.239048E-03
      0.285000          0.223690E-03
      0.290000          0.209081E-03
      0.295000          0.195327E-03
      0.300000          0.182519E-03
      0.305000          0.170722E-03
      0.310000          0.159977E-03
      0.315000          0.150294E-03
      0.320000          0.141659E-03
      0.325000          0.134028E-03
      0.330000          0.127342E-03
      0.335000          0.121523E-03
      0.340000          0.116485E-03
      0.345000          0.112139E-03
      0.350000          0.108396E-03
      0.355000          0.105176E-03
      0.360000          0.102405E-03
      0.365000          0.100022E-03
      0.370000          0.979741E-04
      0.375000          0.962186E-04
      0.380000          0.947208E-04
      0.385000          0.934513E-04
      0.390000          0.923844E-04
      0.395000          0.914960E-04
      0.400000          0.907629E-04
      0.405000          0.901616E-04
      0.410000          0.896688E-04
      0.415000          0.892614E-04
      0.420000          0.889177E-04
      0.425000          0.886182E-04
      0.430000          0.883460E-04
      0.435000          0.880877E-04
      0.440000          0.878333E-04
      0.445000          0.875763E-04
      0.450000          0.873127E-04
      0.455000          0.870406E-04
      0.460000          0.867593E-04
      0.465000          0.864683E-04
      0.470000          0.861670E-04
      0.475000          0.858544E-04
      0.480000          0.855287E-04
      0.485000          0.851884E-04
      0.490000          0.848318E-04
      0.495000          0.844585E-04
      0.500000          0.840695E-04
