 I_abs(s)[cm^-1]/c[mg/ml]
       0.00000          0.146031E-01
      0.500000E-02      0.145517E-01
      0.100000E-01      0.143985E-01
      0.150000E-01      0.141469E-01
      0.200000E-01      0.138025E-01
      0.250000E-01      0.133727E-01
      0.300000E-01      0.128666E-01
      0.350000E-01      0.122947E-01
      0.400000E-01      0.116684E-01
      0.450000E-01      0.109999E-01
      0.500000E-01      0.103014E-01
      0.550000E-01      0.958516E-02
      0.600000E-01      0.886277E-02
      0.650000E-01      0.814514E-02
      0.700000E-01      0.744210E-02
      0.750000E-01      0.676220E-02
      0.800000E-01      0.611262E-02
      0.850000E-01      0.549904E-02
      0.900000E-01      0.492566E-02
      0.950000E-01      0.439524E-02
      0.100000          0.390918E-02
      0.105000          0.346767E-02
      0.110000          0.306985E-02
      0.115000          0.271399E-02
      0.120000          0.239768E-02
      0.125000          0.211806E-02
      0.130000          0.187193E-02
      0.135000          0.165600E-02
      0.140000          0.146698E-02
      0.145000          0.130171E-02
      0.150000          0.115724E-02
      0.155000          0.103092E-02
      0.160000          0.920396E-03
      0.165000          0.823634E-03
      0.170000          0.738915E-03
      0.175000          0.664802E-03
      0.180000          0.600106E-03
      0.185000          0.543840E-03
      0.190000          0.495175E-03
      0.195000          0.453400E-03
      0.200000          0.417879E-03
      0.205000          0.388020E-03
      0.210000          0.363255E-03
      0.215000          0.343016E-03
      0.220000          0.326736E-03
      0.225000          0.313839E-03
      0.230000          0.303753E-03
      0.235000          0.295913E-03
      0.240000          0.289774E-03
      0.245000          0.284827E-03
      0.250000          0.280603E-03
      0.255000          0.276694E-03
      0.260000          0.272753E-03
      0.265000          0.268501E-03
      0.270000          0.263731E-03
      0.275000          0.258306E-03
      0.280000          0.252152E-03
      0.285000          0.245256E-03
      0.290000          0.237655E-03
      0.295000          0.229427E-03
      0.300000          0.220681E-03
      0.305000          0.211549E-03
      0.310000          0.202175E-03
      0.315000          0.192708E-03
      0.320000          0.183294E-03
      0.325000          0.174073E-03
      0.330000          0.165170E-03
      0.335000          0.156697E-03
      0.340000          0.148748E-03
      0.345000          0.141401E-03
      0.350000          0.134714E-03
      0.355000          0.128730E-03
      0.360000          0.123472E-03
      0.365000          0.118951E-03
      0.370000          0.115160E-03
      0.375000          0.112081E-03
      0.380000          0.109683E-03
      0.385000          0.107922E-03
      0.390000          0.106745E-03
      0.395000          0.106092E-03
      0.400000          0.105893E-03
      0.405000          0.106073E-03
      0.410000          0.106552E-03
      0.415000          0.107247E-03
      0.420000          0.108077E-03
      0.425000          0.108959E-03
      0.430000          0.109817E-03
      0.435000          0.110577E-03
      0.440000          0.111176E-03
      0.445000          0.111558E-03
      0.450000          0.111678E-03
      0.455000          0.111503E-03
      0.460000          0.111010E-03
      0.465000          0.110192E-03
      0.470000          0.109051E-03
      0.475000          0.107601E-03
      0.480000          0.105866E-03
      0.485000          0.103879E-03
      0.490000          0.101679E-03
      0.495000          0.993105E-04
      0.500000          0.968201E-04
