 I_abs(s)[cm^-1]/c[mg/ml]
       0.00000          0.141380E-01
      0.500000E-02      0.140710E-01
      0.100000E-01      0.138721E-01
      0.150000E-01      0.135471E-01
      0.200000E-01      0.131055E-01
      0.250000E-01      0.125600E-01
      0.300000E-01      0.119259E-01
      0.350000E-01      0.112205E-01
      0.400000E-01      0.104622E-01
      0.450000E-01      0.966994E-02
      0.500000E-01      0.886218E-02
      0.550000E-01      0.805646E-02
      0.600000E-01      0.726868E-02
      0.650000E-01      0.651261E-02
      0.700000E-01      0.579952E-02
      0.750000E-01      0.513804E-02
      0.800000E-01      0.453402E-02
      0.850000E-01      0.399067E-02
      0.900000E-01      0.350870E-02
      0.950000E-01      0.308667E-02
      0.100000          0.272137E-02
      0.105000          0.240818E-02
      0.110000          0.214156E-02
      0.115000          0.191547E-02
      0.120000          0.172374E-02
      0.125000          0.156041E-02
      0.130000          0.142001E-02
      0.135000          0.129775E-02
      0.140000          0.118964E-02
      0.145000          0.109251E-02
      0.150000          0.100403E-02
      0.155000          0.922609E-03
      0.160000          0.847274E-03
      0.165000          0.777564E-03
      0.170000          0.713364E-03
      0.175000          0.654766E-03
      0.180000          0.601942E-03
      0.185000          0.555035E-03
      0.190000          0.514087E-03
      0.195000          0.478980E-03
      0.200000          0.449424E-03
      0.205000          0.424957E-03
      0.210000          0.404971E-03
      0.215000          0.388751E-03
      0.220000          0.375526E-03
      0.225000          0.364518E-03
      0.230000          0.354989E-03
      0.235000          0.346283E-03
      0.240000          0.337854E-03
      0.245000          0.329288E-03
      0.250000          0.320306E-03
      0.255000          0.310763E-03
      0.260000          0.300629E-03
      0.265000          0.289975E-03
      0.270000          0.278942E-03
      0.275000          0.267722E-03
      0.280000          0.256524E-03
      0.285000          0.245560E-03
      0.290000          0.235022E-03
      0.295000          0.225072E-03
      0.300000          0.215831E-03
      0.305000          0.207378E-03
      0.310000          0.199749E-03
      0.315000          0.192946E-03
      0.320000          0.186936E-03
      0.325000          0.181663E-03
      0.330000          0.177056E-03
      0.335000          0.173032E-03
      0.340000          0.169503E-03
      0.345000          0.166383E-03
      0.350000          0.163587E-03
      0.355000          0.161036E-03
      0.360000          0.158659E-03
      0.365000          0.156389E-03
      0.370000          0.154167E-03
      0.375000          0.151943E-03
      0.380000          0.149672E-03
      0.385000          0.147319E-03
      0.390000          0.144859E-03
      0.395000          0.142272E-03
      0.400000          0.139554E-03
      0.405000          0.136706E-03
      0.410000          0.133742E-03
      0.415000          0.130684E-03
      0.420000          0.127561E-03
      0.425000          0.124408E-03
      0.430000          0.121263E-03
      0.435000          0.118164E-03
      0.440000          0.115149E-03
      0.445000          0.112250E-03
      0.450000          0.109491E-03
      0.455000          0.106891E-03
      0.460000          0.104461E-03
      0.465000          0.102201E-03
      0.470000          0.100107E-03
      0.475000          0.981684E-04
      0.480000          0.963696E-04
      0.485000          0.946950E-04
      0.490000          0.931286E-04
      0.495000          0.916568E-04
      0.500000          0.902695E-04
