 I_abs(s)[cm^-1]/c[mg/ml]
       0.00000          0.141850E-01
      0.500000E-02      0.141207E-01
      0.100000E-01      0.139297E-01
      0.150000E-01      0.136174E-01
      0.200000E-01      0.131927E-01
      0.250000E-01      0.126674E-01
      0.300000E-01      0.120559E-01
      0.350000E-01      0.113741E-01
      0.400000E-01      0.106394E-01
      0.450000E-01      0.986934E-02
      0.500000E-01      0.908138E-02
      0.550000E-01      0.829204E-02
      0.600000E-01      0.751641E-02
      0.650000E-01      0.676771E-02
      0.700000E-01      0.605700E-02
      0.750000E-01      0.539291E-02
      0.800000E-01      0.478167E-02
      0.850000E-01      0.422712E-02
      0.900000E-01      0.373087E-02
      0.950000E-01      0.329255E-02
      0.100000          0.291010E-02
      0.105000          0.258014E-02
      0.110000          0.229827E-02
      0.115000          0.205948E-02
      0.120000          0.185838E-02
      0.125000          0.168956E-02
      0.130000          0.154775E-02
      0.135000          0.142807E-02
      0.140000          0.132610E-02
      0.145000          0.123797E-02
      0.150000          0.116043E-02
      0.155000          0.109079E-02
      0.160000          0.102695E-02
      0.165000          0.967309E-03
      0.170000          0.910722E-03
      0.175000          0.856432E-03
      0.180000          0.803996E-03
      0.185000          0.753222E-03
      0.190000          0.704104E-03
      0.195000          0.656771E-03
      0.200000          0.611433E-03
      0.205000          0.568345E-03
      0.210000          0.527770E-03
      0.215000          0.489949E-03
      0.220000          0.455083E-03
      0.225000          0.423312E-03
      0.230000          0.394708E-03
      0.235000          0.369266E-03
      0.240000          0.346905E-03
      0.245000          0.327473E-03
      0.250000          0.310751E-03
      0.255000          0.296469E-03
      0.260000          0.284319E-03
      0.265000          0.273969E-03
      0.270000          0.265079E-03
      0.275000          0.257320E-03
      0.280000          0.250382E-03
      0.285000          0.243989E-03
      0.290000          0.237906E-03
      0.295000          0.231943E-03
      0.300000          0.225956E-03
      0.305000          0.219848E-03
      0.310000          0.213564E-03
      0.315000          0.207083E-03
      0.320000          0.200414E-03
      0.325000          0.193589E-03
      0.330000          0.186654E-03
      0.335000          0.179665E-03
      0.340000          0.172684E-03
      0.345000          0.165771E-03
      0.350000          0.158986E-03
      0.355000          0.152383E-03
      0.360000          0.146013E-03
      0.365000          0.139917E-03
      0.370000          0.134135E-03
      0.375000          0.128694E-03
      0.380000          0.123617E-03
      0.385000          0.118917E-03
      0.390000          0.114599E-03
      0.395000          0.110659E-03
      0.400000          0.107081E-03
      0.405000          0.103844E-03
      0.410000          0.100917E-03
      0.415000          0.982646E-04
      0.420000          0.958469E-04
      0.425000          0.936234E-04
      0.430000          0.915557E-04
      0.435000          0.896102E-04
      0.440000          0.877603E-04
      0.445000          0.859883E-04
      0.450000          0.842865E-04
      0.455000          0.826568E-04
      0.460000          0.811100E-04
      0.465000          0.796640E-04
      0.470000          0.783406E-04
      0.475000          0.771635E-04
      0.480000          0.761542E-04
      0.485000          0.753295E-04
      0.490000          0.746990E-04
      0.495000          0.742632E-04
      0.500000          0.740131E-04
