 I_abs(s)[cm^-1]/c[mg/ml]
       0.00000          0.145238E-01
      0.500000E-02      0.144706E-01
      0.100000E-01      0.143125E-01
      0.150000E-01      0.140530E-01
      0.200000E-01      0.136983E-01
      0.250000E-01      0.132566E-01
      0.300000E-01      0.127378E-01
      0.350000E-01      0.121532E-01
      0.400000E-01      0.115152E-01
      0.450000E-01      0.108366E-01
      0.500000E-01      0.101306E-01
      0.550000E-01      0.940975E-02
      0.600000E-01      0.868614E-02
      0.650000E-01      0.797076E-02
      0.700000E-01      0.727338E-02
      0.750000E-01      0.660228E-02
      0.800000E-01      0.596419E-02
      0.850000E-01      0.536423E-02
      0.900000E-01      0.480593E-02
      0.950000E-01      0.429135E-02
      0.100000          0.382121E-02
      0.105000          0.339507E-02
      0.110000          0.301155E-02
      0.115000          0.266851E-02
      0.120000          0.236328E-02
      0.125000          0.209290E-02
      0.130000          0.185422E-02
      0.135000          0.164410E-02
      0.140000          0.145954E-02
      0.145000          0.129770E-02
      0.150000          0.115602E-02
      0.155000          0.103222E-02
      0.160000          0.924276E-03
      0.165000          0.830433E-03
      0.170000          0.749159E-03
      0.175000          0.679106E-03
      0.180000          0.619071E-03
      0.185000          0.567959E-03
      0.190000          0.524750E-03
      0.195000          0.488475E-03
      0.200000          0.458202E-03
      0.205000          0.433032E-03
      0.210000          0.412097E-03
      0.215000          0.394576E-03
      0.220000          0.379699E-03
      0.225000          0.366770E-03
      0.230000          0.355175E-03
      0.235000          0.344396E-03
      0.240000          0.334022E-03
      0.245000          0.323743E-03
      0.250000          0.313359E-03
      0.255000          0.302763E-03
      0.260000          0.291934E-03
      0.265000          0.280921E-03
      0.270000          0.269825E-03
      0.275000          0.258779E-03
      0.280000          0.247931E-03
      0.285000          0.237429E-03
      0.290000          0.227402E-03
      0.295000          0.217957E-03
      0.300000          0.209165E-03
      0.305000          0.201062E-03
      0.310000          0.193647E-03
      0.315000          0.186887E-03
      0.320000          0.180721E-03
      0.325000          0.175069E-03
      0.330000          0.169838E-03
      0.335000          0.164931E-03
      0.340000          0.160258E-03
      0.345000          0.155735E-03
      0.350000          0.151298E-03
      0.355000          0.146898E-03
      0.360000          0.142509E-03
      0.365000          0.138124E-03
      0.370000          0.133754E-03
      0.375000          0.129427E-03
      0.380000          0.125182E-03
      0.385000          0.121066E-03
      0.390000          0.117129E-03
      0.395000          0.113418E-03
      0.400000          0.109977E-03
      0.405000          0.106843E-03
      0.410000          0.104039E-03
      0.415000          0.101579E-03
      0.420000          0.994623E-04
      0.425000          0.976779E-04
      0.430000          0.962018E-04
      0.435000          0.950008E-04
      0.440000          0.940336E-04
      0.445000          0.932539E-04
      0.450000          0.926122E-04
      0.455000          0.920588E-04
      0.460000          0.915462E-04
      0.465000          0.910307E-04
      0.470000          0.904748E-04
      0.475000          0.898480E-04
      0.480000          0.891282E-04
      0.485000          0.883018E-04
      0.490000          0.873636E-04
      0.495000          0.863164E-04
      0.500000          0.851705E-04
