 I_abs(s)[cm^-1]/c[mg/ml]
       0.00000          0.145714E-01
      0.500000E-02      0.145165E-01
      0.100000E-01      0.143534E-01
      0.150000E-01      0.140864E-01
      0.200000E-01      0.137228E-01
      0.250000E-01      0.132718E-01
      0.300000E-01      0.127450E-01
      0.350000E-01      0.121549E-01
      0.400000E-01      0.115150E-01
      0.450000E-01      0.108390E-01
      0.500000E-01      0.101402E-01
      0.550000E-01      0.943136E-02
      0.600000E-01      0.872377E-02
      0.650000E-01      0.802751E-02
      0.700000E-01      0.735104E-02
      0.750000E-01      0.670115E-02
      0.800000E-01      0.608307E-02
      0.850000E-01      0.550048E-02
      0.900000E-01      0.495573E-02
      0.950000E-01      0.445000E-02
      0.100000          0.398352E-02
      0.105000          0.355576E-02
      0.110000          0.316560E-02
      0.115000          0.281152E-02
      0.120000          0.249172E-02
      0.125000          0.220421E-02
      0.130000          0.194688E-02
      0.135000          0.171759E-02
      0.140000          0.151418E-02
      0.145000          0.133451E-02
      0.150000          0.117648E-02
      0.155000          0.103804E-02
      0.160000          0.917221E-03
      0.165000          0.812170E-03
      0.170000          0.721130E-03
      0.175000          0.642478E-03
      0.180000          0.574734E-03
      0.185000          0.516559E-03
      0.190000          0.466760E-03
      0.195000          0.424284E-03
      0.200000          0.388204E-03
      0.205000          0.357707E-03
      0.210000          0.332076E-03
      0.215000          0.310673E-03
      0.220000          0.292923E-03
      0.225000          0.278303E-03
      0.230000          0.266329E-03
      0.235000          0.256553E-03
      0.240000          0.248561E-03
      0.245000          0.241970E-03
      0.250000          0.236432E-03
      0.255000          0.231638E-03
      0.260000          0.227321E-03
      0.265000          0.223256E-03
      0.270000          0.219261E-03
      0.275000          0.215198E-03
      0.280000          0.210970E-03
      0.285000          0.206515E-03
      0.290000          0.201803E-03
      0.295000          0.196831E-03
      0.300000          0.191616E-03
      0.305000          0.186190E-03
      0.310000          0.180598E-03
      0.315000          0.174891E-03
      0.320000          0.169122E-03
      0.325000          0.163347E-03
      0.330000          0.157618E-03
      0.335000          0.151986E-03
      0.340000          0.146494E-03
      0.345000          0.141182E-03
      0.350000          0.136080E-03
      0.355000          0.131214E-03
      0.360000          0.126600E-03
      0.365000          0.122246E-03
      0.370000          0.118157E-03
      0.375000          0.114328E-03
      0.380000          0.110752E-03
      0.385000          0.107419E-03
      0.390000          0.104317E-03
      0.395000          0.101434E-03
      0.400000          0.987588E-04
      0.405000          0.962829E-04
      0.410000          0.939993E-04
      0.415000          0.919035E-04
      0.420000          0.899932E-04
      0.425000          0.882678E-04
      0.430000          0.867271E-04
      0.435000          0.853714E-04
      0.440000          0.841999E-04
      0.445000          0.832107E-04
      0.450000          0.824002E-04
      0.455000          0.817628E-04
      0.460000          0.812915E-04
      0.465000          0.809778E-04
      0.470000          0.808119E-04
      0.475000          0.807840E-04
      0.480000          0.808837E-04
      0.485000          0.811010E-04
      0.490000          0.814263E-04
      0.495000          0.818498E-04
      0.500000          0.823622E-04
