 I_abs(s)[cm^-1]/c[mg/ml]
       0.00000          0.146350E-01
      0.500000E-02      0.145868E-01
      0.100000E-01      0.144436E-01
      0.150000E-01      0.142082E-01
      0.200000E-01      0.138859E-01
      0.250000E-01      0.134833E-01
      0.300000E-01      0.130088E-01
      0.350000E-01      0.124720E-01
      0.400000E-01      0.118832E-01
      0.450000E-01      0.112535E-01
      0.500000E-01      0.105938E-01
      0.550000E-01      0.991526E-02
      0.600000E-01      0.922832E-02
      0.650000E-01      0.854278E-02
      0.700000E-01      0.786747E-02
      0.750000E-01      0.721011E-02
      0.800000E-01      0.657722E-02
      0.850000E-01      0.597400E-02
      0.900000E-01      0.540444E-02
      0.950000E-01      0.487129E-02
      0.100000          0.437616E-02
      0.105000          0.391970E-02
      0.110000          0.350169E-02
      0.115000          0.312119E-02
      0.120000          0.277675E-02
      0.125000          0.246650E-02
      0.130000          0.218831E-02
      0.135000          0.193990E-02
      0.140000          0.171897E-02
      0.145000          0.152323E-02
      0.150000          0.135045E-02
      0.155000          0.119855E-02
      0.160000          0.106556E-02
      0.165000          0.949640E-03
      0.170000          0.849090E-03
      0.175000          0.762315E-03
      0.180000          0.687827E-03
      0.185000          0.624220E-03
      0.190000          0.570169E-03
      0.195000          0.524416E-03
      0.200000          0.485772E-03
      0.205000          0.453115E-03
      0.210000          0.425398E-03
      0.215000          0.401661E-03
      0.220000          0.381030E-03
      0.225000          0.362739E-03
      0.230000          0.346126E-03
      0.235000          0.330648E-03
      0.240000          0.315873E-03
      0.245000          0.301485E-03
      0.250000          0.287274E-03
      0.255000          0.273125E-03
      0.260000          0.259008E-03
      0.265000          0.244959E-03
      0.270000          0.231067E-03
      0.275000          0.217451E-03
      0.280000          0.204252E-03
      0.285000          0.191610E-03
      0.290000          0.179657E-03
      0.295000          0.168505E-03
      0.300000          0.158240E-03
      0.305000          0.148915E-03
      0.310000          0.140554E-03
      0.315000          0.133149E-03
      0.320000          0.126664E-03
      0.325000          0.121044E-03
      0.330000          0.116211E-03
      0.335000          0.112081E-03
      0.340000          0.108561E-03
      0.345000          0.105559E-03
      0.350000          0.102985E-03
      0.355000          0.100759E-03
      0.360000          0.988089E-04
      0.365000          0.970733E-04
      0.370000          0.955026E-04
      0.375000          0.940578E-04
      0.380000          0.927097E-04
      0.385000          0.914375E-04
      0.390000          0.902274E-04
      0.395000          0.890707E-04
      0.400000          0.879627E-04
      0.405000          0.869011E-04
      0.410000          0.858848E-04
      0.415000          0.849137E-04
      0.420000          0.839875E-04
      0.425000          0.831060E-04
      0.430000          0.822685E-04
      0.435000          0.814740E-04
      0.440000          0.807212E-04
      0.445000          0.800082E-04
      0.450000          0.793332E-04
      0.455000          0.786939E-04
      0.460000          0.780876E-04
      0.465000          0.775114E-04
      0.470000          0.769619E-04
      0.475000          0.764350E-04
      0.480000          0.759264E-04
      0.485000          0.754313E-04
      0.490000          0.749448E-04
      0.495000          0.744622E-04
      0.500000          0.739789E-04
