 I_abs(s)[cm^-1]/c[mg/ml]
       0.00000          0.143499E-01
      0.500000E-02      0.142813E-01
      0.100000E-01      0.140777E-01
      0.150000E-01      0.137463E-01
      0.200000E-01      0.132986E-01
      0.250000E-01      0.127494E-01
      0.300000E-01      0.121165E-01
      0.350000E-01      0.114192E-01
      0.400000E-01      0.106775E-01
      0.450000E-01      0.991088E-02
      0.500000E-01      0.913778E-02
      0.550000E-01      0.837456E-02
      0.600000E-01      0.763507E-02
      0.650000E-01      0.693042E-02
      0.700000E-01      0.626880E-02
      0.750000E-01      0.565563E-02
      0.800000E-01      0.509378E-02
      0.850000E-01      0.458394E-02
      0.900000E-01      0.412502E-02
      0.950000E-01      0.371458E-02
      0.100000          0.334922E-02
      0.105000          0.302498E-02
      0.110000          0.273765E-02
      0.115000          0.248296E-02
      0.120000          0.225681E-02
      0.125000          0.205537E-02
      0.130000          0.187519E-02
      0.135000          0.171320E-02
      0.140000          0.156674E-02
      0.145000          0.143357E-02
      0.150000          0.131189E-02
      0.155000          0.120022E-02
      0.160000          0.109747E-02
      0.165000          0.100281E-02
      0.170000          0.915686E-03
      0.175000          0.835699E-03
      0.180000          0.762582E-03
      0.185000          0.696124E-03
      0.190000          0.636119E-03
      0.195000          0.582320E-03
      0.200000          0.534415E-03
      0.205000          0.492013E-03
      0.210000          0.454646E-03
      0.215000          0.421790E-03
      0.220000          0.392893E-03
      0.225000          0.367401E-03
      0.230000          0.344795E-03
      0.235000          0.324610E-03
      0.240000          0.306457E-03
      0.245000          0.290026E-03
      0.250000          0.275082E-03
      0.255000          0.261453E-03
      0.260000          0.249013E-03
      0.265000          0.237664E-03
      0.270000          0.227318E-03
      0.275000          0.217886E-03
      0.280000          0.209273E-03
      0.285000          0.201378E-03
      0.290000          0.194099E-03
      0.295000          0.187345E-03
      0.300000          0.181043E-03
      0.305000          0.175149E-03
      0.310000          0.169650E-03
      0.315000          0.164563E-03
      0.320000          0.159929E-03
      0.325000          0.155799E-03
      0.330000          0.152224E-03
      0.335000          0.149239E-03
      0.340000          0.146849E-03
      0.345000          0.145022E-03
      0.350000          0.143687E-03
      0.355000          0.142735E-03
      0.360000          0.142027E-03
      0.365000          0.141408E-03
      0.370000          0.140721E-03
      0.375000          0.139819E-03
      0.380000          0.138583E-03
      0.385000          0.136925E-03
      0.390000          0.134800E-03
      0.395000          0.132198E-03
      0.400000          0.129146E-03
      0.405000          0.125700E-03
      0.410000          0.121934E-03
      0.415000          0.117931E-03
      0.420000          0.113776E-03
      0.425000          0.109552E-03
      0.430000          0.105332E-03
      0.435000          0.101181E-03
      0.440000          0.971572E-04
      0.445000          0.933123E-04
      0.450000          0.896939E-04
      0.455000          0.863472E-04
      0.460000          0.833146E-04
      0.465000          0.806344E-04
      0.470000          0.783378E-04
      0.475000          0.764452E-04
      0.480000          0.749627E-04
      0.485000          0.738790E-04
      0.490000          0.731643E-04
      0.495000          0.727708E-04
      0.500000          0.726360E-04
