 I_abs(s)[cm^-1]/c[mg/ml]
       0.00000          0.139277E-01
      0.500000E-02      0.138655E-01
      0.100000E-01      0.136807E-01
      0.150000E-01      0.133784E-01
      0.200000E-01      0.129669E-01
      0.250000E-01      0.124576E-01
      0.300000E-01      0.118638E-01
      0.350000E-01      0.112009E-01
      0.400000E-01      0.104853E-01
      0.450000E-01      0.973419E-02
      0.500000E-01      0.896433E-02
      0.550000E-01      0.819188E-02
      0.600000E-01      0.743176E-02
      0.650000E-01      0.669713E-02
      0.700000E-01      0.599914E-02
      0.750000E-01      0.534665E-02
      0.800000E-01      0.474615E-02
      0.850000E-01      0.420173E-02
      0.900000E-01      0.371528E-02
      0.950000E-01      0.328658E-02
      0.100000          0.291367E-02
      0.105000          0.259310E-02
      0.110000          0.232033E-02
      0.115000          0.209005E-02
      0.120000          0.189656E-02
      0.125000          0.173403E-02
      0.130000          0.159683E-02
      0.135000          0.147974E-02
      0.140000          0.137806E-02
      0.145000          0.128783E-02
      0.150000          0.120577E-02
      0.155000          0.112938E-02
      0.160000          0.105685E-02
      0.165000          0.987023E-03
      0.170000          0.919303E-03
      0.175000          0.853532E-03
      0.180000          0.789893E-03
      0.185000          0.728795E-03
      0.190000          0.670769E-03
      0.195000          0.616378E-03
      0.200000          0.566142E-03
      0.205000          0.520481E-03
      0.210000          0.479673E-03
      0.215000          0.443834E-03
      0.220000          0.412911E-03
      0.225000          0.386691E-03
      0.230000          0.364819E-03
      0.235000          0.346824E-03
      0.240000          0.332155E-03
      0.245000          0.320211E-03
      0.250000          0.310377E-03
      0.255000          0.302058E-03
      0.260000          0.294706E-03
      0.265000          0.287838E-03
      0.270000          0.281058E-03
      0.275000          0.274063E-03
      0.280000          0.266648E-03
      0.285000          0.258702E-03
      0.290000          0.250197E-03
      0.295000          0.241183E-03
      0.300000          0.231766E-03
      0.305000          0.222096E-03
      0.310000          0.212348E-03
      0.315000          0.202705E-03
      0.320000          0.193347E-03
      0.325000          0.184435E-03
      0.330000          0.176102E-03
      0.335000          0.168449E-03
      0.340000          0.161540E-03
      0.345000          0.155399E-03
      0.350000          0.150018E-03
      0.355000          0.145355E-03
      0.360000          0.141344E-03
      0.365000          0.137898E-03
      0.370000          0.134920E-03
      0.375000          0.132305E-03
      0.380000          0.129953E-03
      0.385000          0.127765E-03
      0.390000          0.125659E-03
      0.395000          0.123562E-03
      0.400000          0.121421E-03
      0.405000          0.119200E-03
      0.410000          0.116878E-03
      0.415000          0.114452E-03
      0.420000          0.111933E-03
      0.425000          0.109345E-03
      0.430000          0.106720E-03
      0.435000          0.104096E-03
      0.440000          0.101515E-03
      0.445000          0.990198E-04
      0.450000          0.966503E-04
      0.455000          0.944427E-04
      0.460000          0.924267E-04
      0.465000          0.906247E-04
      0.470000          0.890507E-04
      0.475000          0.877104E-04
      0.480000          0.866008E-04
      0.485000          0.857114E-04
      0.490000          0.850253E-04
      0.495000          0.845197E-04
      0.500000          0.841683E-04
