 I_abs(s)[cm^-1]/c[mg/ml]
       0.00000          0.146907E-01
      0.500000E-02      0.146264E-01
      0.100000E-01      0.144354E-01
      0.150000E-01      0.141233E-01
      0.200000E-01      0.136993E-01
      0.250000E-01      0.131754E-01
      0.300000E-01      0.125661E-01
      0.350000E-01      0.118878E-01
      0.400000E-01      0.111577E-01
      0.450000E-01      0.103932E-01
      0.500000E-01      0.961159E-02
      0.550000E-01      0.882870E-02
      0.600000E-01      0.805889E-02
      0.650000E-01      0.731442E-02
      0.700000E-01      0.660522E-02
      0.750000E-01      0.593879E-02
      0.800000E-01      0.532021E-02
      0.850000E-01      0.475227E-02
      0.900000E-01      0.423573E-02
      0.950000E-01      0.376963E-02
      0.100000          0.335170E-02
      0.105000          0.297866E-02
      0.110000          0.264668E-02
      0.115000          0.235163E-02
      0.120000          0.208942E-02
      0.125000          0.185622E-02
      0.130000          0.164855E-02
      0.135000          0.146342E-02
      0.140000          0.129832E-02
      0.145000          0.115122E-02
      0.150000          0.102048E-02
      0.155000          0.904771E-03
      0.160000          0.802990E-03
      0.165000          0.714154E-03
      0.170000          0.637329E-03
      0.175000          0.571572E-03
      0.180000          0.515890E-03
      0.185000          0.469232E-03
      0.190000          0.430492E-03
      0.195000          0.398538E-03
      0.200000          0.372246E-03
      0.205000          0.350540E-03
      0.210000          0.332432E-03
      0.215000          0.317057E-03
      0.220000          0.303695E-03
      0.225000          0.291786E-03
      0.230000          0.280926E-03
      0.235000          0.270863E-03
      0.240000          0.261467E-03
      0.245000          0.252707E-03
      0.250000          0.244621E-03
      0.255000          0.237280E-03
      0.260000          0.230762E-03
      0.265000          0.225127E-03
      0.270000          0.220400E-03
      0.275000          0.216561E-03
      0.280000          0.213541E-03
      0.285000          0.211228E-03
      0.290000          0.209476E-03
      0.295000          0.208116E-03
      0.300000          0.206969E-03
      0.305000          0.205865E-03
      0.310000          0.204650E-03
      0.315000          0.203199E-03
      0.320000          0.201422E-03
      0.325000          0.199265E-03
      0.330000          0.196713E-03
      0.335000          0.193779E-03
      0.340000          0.190506E-03
      0.345000          0.186953E-03
      0.350000          0.183191E-03
      0.355000          0.179292E-03
      0.360000          0.175325E-03
      0.365000          0.171348E-03
      0.370000          0.167408E-03
      0.375000          0.163535E-03
      0.380000          0.159748E-03
      0.385000          0.156051E-03
      0.390000          0.152440E-03
      0.395000          0.148904E-03
      0.400000          0.145427E-03
      0.405000          0.141997E-03
      0.410000          0.138602E-03
      0.415000          0.135234E-03
      0.420000          0.131892E-03
      0.425000          0.128581E-03
      0.430000          0.125308E-03
      0.435000          0.122086E-03
      0.440000          0.118930E-03
      0.445000          0.115855E-03
      0.450000          0.112875E-03
      0.455000          0.110001E-03
      0.460000          0.107244E-03
      0.465000          0.104608E-03
      0.470000          0.102096E-03
      0.475000          0.997081E-04
      0.480000          0.974411E-04
      0.485000          0.952915E-04
      0.490000          0.932553E-04
      0.495000          0.913287E-04
      0.500000          0.895090E-04
