 I_abs(s)[cm^-1]/c[mg/ml]
       0.00000          0.145952E-01
      0.500000E-02      0.145486E-01
      0.100000E-01      0.144099E-01
      0.150000E-01      0.141817E-01
      0.200000E-01      0.138686E-01
      0.250000E-01      0.134766E-01
      0.300000E-01      0.130131E-01
      0.350000E-01      0.124867E-01
      0.400000E-01      0.119070E-01
      0.450000E-01      0.112838E-01
      0.500000E-01      0.106276E-01
      0.550000E-01      0.994874E-02
      0.600000E-01      0.925718E-02
      0.650000E-01      0.856252E-02
      0.700000E-01      0.787361E-02
      0.750000E-01      0.719841E-02
      0.800000E-01      0.654388E-02
      0.850000E-01      0.591591E-02
      0.900000E-01      0.531925E-02
      0.950000E-01      0.475759E-02
      0.100000          0.423352E-02
      0.105000          0.374865E-02
      0.110000          0.330371E-02
      0.115000          0.289861E-02
      0.120000          0.253262E-02
      0.125000          0.220445E-02
      0.130000          0.191238E-02
      0.135000          0.165439E-02
      0.140000          0.142821E-02
      0.145000          0.123147E-02
      0.150000          0.106172E-02
      0.155000          0.916515E-03
      0.160000          0.793459E-03
      0.165000          0.690233E-03
      0.170000          0.604617E-03
      0.175000          0.534512E-03
      0.180000          0.477943E-03
      0.185000          0.433066E-03
      0.190000          0.398169E-03
      0.195000          0.371672E-03
      0.200000          0.352125E-03
      0.205000          0.338209E-03
      0.210000          0.328731E-03
      0.215000          0.322629E-03
      0.220000          0.318962E-03
      0.225000          0.316916E-03
      0.230000          0.315796E-03
      0.235000          0.315025E-03
      0.240000          0.314136E-03
      0.245000          0.312769E-03
      0.250000          0.310656E-03
      0.255000          0.307623E-03
      0.260000          0.303568E-03
      0.265000          0.298458E-03
      0.270000          0.292316E-03
      0.275000          0.285208E-03
      0.280000          0.277235E-03
      0.285000          0.268524E-03
      0.290000          0.259216E-03
      0.295000          0.249460E-03
      0.300000          0.239409E-03
      0.305000          0.229209E-03
      0.310000          0.219003E-03
      0.315000          0.208918E-03
      0.320000          0.199071E-03
      0.325000          0.189564E-03
      0.330000          0.180482E-03
      0.335000          0.171893E-03
      0.340000          0.163849E-03
      0.345000          0.156385E-03
      0.350000          0.149519E-03
      0.355000          0.143254E-03
      0.360000          0.137578E-03
      0.365000          0.132465E-03
      0.370000          0.127876E-03
      0.375000          0.123762E-03
      0.380000          0.120069E-03
      0.385000          0.116734E-03
      0.390000          0.113694E-03
      0.395000          0.110884E-03
      0.400000          0.108243E-03
      0.405000          0.105716E-03
      0.410000          0.103255E-03
      0.415000          0.100820E-03
      0.420000          0.983840E-04
      0.425000          0.959296E-04
      0.430000          0.934510E-04
      0.435000          0.909533E-04
      0.440000          0.884504E-04
      0.445000          0.859642E-04
      0.450000          0.835222E-04
      0.455000          0.811549E-04
      0.460000          0.788941E-04
      0.465000          0.767702E-04
      0.470000          0.748103E-04
      0.475000          0.730364E-04
      0.480000          0.714644E-04
      0.485000          0.701031E-04
      0.490000          0.689542E-04
      0.495000          0.680121E-04
      0.500000          0.672650E-04
