 I_abs(s)[cm^-1]/c[mg/ml]
       0.00000          0.146509E-01
      0.500000E-02      0.145995E-01
      0.100000E-01      0.144467E-01
      0.150000E-01      0.141959E-01
      0.200000E-01      0.138528E-01
      0.250000E-01      0.134251E-01
      0.300000E-01      0.129218E-01
      0.350000E-01      0.123537E-01
      0.400000E-01      0.117322E-01
      0.450000E-01      0.110693E-01
      0.500000E-01      0.103770E-01
      0.550000E-01      0.966719E-02
      0.600000E-01      0.895106E-02
      0.650000E-01      0.823894E-02
      0.700000E-01      0.754009E-02
      0.750000E-01      0.686248E-02
      0.800000E-01      0.621278E-02
      0.850000E-01      0.559629E-02
      0.900000E-01      0.501698E-02
      0.950000E-01      0.447757E-02
      0.100000          0.397964E-02
      0.105000          0.352377E-02
      0.110000          0.310968E-02
      0.115000          0.273637E-02
      0.120000          0.240229E-02
      0.125000          0.210544E-02
      0.130000          0.184354E-02
      0.135000          0.161407E-02
      0.140000          0.141441E-02
      0.145000          0.124190E-02
      0.150000          0.109387E-02
      0.155000          0.967701E-03
      0.160000          0.860880E-03
      0.165000          0.770998E-03
      0.170000          0.695788E-03
      0.175000          0.633141E-03
      0.180000          0.581116E-03
      0.185000          0.537953E-03
      0.190000          0.502081E-03
      0.195000          0.472115E-03
      0.200000          0.446859E-03
      0.205000          0.425299E-03
      0.210000          0.406592E-03
      0.215000          0.390052E-03
      0.220000          0.375136E-03
      0.225000          0.361426E-03
      0.230000          0.348607E-03
      0.235000          0.336451E-03
      0.240000          0.324797E-03
      0.245000          0.313540E-03
      0.250000          0.302611E-03
      0.255000          0.291970E-03
      0.260000          0.281599E-03
      0.265000          0.271492E-03
      0.270000          0.261654E-03
      0.275000          0.252096E-03
      0.280000          0.242836E-03
      0.285000          0.233894E-03
      0.290000          0.225292E-03
      0.295000          0.217054E-03
      0.300000          0.209200E-03
      0.305000          0.201748E-03
      0.310000          0.194710E-03
      0.315000          0.188091E-03
      0.320000          0.181886E-03
      0.325000          0.176083E-03
      0.330000          0.170661E-03
      0.335000          0.165592E-03
      0.340000          0.160842E-03
      0.345000          0.156375E-03
      0.350000          0.152156E-03
      0.355000          0.148153E-03
      0.360000          0.144339E-03
      0.365000          0.140696E-03
      0.370000          0.137213E-03
      0.375000          0.133888E-03
      0.380000          0.130727E-03
      0.385000          0.127741E-03
      0.390000          0.124944E-03
      0.395000          0.122353E-03
      0.400000          0.119980E-03
      0.405000          0.117834E-03
      0.410000          0.115914E-03
      0.415000          0.114212E-03
      0.420000          0.112712E-03
      0.425000          0.111386E-03
      0.430000          0.110200E-03
      0.435000          0.109110E-03
      0.440000          0.108072E-03
      0.445000          0.107037E-03
      0.450000          0.105958E-03
      0.455000          0.104792E-03
      0.460000          0.103501E-03
      0.465000          0.102058E-03
      0.470000          0.100440E-03
      0.475000          0.986404E-04
      0.480000          0.966579E-04
      0.485000          0.945036E-04
      0.490000          0.921971E-04
      0.495000          0.897659E-04
      0.500000          0.872433E-04
