 I_abs(s)[cm^-1]/c[mg/ml]
       0.00000          0.139665E-01
      0.500000E-02      0.138719E-01
      0.100000E-01      0.135925E-01
      0.150000E-01      0.131405E-01
      0.200000E-01      0.125357E-01
      0.250000E-01      0.118037E-01
      0.300000E-01      0.109745E-01
      0.350000E-01      0.100801E-01
      0.400000E-01      0.915305E-02
      0.450000E-01      0.822407E-02
      0.500000E-01      0.732077E-02
      0.550000E-01      0.646628E-02
      0.600000E-01      0.567839E-02
      0.650000E-01      0.496923E-02
      0.700000E-01      0.434532E-02
      0.750000E-01      0.380804E-02
      0.800000E-01      0.335440E-02
      0.850000E-01      0.297796E-02
      0.900000E-01      0.266989E-02
      0.950000E-01      0.241996E-02
      0.100000          0.221754E-02
      0.105000          0.205229E-02
      0.110000          0.191481E-02
      0.115000          0.179703E-02
      0.120000          0.169236E-02
      0.125000          0.159578E-02
      0.130000          0.150374E-02
      0.135000          0.141398E-02
      0.140000          0.132532E-02
      0.145000          0.123743E-02
      0.150000          0.115059E-02
      0.155000          0.106550E-02
      0.160000          0.983112E-03
      0.165000          0.904442E-03
      0.170000          0.830503E-03
      0.175000          0.762186E-03
      0.180000          0.700191E-03
      0.185000          0.644979E-03
      0.190000          0.596733E-03
      0.195000          0.555347E-03
      0.200000          0.520434E-03
      0.205000          0.491351E-03
      0.210000          0.467252E-03
      0.215000          0.447154E-03
      0.220000          0.430014E-03
      0.225000          0.414814E-03
      0.230000          0.400638E-03
      0.235000          0.386740E-03
      0.240000          0.372591E-03
      0.245000          0.357897E-03
      0.250000          0.342603E-03
      0.255000          0.326862E-03
      0.260000          0.310989E-03
      0.265000          0.295398E-03
      0.270000          0.280539E-03
      0.275000          0.266836E-03
      0.280000          0.254628E-03
      0.285000          0.244138E-03
      0.290000          0.235446E-03
      0.295000          0.228492E-03
      0.300000          0.223088E-03
      0.305000          0.218945E-03
      0.310000          0.215713E-03
      0.315000          0.213014E-03
      0.320000          0.210486E-03
      0.325000          0.207808E-03
      0.330000          0.204725E-03
      0.335000          0.201065E-03
      0.340000          0.196736E-03
      0.345000          0.191728E-03
      0.350000          0.186103E-03
      0.355000          0.179972E-03
      0.360000          0.173490E-03
      0.365000          0.166829E-03
      0.370000          0.160173E-03
      0.375000          0.153696E-03
      0.380000          0.147555E-03
      0.385000          0.141887E-03
      0.390000          0.136794E-03
      0.395000          0.132349E-03
      0.400000          0.128587E-03
      0.405000          0.125509E-03
      0.410000          0.123083E-03
      0.415000          0.121244E-03
      0.420000          0.119901E-03
      0.425000          0.118943E-03
      0.430000          0.118243E-03
      0.435000          0.117671E-03
      0.440000          0.117097E-03
      0.445000          0.116407E-03
      0.450000          0.115505E-03
      0.455000          0.114321E-03
      0.460000          0.112818E-03
      0.465000          0.110991E-03
      0.470000          0.108866E-03
      0.475000          0.106499E-03
      0.480000          0.103968E-03
      0.485000          0.101366E-03
      0.490000          0.987895E-04
      0.495000          0.963337E-04
      0.500000          0.940810E-04
