 I_abs(s)[cm^-1]/c[mg/ml]
       0.00000          0.145079E-01
      0.500000E-02      0.144443E-01
      0.100000E-01      0.142551E-01
      0.150000E-01      0.139462E-01
      0.200000E-01      0.135265E-01
      0.250000E-01      0.130081E-01
      0.300000E-01      0.124056E-01
      0.350000E-01      0.117351E-01
      0.400000E-01      0.110137E-01
      0.450000E-01      0.102590E-01
      0.500000E-01      0.948785E-02
      0.550000E-01      0.871602E-02
      0.600000E-01      0.795770E-02
      0.650000E-01      0.722502E-02
      0.700000E-01      0.652780E-02
      0.750000E-01      0.587349E-02
      0.800000E-01      0.526712E-02
      0.850000E-01      0.471155E-02
      0.900000E-01      0.420760E-02
      0.950000E-01      0.375445E-02
      0.100000          0.334993E-02
      0.105000          0.299092E-02
      0.110000          0.267367E-02
      0.115000          0.239409E-02
      0.120000          0.214807E-02
      0.125000          0.193162E-02
      0.130000          0.174108E-02
      0.135000          0.157312E-02
      0.140000          0.142487E-02
      0.145000          0.129386E-02
      0.150000          0.117800E-02
      0.155000          0.107550E-02
      0.160000          0.984870E-03
      0.165000          0.904806E-03
      0.170000          0.834153E-03
      0.175000          0.771862E-03
      0.180000          0.716958E-03
      0.185000          0.668524E-03
      0.190000          0.625695E-03
      0.195000          0.587655E-03
      0.200000          0.553652E-03
      0.205000          0.523002E-03
      0.210000          0.495101E-03
      0.215000          0.469432E-03
      0.220000          0.445571E-03
      0.225000          0.423181E-03
      0.230000          0.402015E-03
      0.235000          0.381898E-03
      0.240000          0.362725E-03
      0.245000          0.344441E-03
      0.250000          0.327030E-03
      0.255000          0.310505E-03
      0.260000          0.294891E-03
      0.265000          0.280214E-03
      0.270000          0.266500E-03
      0.275000          0.253759E-03
      0.280000          0.241988E-03
      0.285000          0.231164E-03
      0.290000          0.221248E-03
      0.295000          0.212180E-03
      0.300000          0.203889E-03
      0.305000          0.196288E-03
      0.310000          0.189285E-03
      0.315000          0.182782E-03
      0.320000          0.176684E-03
      0.325000          0.170901E-03
      0.330000          0.165351E-03
      0.335000          0.159964E-03
      0.340000          0.154688E-03
      0.345000          0.149483E-03
      0.350000          0.144330E-03
      0.355000          0.139221E-03
      0.360000          0.134167E-03
      0.365000          0.129186E-03
      0.370000          0.124309E-03
      0.375000          0.119570E-03
      0.380000          0.115005E-03
      0.385000          0.110652E-03
      0.390000          0.106542E-03
      0.395000          0.102703E-03
      0.400000          0.991544E-04
      0.405000          0.959103E-04
      0.410000          0.929751E-04
      0.415000          0.903464E-04
      0.420000          0.880154E-04
      0.425000          0.859673E-04
      0.430000          0.841831E-04
      0.435000          0.826407E-04
      0.440000          0.813156E-04
      0.445000          0.801826E-04
      0.450000          0.792160E-04
      0.455000          0.783907E-04
      0.460000          0.776829E-04
      0.465000          0.770703E-04
      0.470000          0.765326E-04
      0.475000          0.760520E-04
      0.480000          0.756130E-04
      0.485000          0.752032E-04
      0.490000          0.748128E-04
      0.495000          0.744352E-04
      0.500000          0.740664E-04
