 I_abs(s)[cm^-1]/c[mg/ml]
       0.00000          0.148586E-01
      0.500000E-02      0.148021E-01
      0.100000E-01      0.146341E-01
      0.150000E-01      0.143591E-01
      0.200000E-01      0.139843E-01
      0.250000E-01      0.135193E-01
      0.300000E-01      0.129757E-01
      0.350000E-01      0.123665E-01
      0.400000E-01      0.117054E-01
      0.450000E-01      0.110068E-01
      0.500000E-01      0.102844E-01
      0.550000E-01      0.955147E-02
      0.600000E-01      0.882010E-02
      0.650000E-01      0.810091E-02
      0.700000E-01      0.740294E-02
      0.750000E-01      0.673348E-02
      0.800000E-01      0.609812E-02
      0.850000E-01      0.550083E-02
      0.900000E-01      0.494408E-02
      0.950000E-01      0.442905E-02
      0.100000          0.395584E-02
      0.105000          0.352371E-02
      0.110000          0.313128E-02
      0.115000          0.277671E-02
      0.120000          0.245789E-02
      0.125000          0.217252E-02
      0.130000          0.191826E-02
      0.135000          0.169278E-02
      0.140000          0.149376E-02
      0.145000          0.131898E-02
      0.150000          0.116626E-02
      0.155000          0.103353E-02
      0.160000          0.918784E-03
      0.165000          0.820099E-03
      0.170000          0.735648E-03
      0.175000          0.663702E-03
      0.180000          0.602637E-03
      0.185000          0.550951E-03
      0.190000          0.507270E-03
      0.195000          0.470353E-03
      0.200000          0.439100E-03
      0.205000          0.412546E-03
      0.210000          0.389857E-03
      0.215000          0.370319E-03
      0.220000          0.353331E-03
      0.225000          0.338384E-03
      0.230000          0.325054E-03
      0.235000          0.312988E-03
      0.240000          0.301891E-03
      0.245000          0.291521E-03
      0.250000          0.281679E-03
      0.255000          0.272209E-03
      0.260000          0.262987E-03
      0.265000          0.253929E-03
      0.270000          0.244977E-03
      0.275000          0.236106E-03
      0.280000          0.227313E-03
      0.285000          0.218617E-03
      0.290000          0.210049E-03
      0.295000          0.201654E-03
      0.300000          0.193480E-03
      0.305000          0.185573E-03
      0.310000          0.177977E-03
      0.315000          0.170730E-03
      0.320000          0.163861E-03
      0.325000          0.157393E-03
      0.330000          0.151338E-03
      0.335000          0.145705E-03
      0.340000          0.140499E-03
      0.345000          0.135720E-03
      0.350000          0.131369E-03
      0.355000          0.127444E-03
      0.360000          0.123942E-03
      0.365000          0.120858E-03
      0.370000          0.118184E-03
      0.375000          0.115905E-03
      0.380000          0.114003E-03
      0.385000          0.112448E-03
      0.390000          0.111206E-03
      0.395000          0.110234E-03
      0.400000          0.109481E-03
      0.405000          0.108893E-03
      0.410000          0.108414E-03
      0.415000          0.107987E-03
      0.420000          0.107561E-03
      0.425000          0.107089E-03
      0.430000          0.106532E-03
      0.435000          0.105863E-03
      0.440000          0.105063E-03
      0.445000          0.104124E-03
      0.450000          0.103049E-03
      0.455000          0.101848E-03
      0.460000          0.100537E-03
      0.465000          0.991371E-04
      0.470000          0.976709E-04
      0.475000          0.961616E-04
      0.480000          0.946310E-04
      0.485000          0.930985E-04
      0.490000          0.915802E-04
      0.495000          0.900889E-04
      0.500000          0.886336E-04
