 I_abs(s)[cm^-1]/c[mg/ml]
       0.00000          0.142320E-01
      0.500000E-02      0.141640E-01
      0.100000E-01      0.139623E-01
      0.150000E-01      0.136332E-01
      0.200000E-01      0.131870E-01
      0.250000E-01      0.126372E-01
      0.300000E-01      0.120003E-01
      0.350000E-01      0.112942E-01
      0.400000E-01      0.105379E-01
      0.450000E-01      0.975050E-02
      0.500000E-01      0.895047E-02
      0.550000E-01      0.815477E-02
      0.600000E-01      0.737843E-02
      0.650000E-01      0.663413E-02
      0.700000E-01      0.593200E-02
      0.750000E-01      0.527949E-02
      0.800000E-01      0.468156E-02
      0.850000E-01      0.414079E-02
      0.900000E-01      0.365770E-02
      0.950000E-01      0.323110E-02
      0.100000          0.285842E-02
      0.105000          0.253612E-02
      0.110000          0.225996E-02
      0.115000          0.202529E-02
      0.120000          0.182733E-02
      0.125000          0.166131E-02
      0.130000          0.152260E-02
      0.135000          0.140686E-02
      0.140000          0.131003E-02
      0.145000          0.122846E-02
      0.150000          0.115884E-02
      0.155000          0.109830E-02
      0.160000          0.104436E-02
      0.165000          0.994975E-03
      0.170000          0.948504E-03
      0.175000          0.903709E-03
      0.180000          0.859731E-03
      0.185000          0.816056E-03
      0.190000          0.772476E-03
      0.195000          0.729030E-03
      0.200000          0.685946E-03
      0.205000          0.643578E-03
      0.210000          0.602345E-03
      0.215000          0.562672E-03
      0.220000          0.524941E-03
      0.225000          0.489460E-03
      0.230000          0.456439E-03
      0.235000          0.425980E-03
      0.240000          0.398082E-03
      0.245000          0.372655E-03
      0.250000          0.349540E-03
      0.255000          0.328533E-03
      0.260000          0.309409E-03
      0.265000          0.291943E-03
      0.270000          0.275927E-03
      0.275000          0.261185E-03
      0.280000          0.247570E-03
      0.285000          0.234972E-03
      0.290000          0.223311E-03
      0.295000          0.212529E-03
      0.300000          0.202584E-03
      0.305000          0.193440E-03
      0.310000          0.185065E-03
      0.315000          0.177423E-03
      0.320000          0.170472E-03
      0.325000          0.164164E-03
      0.330000          0.158447E-03
      0.335000          0.153265E-03
      0.340000          0.148562E-03
      0.345000          0.144283E-03
      0.350000          0.140375E-03
      0.355000          0.136788E-03
      0.360000          0.133477E-03
      0.365000          0.130398E-03
      0.370000          0.127510E-03
      0.375000          0.124774E-03
      0.380000          0.122154E-03
      0.385000          0.119612E-03
      0.390000          0.117119E-03
      0.395000          0.114647E-03
      0.400000          0.112174E-03
      0.405000          0.109686E-03
      0.410000          0.107180E-03
      0.415000          0.104657E-03
      0.420000          0.102133E-03
      0.425000          0.996279E-04
      0.430000          0.971692E-04
      0.435000          0.947885E-04
      0.440000          0.925188E-04
      0.445000          0.903914E-04
      0.450000          0.884336E-04
      0.455000          0.866662E-04
      0.460000          0.851022E-04
      0.465000          0.837453E-04
      0.470000          0.825905E-04
      0.475000          0.816241E-04
      0.480000          0.808250E-04
      0.485000          0.801669E-04
      0.490000          0.796197E-04
      0.495000          0.791523E-04
      0.500000          0.787343E-04
