 I_abs(s)[cm^-1]/c[mg/ml]
       0.00000          0.142634E-01
      0.500000E-02      0.142026E-01
      0.100000E-01      0.140218E-01
      0.150000E-01      0.137264E-01
      0.200000E-01      0.133246E-01
      0.250000E-01      0.128276E-01
      0.300000E-01      0.122490E-01
      0.350000E-01      0.116039E-01
      0.400000E-01      0.109084E-01
      0.450000E-01      0.101789E-01
      0.500000E-01      0.943169E-02
      0.550000E-01      0.868193E-02
      0.600000E-01      0.794346E-02
      0.650000E-01      0.722827E-02
      0.700000E-01      0.654628E-02
      0.750000E-01      0.590517E-02
      0.800000E-01      0.531037E-02
      0.850000E-01      0.476514E-02
      0.900000E-01      0.427076E-02
      0.950000E-01      0.382679E-02
      0.100000          0.343136E-02
      0.105000          0.308153E-02
      0.110000          0.277357E-02
      0.115000          0.250331E-02
      0.120000          0.226639E-02
      0.125000          0.205850E-02
      0.130000          0.187558E-02
      0.135000          0.171389E-02
      0.140000          0.157015E-02
      0.145000          0.144152E-02
      0.150000          0.132563E-02
      0.155000          0.122055E-02
      0.160000          0.112470E-02
      0.165000          0.103686E-02
      0.170000          0.956065E-03
      0.175000          0.881540E-03
      0.180000          0.812688E-03
      0.185000          0.749021E-03
      0.190000          0.690143E-03
      0.195000          0.635716E-03
      0.200000          0.585453E-03
      0.205000          0.539101E-03
      0.210000          0.496441E-03
      0.215000          0.457274E-03
      0.220000          0.421424E-03
      0.225000          0.388730E-03
      0.230000          0.359042E-03
      0.235000          0.332215E-03
      0.240000          0.308104E-03
      0.245000          0.286561E-03
      0.250000          0.267430E-03
      0.255000          0.250548E-03
      0.260000          0.235741E-03
      0.265000          0.222830E-03
      0.270000          0.211629E-03
      0.275000          0.201955E-03
      0.280000          0.193629E-03
      0.285000          0.186478E-03
      0.290000          0.180345E-03
      0.295000          0.175087E-03
      0.300000          0.170577E-03
      0.305000          0.166705E-03
      0.310000          0.163378E-03
      0.315000          0.160512E-03
      0.320000          0.158036E-03
      0.325000          0.155887E-03
      0.330000          0.154001E-03
      0.335000          0.152320E-03
      0.340000          0.150784E-03
      0.345000          0.149329E-03
      0.350000          0.147895E-03
      0.355000          0.146419E-03
      0.360000          0.144841E-03
      0.365000          0.143109E-03
      0.370000          0.141177E-03
      0.375000          0.139010E-03
      0.380000          0.136587E-03
      0.385000          0.133901E-03
      0.390000          0.130961E-03
      0.395000          0.127791E-03
      0.400000          0.124429E-03
      0.405000          0.120922E-03
      0.410000          0.117327E-03
      0.415000          0.113707E-03
      0.420000          0.110124E-03
      0.425000          0.106635E-03
      0.430000          0.103295E-03
      0.435000          0.100146E-03
      0.440000          0.972192E-04
      0.445000          0.945343E-04
      0.450000          0.920967E-04
      0.455000          0.898994E-04
      0.460000          0.879245E-04
      0.465000          0.861451E-04
      0.470000          0.845279E-04
      0.475000          0.830358E-04
      0.480000          0.816314E-04
      0.485000          0.802788E-04
      0.490000          0.789468E-04
      0.495000          0.776101E-04
      0.500000          0.762509E-04
