 I_abs(s)[cm^-1]/c[mg/ml]
       0.00000          0.144684E-01
      0.500000E-02      0.144010E-01
      0.100000E-01      0.142015E-01
      0.150000E-01      0.138766E-01
      0.200000E-01      0.134377E-01
      0.250000E-01      0.128993E-01
      0.300000E-01      0.122787E-01
      0.350000E-01      0.115949E-01
      0.400000E-01      0.108672E-01
      0.450000E-01      0.101148E-01
      0.500000E-01      0.935542E-02
      0.550000E-01      0.860467E-02
      0.600000E-01      0.787566E-02
      0.650000E-01      0.717862E-02
      0.700000E-01      0.652080E-02
      0.750000E-01      0.590667E-02
      0.800000E-01      0.533820E-02
      0.850000E-01      0.481528E-02
      0.900000E-01      0.433627E-02
      0.950000E-01      0.389848E-02
      0.100000          0.349868E-02
      0.105000          0.313351E-02
      0.110000          0.279980E-02
      0.115000          0.249482E-02
      0.120000          0.221634E-02
      0.125000          0.196264E-02
      0.130000          0.173247E-02
      0.135000          0.152489E-02
      0.140000          0.133915E-02
      0.145000          0.117452E-02
      0.150000          0.103017E-02
      0.155000          0.905101E-03
      0.160000          0.798058E-03
      0.165000          0.707561E-03
      0.170000          0.631932E-03
      0.175000          0.569357E-03
      0.180000          0.517975E-03
      0.185000          0.475960E-03
      0.190000          0.441601E-03
      0.195000          0.413363E-03
      0.200000          0.389927E-03
      0.205000          0.370204E-03
      0.210000          0.353334E-03
      0.215000          0.338655E-03
      0.220000          0.325674E-03
      0.225000          0.314024E-03
      0.230000          0.303429E-03
      0.235000          0.293669E-03
      0.240000          0.284558E-03
      0.245000          0.275928E-03
      0.250000          0.267633E-03
      0.255000          0.259543E-03
      0.260000          0.251555E-03
      0.265000          0.243602E-03
      0.270000          0.235655E-03
      0.275000          0.227728E-03
      0.280000          0.219869E-03
      0.285000          0.212155E-03
      0.290000          0.204679E-03
      0.295000          0.197533E-03
      0.300000          0.190797E-03
      0.305000          0.184523E-03
      0.310000          0.178735E-03
      0.315000          0.173419E-03
      0.320000          0.168532E-03
      0.325000          0.164007E-03
      0.330000          0.159762E-03
      0.335000          0.155718E-03
      0.340000          0.151802E-03
      0.345000          0.147965E-03
      0.350000          0.144180E-03
      0.355000          0.140450E-03
      0.360000          0.136801E-03
      0.365000          0.133276E-03
      0.370000          0.129927E-03
      0.375000          0.126807E-03
      0.380000          0.123955E-03
      0.385000          0.121395E-03
      0.390000          0.119128E-03
      0.395000          0.117129E-03
      0.400000          0.115353E-03
      0.405000          0.113736E-03
      0.410000          0.112209E-03
      0.415000          0.110697E-03
      0.420000          0.109137E-03
      0.425000          0.107479E-03
      0.430000          0.105692E-03
      0.435000          0.103769E-03
      0.440000          0.101726E-03
      0.445000          0.995948E-04
      0.450000          0.974253E-04
      0.455000          0.952734E-04
      0.460000          0.931965E-04
      0.465000          0.912464E-04
      0.470000          0.894645E-04
      0.475000          0.878772E-04
      0.480000          0.864951E-04
      0.485000          0.853120E-04
      0.490000          0.843081E-04
      0.495000          0.834522E-04
      0.500000          0.827067E-04
