 I_abs(s)[cm^-1]/c[mg/ml]
       0.00000          0.146827E-01
      0.500000E-02      0.146331E-01
      0.100000E-01      0.144853E-01
      0.150000E-01      0.142428E-01
      0.200000E-01      0.139112E-01
      0.250000E-01      0.134980E-01
      0.300000E-01      0.130122E-01
      0.350000E-01      0.124642E-01
      0.400000E-01      0.118650E-01
      0.450000E-01      0.112262E-01
      0.500000E-01      0.105595E-01
      0.550000E-01      0.987599E-02
      0.600000E-01      0.918634E-02
      0.650000E-01      0.850016E-02
      0.700000E-01      0.782599E-02
      0.750000E-01      0.717112E-02
      0.800000E-01      0.654152E-02
      0.850000E-01      0.594186E-02
      0.900000E-01      0.537558E-02
      0.950000E-01      0.484498E-02
      0.100000          0.435133E-02
      0.105000          0.389504E-02
      0.110000          0.347581E-02
      0.115000          0.309277E-02
      0.120000          0.274460E-02
      0.125000          0.242970E-02
      0.130000          0.214625E-02
      0.135000          0.189228E-02
      0.140000          0.166578E-02
      0.145000          0.146470E-02
      0.150000          0.128701E-02
      0.155000          0.113072E-02
      0.160000          0.993902E-03
      0.165000          0.874681E-03
      0.170000          0.771281E-03
      0.175000          0.682016E-03
      0.180000          0.605307E-03
      0.185000          0.539691E-03
      0.190000          0.483826E-03
      0.195000          0.436496E-03
      0.200000          0.396611E-03
      0.205000          0.363204E-03
      0.210000          0.335421E-03
      0.215000          0.312511E-03
      0.220000          0.293812E-03
      0.225000          0.278732E-03
      0.230000          0.266736E-03
      0.235000          0.257334E-03
      0.240000          0.250065E-03
      0.245000          0.244492E-03
      0.250000          0.240200E-03
      0.255000          0.236791E-03
      0.260000          0.233895E-03
      0.265000          0.231171E-03
      0.270000          0.228319E-03
      0.275000          0.225087E-03
      0.280000          0.221277E-03
      0.285000          0.216753E-03
      0.290000          0.211445E-03
      0.295000          0.205341E-03
      0.300000          0.198489E-03
      0.305000          0.190988E-03
      0.310000          0.182973E-03
      0.315000          0.174610E-03
      0.320000          0.166076E-03
      0.325000          0.157550E-03
      0.330000          0.149202E-03
      0.335000          0.141178E-03
      0.340000          0.133602E-03
      0.345000          0.126562E-03
      0.350000          0.120115E-03
      0.355000          0.114288E-03
      0.360000          0.109077E-03
      0.365000          0.104457E-03
      0.370000          0.100384E-03
      0.375000          0.968059E-04
      0.380000          0.936625E-04
      0.385000          0.908956E-04
      0.390000          0.884509E-04
      0.395000          0.862815E-04
      0.400000          0.843488E-04
      0.405000          0.826236E-04
      0.410000          0.810846E-04
      0.415000          0.797176E-04
      0.420000          0.785135E-04
      0.425000          0.774660E-04
      0.430000          0.765698E-04
      0.435000          0.758190E-04
      0.440000          0.752057E-04
      0.445000          0.747192E-04
      0.450000          0.743460E-04
      0.455000          0.740693E-04
      0.460000          0.738699E-04
      0.465000          0.737269E-04
      0.470000          0.736185E-04
      0.475000          0.735227E-04
      0.480000          0.734190E-04
      0.485000          0.732886E-04
      0.490000          0.731155E-04
      0.495000          0.728872E-04
      0.500000          0.725954E-04
