 I_abs(s)[cm^-1]/c[mg/ml]
       0.00000          0.144684E-01
      0.500000E-02      0.144119E-01
      0.100000E-01      0.142439E-01
      0.150000E-01      0.139689E-01
      0.200000E-01      0.135943E-01
      0.250000E-01      0.131296E-01
      0.300000E-01      0.125865E-01
      0.350000E-01      0.119782E-01
      0.400000E-01      0.113187E-01
      0.450000E-01      0.106223E-01
      0.500000E-01      0.990320E-02
      0.550000E-01      0.917485E-02
      0.600000E-01      0.844954E-02
      0.650000E-01      0.773815E-02
      0.700000E-01      0.704990E-02
      0.750000E-01      0.639219E-02
      0.800000E-01      0.577066E-02
      0.850000E-01      0.518921E-02
      0.900000E-01      0.465016E-02
      0.950000E-01      0.415445E-02
      0.100000          0.370185E-02
      0.105000          0.329124E-02
      0.110000          0.292077E-02
      0.115000          0.258818E-02
      0.120000          0.229087E-02
      0.125000          0.202618E-02
      0.130000          0.179137E-02
      0.135000          0.158384E-02
      0.140000          0.140105E-02
      0.145000          0.124064E-02
      0.150000          0.110039E-02
      0.155000          0.978242E-03
      0.160000          0.872257E-03
      0.165000          0.780633E-03
      0.170000          0.701683E-03
      0.175000          0.633833E-03
      0.180000          0.575624E-03
      0.185000          0.525712E-03
      0.190000          0.482879E-03
      0.195000          0.446033E-03
      0.200000          0.414216E-03
      0.205000          0.386605E-03
      0.210000          0.362508E-03
      0.215000          0.341356E-03
      0.220000          0.322696E-03
      0.225000          0.306169E-03
      0.230000          0.291502E-03
      0.235000          0.278481E-03
      0.240000          0.266941E-03
      0.245000          0.256748E-03
      0.250000          0.247783E-03
      0.255000          0.239937E-03
      0.260000          0.233102E-03
      0.265000          0.227165E-03
      0.270000          0.222010E-03
      0.275000          0.217519E-03
      0.280000          0.213573E-03
      0.285000          0.210056E-03
      0.290000          0.206860E-03
      0.295000          0.203884E-03
      0.300000          0.201043E-03
      0.305000          0.198265E-03
      0.310000          0.195494E-03
      0.315000          0.192688E-03
      0.320000          0.189823E-03
      0.325000          0.186886E-03
      0.330000          0.183877E-03
      0.335000          0.180803E-03
      0.340000          0.177681E-03
      0.345000          0.174529E-03
      0.350000          0.171370E-03
      0.355000          0.168222E-03
      0.360000          0.165104E-03
      0.365000          0.162029E-03
      0.370000          0.159007E-03
      0.375000          0.156040E-03
      0.380000          0.153127E-03
      0.385000          0.150264E-03
      0.390000          0.147443E-03
      0.395000          0.144655E-03
      0.400000          0.141892E-03
      0.405000          0.139146E-03
      0.410000          0.136416E-03
      0.415000          0.133699E-03
      0.420000          0.131001E-03
      0.425000          0.128328E-03
      0.430000          0.125687E-03
      0.435000          0.123087E-03
      0.440000          0.120538E-03
      0.445000          0.118044E-03
      0.450000          0.115608E-03
      0.455000          0.113228E-03
      0.460000          0.110898E-03
      0.465000          0.108610E-03
      0.470000          0.106351E-03
      0.475000          0.104111E-03
      0.480000          0.101878E-03
      0.485000          0.996475E-04
      0.490000          0.974166E-04
      0.495000          0.951907E-04
      0.500000          0.929818E-04
