 I_abs(s)[cm^-1]/c[mg/ml]
       0.00000          0.146907E-01
      0.500000E-02      0.146347E-01
      0.100000E-01      0.144680E-01
      0.150000E-01      0.141948E-01
      0.200000E-01      0.138217E-01
      0.250000E-01      0.133577E-01
      0.300000E-01      0.128136E-01
      0.350000E-01      0.122018E-01
      0.400000E-01      0.115357E-01
      0.450000E-01      0.108292E-01
      0.500000E-01      0.100962E-01
      0.550000E-01      0.935032E-02
      0.600000E-01      0.860432E-02
      0.650000E-01      0.786971E-02
      0.700000E-01      0.715661E-02
      0.750000E-01      0.647349E-02
      0.800000E-01      0.582707E-02
      0.850000E-01      0.522234E-02
      0.900000E-01      0.466258E-02
      0.950000E-01      0.414951E-02
      0.100000          0.368344E-02
      0.105000          0.326350E-02
      0.110000          0.288787E-02
      0.115000          0.255399E-02
      0.120000          0.225883E-02
      0.125000          0.199907E-02
      0.130000          0.177128E-02
      0.135000          0.157207E-02
      0.140000          0.139823E-02
      0.145000          0.124676E-02
      0.150000          0.111495E-02
      0.155000          0.100039E-02
      0.160000          0.900948E-03
      0.165000          0.814764E-03
      0.170000          0.740216E-03
      0.175000          0.675876E-03
      0.180000          0.620478E-03
      0.185000          0.572886E-03
      0.190000          0.532064E-03
      0.195000          0.497060E-03
      0.200000          0.466993E-03
      0.205000          0.441051E-03
      0.210000          0.418489E-03
      0.215000          0.398637E-03
      0.220000          0.380900E-03
      0.225000          0.364767E-03
      0.230000          0.349816E-03
      0.235000          0.335710E-03
      0.240000          0.322196E-03
      0.245000          0.309100E-03
      0.250000          0.296313E-03
      0.255000          0.283784E-03
      0.260000          0.271505E-03
      0.265000          0.259494E-03
      0.270000          0.247787E-03
      0.275000          0.236424E-03
      0.280000          0.225442E-03
      0.285000          0.214867E-03
      0.290000          0.204711E-03
      0.295000          0.194974E-03
      0.300000          0.185642E-03
      0.305000          0.176691E-03
      0.310000          0.168096E-03
      0.315000          0.159828E-03
      0.320000          0.151868E-03
      0.325000          0.144202E-03
      0.330000          0.136830E-03
      0.335000          0.129763E-03
      0.340000          0.123028E-03
      0.345000          0.116661E-03
      0.350000          0.110707E-03
      0.355000          0.105217E-03
      0.360000          0.100242E-03
      0.365000          0.958283E-04
      0.370000          0.920169E-04
      0.375000          0.888357E-04
      0.380000          0.862989E-04
      0.385000          0.844048E-04
      0.390000          0.831346E-04
      0.395000          0.824535E-04
      0.400000          0.823112E-04
      0.405000          0.826444E-04
      0.410000          0.833795E-04
      0.415000          0.844361E-04
      0.420000          0.857302E-04
      0.425000          0.871776E-04
      0.430000          0.886976E-04
      0.435000          0.902154E-04
      0.440000          0.916645E-04
      0.445000          0.929889E-04
      0.450000          0.941434E-04
      0.455000          0.950947E-04
      0.460000          0.958209E-04
      0.465000          0.963108E-04
      0.470000          0.965631E-04
      0.475000          0.965845E-04
      0.480000          0.963883E-04
      0.485000          0.959932E-04
      0.490000          0.954209E-04
      0.495000          0.946955E-04
      0.500000          0.938417E-04
