 I_abs(s)[cm^-1]/c[mg/ml]
       0.00000          0.144604E-01
      0.500000E-02      0.143894E-01
      0.100000E-01      0.141785E-01
      0.150000E-01      0.138337E-01
      0.200000E-01      0.133651E-01
      0.250000E-01      0.127858E-01
      0.300000E-01      0.121117E-01
      0.350000E-01      0.113609E-01
      0.400000E-01      0.105525E-01
      0.450000E-01      0.970631E-02
      0.500000E-01      0.884158E-02
      0.550000E-01      0.797673E-02
      0.600000E-01      0.712852E-02
      0.650000E-01      0.631161E-02
      0.700000E-01      0.553822E-02
      0.750000E-01      0.481797E-02
      0.800000E-01      0.415773E-02
      0.850000E-01      0.356181E-02
      0.900000E-01      0.303204E-02
      0.950000E-01      0.256812E-02
      0.100000          0.216791E-02
      0.105000          0.182783E-02
      0.110000          0.154321E-02
      0.115000          0.130870E-02
      0.120000          0.111855E-02
      0.125000          0.966945E-03
      0.130000          0.848209E-03
      0.135000          0.756998E-03
      0.140000          0.688414E-03
      0.145000          0.638080E-03
      0.150000          0.602168E-03
      0.155000          0.577390E-03
      0.160000          0.560971E-03
      0.165000          0.550596E-03
      0.170000          0.544367E-03
      0.175000          0.540734E-03
      0.180000          0.538455E-03
      0.185000          0.536542E-03
      0.190000          0.534224E-03
      0.195000          0.530918E-03
      0.200000          0.526201E-03
      0.205000          0.519790E-03
      0.210000          0.511527E-03
      0.215000          0.501364E-03
      0.220000          0.489345E-03
      0.225000          0.475597E-03
      0.230000          0.460311E-03
      0.235000          0.443727E-03
      0.240000          0.426122E-03
      0.245000          0.407790E-03
      0.250000          0.389033E-03
      0.255000          0.370143E-03
      0.260000          0.351397E-03
      0.265000          0.333046E-03
      0.270000          0.315308E-03
      0.275000          0.298366E-03
      0.280000          0.282367E-03
      0.285000          0.267417E-03
      0.290000          0.253591E-03
      0.295000          0.240925E-03
      0.300000          0.229427E-03
      0.305000          0.219077E-03
      0.310000          0.209832E-03
      0.315000          0.201631E-03
      0.320000          0.194396E-03
      0.325000          0.188040E-03
      0.330000          0.182473E-03
      0.335000          0.177598E-03
      0.340000          0.173323E-03
      0.345000          0.169563E-03
      0.350000          0.166238E-03
      0.355000          0.163278E-03
      0.360000          0.160627E-03
      0.365000          0.158236E-03
      0.370000          0.156071E-03
      0.375000          0.154102E-03
      0.380000          0.152310E-03
      0.385000          0.150679E-03
      0.390000          0.149196E-03
      0.395000          0.147849E-03
      0.400000          0.146620E-03
      0.405000          0.145493E-03
      0.410000          0.144444E-03
      0.415000          0.143446E-03
      0.420000          0.142468E-03
      0.425000          0.141477E-03
      0.430000          0.140440E-03
      0.435000          0.139323E-03
      0.440000          0.138098E-03
      0.445000          0.136741E-03
      0.450000          0.135236E-03
      0.455000          0.133575E-03
      0.460000          0.131758E-03
      0.465000          0.129796E-03
      0.470000          0.127707E-03
      0.475000          0.125519E-03
      0.480000          0.123263E-03
      0.485000          0.120975E-03
      0.490000          0.118693E-03
      0.495000          0.116455E-03
      0.500000          0.114295E-03
