 I_abs(s)[cm^-1]/c[mg/ml]
       0.00000          0.141537E-01
      0.500000E-02      0.140841E-01
      0.100000E-01      0.138777E-01
      0.150000E-01      0.135409E-01
      0.200000E-01      0.130843E-01
      0.250000E-01      0.125219E-01
      0.300000E-01      0.118704E-01
      0.350000E-01      0.111486E-01
      0.400000E-01      0.103763E-01
      0.450000E-01      0.957364E-02
      0.500000E-01      0.876000E-02
      0.550000E-01      0.795341E-02
      0.600000E-01      0.716988E-02
      0.650000E-01      0.642290E-02
      0.700000E-01      0.572312E-02
      0.750000E-01      0.507825E-02
      0.800000E-01      0.449304E-02
      0.850000E-01      0.396953E-02
      0.900000E-01      0.350728E-02
      0.950000E-01      0.310384E-02
      0.100000          0.275513E-02
      0.105000          0.245598E-02
      0.110000          0.220055E-02
      0.115000          0.198275E-02
      0.120000          0.179662E-02
      0.125000          0.163659E-02
      0.130000          0.149770E-02
      0.135000          0.137572E-02
      0.140000          0.126717E-02
      0.145000          0.116933E-02
      0.150000          0.108017E-02
      0.155000          0.998212E-03
      0.160000          0.922484E-03
      0.165000          0.852337E-03
      0.170000          0.787363E-03
      0.175000          0.727295E-03
      0.180000          0.671933E-03
      0.185000          0.621093E-03
      0.190000          0.574582E-03
      0.195000          0.532182E-03
      0.200000          0.493661E-03
      0.205000          0.458774E-03
      0.210000          0.427291E-03
      0.215000          0.398996E-03
      0.220000          0.373710E-03
      0.225000          0.351281E-03
      0.230000          0.331590E-03
      0.235000          0.314534E-03
      0.240000          0.300020E-03
      0.245000          0.287941E-03
      0.250000          0.278168E-03
      0.255000          0.270531E-03
      0.260000          0.264821E-03
      0.265000          0.260779E-03
      0.270000          0.258104E-03
      0.275000          0.256464E-03
      0.280000          0.255507E-03
      0.285000          0.254878E-03
      0.290000          0.254239E-03
      0.295000          0.253286E-03
      0.300000          0.251757E-03
      0.305000          0.249455E-03
      0.310000          0.246242E-03
      0.315000          0.242049E-03
      0.320000          0.236874E-03
      0.325000          0.230768E-03
      0.330000          0.223834E-03
      0.335000          0.216211E-03
      0.340000          0.208064E-03
      0.345000          0.199571E-03
      0.350000          0.190912E-03
      0.355000          0.182258E-03
      0.360000          0.173769E-03
      0.365000          0.165582E-03
      0.370000          0.157812E-03
      0.375000          0.150549E-03
      0.380000          0.143859E-03
      0.385000          0.137783E-03
      0.390000          0.132340E-03
      0.395000          0.127530E-03
      0.400000          0.123333E-03
      0.405000          0.119716E-03
      0.410000          0.116631E-03
      0.415000          0.114022E-03
      0.420000          0.111823E-03
      0.425000          0.109966E-03
      0.430000          0.108380E-03
      0.435000          0.106995E-03
      0.440000          0.105745E-03
      0.445000          0.104573E-03
      0.450000          0.103430E-03
      0.455000          0.102277E-03
      0.460000          0.101092E-03
      0.465000          0.998604E-04
      0.470000          0.985835E-04
      0.475000          0.972723E-04
      0.480000          0.959465E-04
      0.485000          0.946316E-04
      0.490000          0.933564E-04
      0.495000          0.921491E-04
      0.500000          0.910351E-04
