 I_abs(s)[cm^-1]/c[mg/ml]
       0.00000          0.143578E-01
      0.500000E-02      0.143027E-01
      0.100000E-01      0.141387E-01
      0.150000E-01      0.138697E-01
      0.200000E-01      0.135021E-01
      0.250000E-01      0.130446E-01
      0.300000E-01      0.125075E-01
      0.350000E-01      0.119028E-01
      0.400000E-01      0.112434E-01
      0.450000E-01      0.105429E-01
      0.500000E-01      0.981488E-02
      0.550000E-01      0.907277E-02
      0.600000E-01      0.832916E-02
      0.650000E-01      0.759565E-02
      0.700000E-01      0.688253E-02
      0.750000E-01      0.619858E-02
      0.800000E-01      0.555099E-02
      0.850000E-01      0.494526E-02
      0.900000E-01      0.438529E-02
      0.950000E-01      0.387340E-02
      0.100000          0.341053E-02
      0.105000          0.299634E-02
      0.110000          0.262943E-02
      0.115000          0.230756E-02
      0.120000          0.202780E-02
      0.125000          0.178677E-02
      0.130000          0.158078E-02
      0.135000          0.140601E-02
      0.140000          0.125862E-02
      0.145000          0.113488E-02
      0.150000          0.103125E-02
      0.155000          0.944427E-03
      0.160000          0.871416E-03
      0.165000          0.809538E-03
      0.170000          0.756452E-03
      0.175000          0.710154E-03
      0.180000          0.668972E-03
      0.185000          0.631550E-03
      0.190000          0.596828E-03
      0.195000          0.564012E-03
      0.200000          0.532550E-03
      0.205000          0.502098E-03
      0.210000          0.472484E-03
      0.215000          0.443676E-03
      0.220000          0.415746E-03
      0.225000          0.388841E-03
      0.230000          0.363145E-03
      0.235000          0.338859E-03
      0.240000          0.316177E-03
      0.245000          0.295264E-03
      0.250000          0.276249E-03
      0.255000          0.259211E-03
      0.260000          0.244181E-03
      0.265000          0.231139E-03
      0.270000          0.220018E-03
      0.275000          0.210715E-03
      0.280000          0.203092E-03
      0.285000          0.196989E-03
      0.290000          0.192230E-03
      0.295000          0.188630E-03
      0.300000          0.186001E-03
      0.305000          0.184157E-03
      0.310000          0.182918E-03
      0.315000          0.182109E-03
      0.320000          0.181566E-03
      0.325000          0.181135E-03
      0.330000          0.180672E-03
      0.335000          0.180047E-03
      0.340000          0.179145E-03
      0.345000          0.177868E-03
      0.350000          0.176136E-03
      0.355000          0.173894E-03
      0.360000          0.171109E-03
      0.365000          0.167772E-03
      0.370000          0.163902E-03
      0.375000          0.159543E-03
      0.380000          0.154761E-03
      0.385000          0.149642E-03
      0.390000          0.144288E-03
      0.395000          0.138808E-03
      0.400000          0.133318E-03
      0.405000          0.127928E-03
      0.410000          0.122743E-03
      0.415000          0.117851E-03
      0.420000          0.113325E-03
      0.425000          0.109217E-03
      0.430000          0.105556E-03
      0.435000          0.102353E-03
      0.440000          0.995951E-04
      0.445000          0.972552E-04
      0.450000          0.952912E-04
      0.455000          0.936516E-04
      0.460000          0.922791E-04
      0.465000          0.911150E-04
      0.470000          0.901019E-04
      0.475000          0.891876E-04
      0.480000          0.883265E-04
      0.485000          0.874809E-04
      0.490000          0.866225E-04
      0.495000          0.857312E-04
      0.500000          0.847956E-04
