 I_abs(s)[cm^-1]/c[mg/ml]
       0.00000          0.147465E-01
      0.500000E-02      0.146855E-01
      0.100000E-01      0.145043E-01
      0.150000E-01      0.142081E-01
      0.200000E-01      0.138054E-01
      0.250000E-01      0.133075E-01
      0.300000E-01      0.127278E-01
      0.350000E-01      0.120813E-01
      0.400000E-01      0.113840E-01
      0.450000E-01      0.106517E-01
      0.500000E-01      0.990009E-02
      0.550000E-01      0.914359E-02
      0.600000E-01      0.839516E-02
      0.650000E-01      0.766590E-02
      0.700000E-01      0.696489E-02
      0.750000E-01      0.629909E-02
      0.800000E-01      0.567346E-02
      0.850000E-01      0.509104E-02
      0.900000E-01      0.455326E-02
      0.950000E-01      0.406016E-02
      0.100000          0.361072E-02
      0.105000          0.320312E-02
      0.110000          0.283503E-02
      0.115000          0.250384E-02
      0.120000          0.220680E-02
      0.125000          0.194121E-02
      0.130000          0.170447E-02
      0.135000          0.149413E-02
      0.140000          0.130793E-02
      0.145000          0.114376E-02
      0.150000          0.999693E-03
      0.155000          0.873906E-03
      0.160000          0.764709E-03
      0.165000          0.670505E-03
      0.170000          0.589786E-03
      0.175000          0.521127E-03
      0.180000          0.463190E-03
      0.185000          0.414725E-03
      0.190000          0.374575E-03
      0.195000          0.341675E-03
      0.200000          0.315056E-03
      0.205000          0.293840E-03
      0.210000          0.277233E-03
      0.215000          0.264520E-03
      0.220000          0.255055E-03
      0.225000          0.248251E-03
      0.230000          0.243577E-03
      0.235000          0.240548E-03
      0.240000          0.238728E-03
      0.245000          0.237725E-03
      0.250000          0.237194E-03
      0.255000          0.236835E-03
      0.260000          0.236401E-03
      0.265000          0.235693E-03
      0.270000          0.234563E-03
      0.275000          0.232911E-03
      0.280000          0.230682E-03
      0.285000          0.227860E-03
      0.290000          0.224462E-03
      0.295000          0.220534E-03
      0.300000          0.216141E-03
      0.305000          0.211360E-03
      0.310000          0.206279E-03
      0.315000          0.200988E-03
      0.320000          0.195577E-03
      0.325000          0.190130E-03
      0.330000          0.184726E-03
      0.335000          0.179435E-03
      0.340000          0.174319E-03
      0.345000          0.169426E-03
      0.350000          0.164793E-03
      0.355000          0.160446E-03
      0.360000          0.156396E-03
      0.365000          0.152645E-03
      0.370000          0.149181E-03
      0.375000          0.145985E-03
      0.380000          0.143029E-03
      0.385000          0.140283E-03
      0.390000          0.137710E-03
      0.395000          0.135276E-03
      0.400000          0.132949E-03
      0.405000          0.130698E-03
      0.410000          0.128498E-03
      0.415000          0.126327E-03
      0.420000          0.124166E-03
      0.425000          0.122002E-03
      0.430000          0.119820E-03
      0.435000          0.117609E-03
      0.440000          0.115356E-03
      0.445000          0.113051E-03
      0.450000          0.110684E-03
      0.455000          0.108245E-03
      0.460000          0.105730E-03
      0.465000          0.103139E-03
      0.470000          0.100480E-03
      0.475000          0.977661E-04
      0.480000          0.950222E-04
      0.485000          0.922798E-04
      0.490000          0.895784E-04
      0.495000          0.869630E-04
      0.500000          0.844812E-04
