 I_abs(s)[cm^-1]/c[mg/ml]
       0.00000          0.143657E-01
      0.500000E-02      0.143181E-01
      0.100000E-01      0.141763E-01
      0.150000E-01      0.139428E-01
      0.200000E-01      0.136221E-01
      0.250000E-01      0.132200E-01
      0.300000E-01      0.127438E-01
      0.350000E-01      0.122020E-01
      0.400000E-01      0.116041E-01
      0.450000E-01      0.109601E-01
      0.500000E-01      0.102808E-01
      0.550000E-01      0.957673E-02
      0.600000E-01      0.885864E-02
      0.650000E-01      0.813681E-02
      0.700000E-01      0.742097E-02
      0.750000E-01      0.672007E-02
      0.800000E-01      0.604213E-02
      0.850000E-01      0.539412E-02
      0.900000E-01      0.478183E-02
      0.950000E-01      0.420987E-02
      0.100000          0.368161E-02
      0.105000          0.319927E-02
      0.110000          0.276390E-02
      0.115000          0.237553E-02
      0.120000          0.203324E-02
      0.125000          0.173529E-02
      0.130000          0.147928E-02
      0.135000          0.126224E-02
      0.140000          0.108083E-02
      0.145000          0.931450E-03
      0.150000          0.810350E-03
      0.155000          0.713779E-03
      0.160000          0.638072E-03
      0.165000          0.579740E-03
      0.170000          0.535534E-03
      0.175000          0.502503E-03
      0.180000          0.478025E-03
      0.185000          0.459828E-03
      0.190000          0.445996E-03
      0.195000          0.434960E-03
      0.200000          0.425483E-03
      0.205000          0.416632E-03
      0.210000          0.407750E-03
      0.215000          0.398414E-03
      0.220000          0.388405E-03
      0.225000          0.377665E-03
      0.230000          0.366261E-03
      0.235000          0.354347E-03
      0.240000          0.342139E-03
      0.245000          0.329880E-03
      0.250000          0.317818E-03
      0.255000          0.306189E-03
      0.260000          0.295199E-03
      0.265000          0.285013E-03
      0.270000          0.275751E-03
      0.275000          0.267481E-03
      0.280000          0.260225E-03
      0.285000          0.253955E-03
      0.290000          0.248604E-03
      0.295000          0.244071E-03
      0.300000          0.240225E-03
      0.305000          0.236920E-03
      0.310000          0.234000E-03
      0.315000          0.231307E-03
      0.320000          0.228692E-03
      0.325000          0.226017E-03
      0.330000          0.223164E-03
      0.335000          0.220038E-03
      0.340000          0.216569E-03
      0.345000          0.212717E-03
      0.350000          0.208465E-03
      0.355000          0.203824E-03
      0.360000          0.198828E-03
      0.365000          0.193530E-03
      0.370000          0.187999E-03
      0.375000          0.182315E-03
      0.380000          0.176566E-03
      0.385000          0.170839E-03
      0.390000          0.165221E-03
      0.395000          0.159792E-03
      0.400000          0.154621E-03
      0.405000          0.149768E-03
      0.410000          0.145277E-03
      0.415000          0.141178E-03
      0.420000          0.137487E-03
      0.425000          0.134203E-03
      0.430000          0.131316E-03
      0.435000          0.128801E-03
      0.440000          0.126625E-03
      0.445000          0.124748E-03
      0.450000          0.123126E-03
      0.455000          0.121711E-03
      0.460000          0.120456E-03
      0.465000          0.119315E-03
      0.470000          0.118246E-03
      0.475000          0.117212E-03
      0.480000          0.116180E-03
      0.485000          0.115126E-03
      0.490000          0.114028E-03
      0.495000          0.112876E-03
      0.500000          0.111659E-03
