 I_abs(s)[cm^-1]/c[mg/ml]
       0.00000          0.143263E-01
      0.500000E-02      0.142685E-01
      0.100000E-01      0.140965E-01
      0.150000E-01      0.138149E-01
      0.200000E-01      0.134310E-01
      0.250000E-01      0.129546E-01
      0.300000E-01      0.123976E-01
      0.350000E-01      0.117733E-01
      0.400000E-01      0.110965E-01
      0.450000E-01      0.103822E-01
      0.500000E-01      0.964528E-02
      0.550000E-01      0.890034E-02
      0.600000E-01      0.816078E-02
      0.650000E-01      0.743865E-02
      0.700000E-01      0.674426E-02
      0.750000E-01      0.608606E-02
      0.800000E-01      0.547046E-02
      0.850000E-01      0.490186E-02
      0.900000E-01      0.438277E-02
      0.950000E-01      0.391392E-02
      0.100000          0.349450E-02
      0.105000          0.312241E-02
      0.110000          0.279459E-02
      0.115000          0.250726E-02
      0.120000          0.225620E-02
      0.125000          0.203706E-02
      0.130000          0.184552E-02
      0.135000          0.167750E-02
      0.140000          0.152929E-02
      0.145000          0.139762E-02
      0.150000          0.127975E-02
      0.155000          0.117341E-02
      0.160000          0.107685E-02
      0.165000          0.988708E-03
      0.170000          0.908029E-03
      0.175000          0.834130E-03
      0.180000          0.766546E-03
      0.185000          0.704959E-03
      0.190000          0.649127E-03
      0.195000          0.598838E-03
      0.200000          0.553867E-03
      0.205000          0.513947E-03
      0.210000          0.478759E-03
      0.215000          0.447929E-03
      0.220000          0.421030E-03
      0.225000          0.397596E-03
      0.230000          0.377142E-03
      0.235000          0.359178E-03
      0.240000          0.343230E-03
      0.245000          0.328858E-03
      0.250000          0.315665E-03
      0.255000          0.303313E-03
      0.260000          0.291528E-03
      0.265000          0.280099E-03
      0.270000          0.268881E-03
      0.275000          0.257791E-03
      0.280000          0.246796E-03
      0.285000          0.235909E-03
      0.290000          0.225180E-03
      0.295000          0.214679E-03
      0.300000          0.204495E-03
      0.305000          0.194717E-03
      0.310000          0.185434E-03
      0.315000          0.176722E-03
      0.320000          0.168641E-03
      0.325000          0.161230E-03
      0.330000          0.154506E-03
      0.335000          0.148462E-03
      0.340000          0.143069E-03
      0.345000          0.138277E-03
      0.350000          0.134021E-03
      0.355000          0.130223E-03
      0.360000          0.126796E-03
      0.365000          0.123650E-03
      0.370000          0.120700E-03
      0.375000          0.117863E-03
      0.380000          0.115068E-03
      0.385000          0.112259E-03
      0.390000          0.109391E-03
      0.395000          0.106440E-03
      0.400000          0.103397E-03
      0.405000          0.100267E-03
      0.410000          0.970698E-04
      0.415000          0.938383E-04
      0.420000          0.906117E-04
      0.425000          0.874350E-04
      0.430000          0.843549E-04
      0.435000          0.814161E-04
      0.440000          0.786590E-04
      0.445000          0.761169E-04
      0.450000          0.738144E-04
      0.455000          0.717663E-04
      0.460000          0.699773E-04
      0.465000          0.684425E-04
      0.470000          0.671482E-04
      0.475000          0.660742E-04
      0.480000          0.651947E-04
      0.485000          0.644817E-04
      0.490000          0.639061E-04
      0.495000          0.634407E-04
      0.500000          0.630613E-04
