 I_abs(s)[cm^-1]/c[mg/ml]
       0.00000          0.143657E-01
      0.500000E-02      0.142962E-01
      0.100000E-01      0.140898E-01
      0.150000E-01      0.137528E-01
      0.200000E-01      0.132953E-01
      0.250000E-01      0.127309E-01
      0.300000E-01      0.120759E-01
      0.350000E-01      0.113486E-01
      0.400000E-01      0.105684E-01
      0.450000E-01      0.975541E-02
      0.500000E-01      0.892891E-02
      0.550000E-01      0.810720E-02
      0.600000E-01      0.730672E-02
      0.650000E-01      0.654159E-02
      0.700000E-01      0.582322E-02
      0.750000E-01      0.516013E-02
      0.800000E-01      0.455794E-02
      0.850000E-01      0.401945E-02
      0.900000E-01      0.354489E-02
      0.950000E-01      0.313226E-02
      0.100000          0.277778E-02
      0.105000          0.247632E-02
      0.110000          0.222184E-02
      0.115000          0.200791E-02
      0.120000          0.182804E-02
      0.125000          0.167606E-02
      0.130000          0.154637E-02
      0.135000          0.143410E-02
      0.140000          0.133526E-02
      0.145000          0.124670E-02
      0.150000          0.116610E-02
      0.155000          0.109190E-02
      0.160000          0.102312E-02
      0.165000          0.959261E-03
      0.170000          0.900141E-03
      0.175000          0.845745E-03
      0.180000          0.796116E-03
      0.185000          0.751256E-03
      0.190000          0.711064E-03
      0.195000          0.675296E-03
      0.200000          0.643564E-03
      0.205000          0.615349E-03
      0.210000          0.590034E-03
      0.215000          0.566952E-03
      0.220000          0.545432E-03
      0.225000          0.524846E-03
      0.230000          0.504653E-03
      0.235000          0.484429E-03
      0.240000          0.463882E-03
      0.245000          0.442864E-03
      0.250000          0.421359E-03
      0.255000          0.399474E-03
      0.260000          0.377408E-03
      0.265000          0.355428E-03
      0.270000          0.333837E-03
      0.275000          0.312945E-03
      0.280000          0.293043E-03
      0.285000          0.274379E-03
      0.290000          0.257146E-03
      0.295000          0.241470E-03
      0.300000          0.227409E-03
      0.305000          0.214952E-03
      0.310000          0.204033E-03
      0.315000          0.194533E-03
      0.320000          0.186296E-03
      0.325000          0.179145E-03
      0.330000          0.172889E-03
      0.335000          0.167338E-03
      0.340000          0.162313E-03
      0.345000          0.157652E-03
      0.350000          0.153216E-03
      0.355000          0.148893E-03
      0.360000          0.144599E-03
      0.365000          0.140277E-03
      0.370000          0.135895E-03
      0.375000          0.131447E-03
      0.380000          0.126943E-03
      0.385000          0.122412E-03
      0.390000          0.117892E-03
      0.395000          0.113431E-03
      0.400000          0.109081E-03
      0.405000          0.104896E-03
      0.410000          0.100925E-03
      0.415000          0.972137E-04
      0.420000          0.938011E-04
      0.425000          0.907163E-04
      0.430000          0.879783E-04
      0.435000          0.855955E-04
      0.440000          0.835649E-04
      0.445000          0.818730E-04
      0.450000          0.804968E-04
      0.455000          0.794046E-04
      0.460000          0.785584E-04
      0.465000          0.779155E-04
      0.470000          0.774309E-04
      0.475000          0.770595E-04
      0.480000          0.767579E-04
      0.485000          0.764868E-04
      0.490000          0.762121E-04
      0.495000          0.759062E-04
      0.500000          0.755491E-04
