 I_abs(s)[cm^-1]/c[mg/ml]
       0.00000          0.145000E-01
      0.500000E-02      0.144449E-01
      0.100000E-01      0.142808E-01
      0.150000E-01      0.140116E-01
      0.200000E-01      0.136433E-01
      0.250000E-01      0.131844E-01
      0.300000E-01      0.126448E-01
      0.350000E-01      0.120363E-01
      0.400000E-01      0.113717E-01
      0.450000E-01      0.106645E-01
      0.500000E-01      0.992830E-02
      0.550000E-01      0.917677E-02
      0.600000E-01      0.842290E-02
      0.650000E-01      0.767876E-02
      0.700000E-01      0.695523E-02
      0.750000E-01      0.626169E-02
      0.800000E-01      0.560592E-02
      0.850000E-01      0.499395E-02
      0.900000E-01      0.443004E-02
      0.950000E-01      0.391677E-02
      0.100000          0.345505E-02
      0.105000          0.304439E-02
      0.110000          0.268298E-02
      0.115000          0.236800E-02
      0.120000          0.209581E-02
      0.125000          0.186225E-02
      0.130000          0.166278E-02
      0.135000          0.149282E-02
      0.140000          0.134784E-02
      0.145000          0.122360E-02
      0.150000          0.111622E-02
      0.155000          0.102232E-02
      0.160000          0.939024E-03
      0.165000          0.864023E-03
      0.170000          0.795532E-03
      0.175000          0.732264E-03
      0.180000          0.673373E-03
      0.185000          0.618375E-03
      0.190000          0.567075E-03
      0.195000          0.519480E-03
      0.200000          0.475722E-03
      0.205000          0.435985E-03
      0.210000          0.400446E-03
      0.215000          0.369223E-03
      0.220000          0.342347E-03
      0.225000          0.319735E-03
      0.230000          0.301190E-03
      0.235000          0.286398E-03
      0.240000          0.274950E-03
      0.245000          0.266361E-03
      0.250000          0.260093E-03
      0.255000          0.255591E-03
      0.260000          0.252303E-03
      0.265000          0.249712E-03
      0.270000          0.247356E-03
      0.275000          0.244847E-03
      0.280000          0.241878E-03
      0.285000          0.238233E-03
      0.290000          0.233786E-03
      0.295000          0.228496E-03
      0.300000          0.222393E-03
      0.305000          0.215571E-03
      0.310000          0.208173E-03
      0.315000          0.200369E-03
      0.320000          0.192347E-03
      0.325000          0.184295E-03
      0.330000          0.176390E-03
      0.335000          0.168787E-03
      0.340000          0.161611E-03
      0.345000          0.154953E-03
      0.350000          0.148872E-03
      0.355000          0.143388E-03
      0.360000          0.138496E-03
      0.365000          0.134160E-03
      0.370000          0.130330E-03
      0.375000          0.126939E-03
      0.380000          0.123916E-03
      0.385000          0.121191E-03
      0.390000          0.118699E-03
      0.395000          0.116385E-03
      0.400000          0.114207E-03
      0.405000          0.112137E-03
      0.410000          0.110161E-03
      0.415000          0.108277E-03
      0.420000          0.106495E-03
      0.425000          0.104829E-03
      0.430000          0.103300E-03
      0.435000          0.101926E-03
      0.440000          0.100723E-03
      0.445000          0.996999E-04
      0.450000          0.988576E-04
      0.455000          0.981866E-04
      0.460000          0.976669E-04
      0.465000          0.972691E-04
      0.470000          0.969554E-04
      0.475000          0.966819E-04
      0.480000          0.964014E-04
      0.485000          0.960665E-04
      0.490000          0.956326E-04
      0.495000          0.950610E-04
      0.500000          0.943213E-04
