 I_abs(s)[cm^-1]/c[mg/ml]
       0.00000          0.138889E-01
      0.500000E-02      0.138255E-01
      0.100000E-01      0.136372E-01
      0.150000E-01      0.133296E-01
      0.200000E-01      0.129115E-01
      0.250000E-01      0.123951E-01
      0.300000E-01      0.117946E-01
      0.350000E-01      0.111263E-01
      0.400000E-01      0.104073E-01
      0.450000E-01      0.965527E-02
      0.500000E-01      0.888746E-02
      0.550000E-01      0.812010E-02
      0.600000E-01      0.736789E-02
      0.650000E-01      0.664358E-02
      0.700000E-01      0.595765E-02
      0.750000E-01      0.531814E-02
      0.800000E-01      0.473064E-02
      0.850000E-01      0.419839E-02
      0.900000E-01      0.372241E-02
      0.950000E-01      0.330186E-02
      0.100000          0.293428E-02
      0.105000          0.261600E-02
      0.110000          0.234249E-02
      0.115000          0.210866E-02
      0.120000          0.190926E-02
      0.125000          0.173904E-02
      0.130000          0.159306E-02
      0.135000          0.146680E-02
      0.140000          0.135627E-02
      0.145000          0.125810E-02
      0.150000          0.116953E-02
      0.155000          0.108838E-02
      0.160000          0.101304E-02
      0.165000          0.942388E-03
      0.170000          0.875717E-03
      0.175000          0.812651E-03
      0.180000          0.753070E-03
      0.185000          0.697031E-03
      0.190000          0.644702E-03
      0.195000          0.596296E-03
      0.200000          0.552021E-03
      0.205000          0.512038E-03
      0.210000          0.476431E-03
      0.215000          0.445181E-03
      0.220000          0.418161E-03
      0.225000          0.395133E-03
      0.230000          0.375754E-03
      0.235000          0.359593E-03
      0.240000          0.346153E-03
      0.245000          0.334895E-03
      0.250000          0.325268E-03
      0.255000          0.316738E-03
      0.260000          0.308815E-03
      0.265000          0.301074E-03
      0.270000          0.293177E-03
      0.275000          0.284881E-03
      0.280000          0.276045E-03
      0.285000          0.266624E-03
      0.290000          0.256664E-03
      0.295000          0.246285E-03
      0.300000          0.235659E-03
      0.305000          0.224996E-03
      0.310000          0.214516E-03
      0.315000          0.204431E-03
      0.320000          0.194928E-03
      0.325000          0.186154E-03
      0.330000          0.178209E-03
      0.335000          0.171140E-03
      0.340000          0.164943E-03
      0.345000          0.159566E-03
      0.350000          0.154922E-03
      0.355000          0.150895E-03
      0.360000          0.147356E-03
      0.365000          0.144170E-03
      0.370000          0.141214E-03
      0.375000          0.138376E-03
      0.380000          0.135573E-03
      0.385000          0.132744E-03
      0.390000          0.129858E-03
      0.395000          0.126912E-03
      0.400000          0.123924E-03
      0.405000          0.120931E-03
      0.410000          0.117981E-03
      0.415000          0.115128E-03
      0.420000          0.112428E-03
      0.425000          0.109927E-03
      0.430000          0.107665E-03
      0.435000          0.105668E-03
      0.440000          0.103949E-03
      0.445000          0.102503E-03
      0.450000          0.101317E-03
      0.455000          0.100363E-03
      0.460000          0.996074E-04
      0.465000          0.990087E-04
      0.470000          0.985247E-04
      0.475000          0.981134E-04
      0.480000          0.977364E-04
      0.485000          0.973604E-04
      0.490000          0.969589E-04
      0.495000          0.965129E-04
      0.500000          0.960108E-04
