 I_abs(s)[cm^-1]/c[mg/ml]
       0.00000          0.149067E-01
      0.500000E-02      0.148479E-01
      0.100000E-01      0.146730E-01
      0.150000E-01      0.143869E-01
      0.200000E-01      0.139973E-01
      0.250000E-01      0.135144E-01
      0.300000E-01      0.129507E-01
      0.350000E-01      0.123198E-01
      0.400000E-01      0.116365E-01
      0.450000E-01      0.109159E-01
      0.500000E-01      0.101726E-01
      0.550000E-01      0.942057E-02
      0.600000E-01      0.867232E-02
      0.650000E-01      0.793891E-02
      0.700000E-01      0.722961E-02
      0.750000E-01      0.655176E-02
      0.800000E-01      0.591089E-02
      0.850000E-01      0.531072E-02
      0.900000E-01      0.475341E-02
      0.950000E-01      0.423975E-02
      0.100000          0.376941E-02
      0.105000          0.334121E-02
      0.110000          0.295334E-02
      0.115000          0.260359E-02
      0.120000          0.228953E-02
      0.125000          0.200866E-02
      0.130000          0.175846E-02
      0.135000          0.153652E-02
      0.140000          0.134055E-02
      0.145000          0.116837E-02
      0.150000          0.101791E-02
      0.155000          0.887238E-03
      0.160000          0.774501E-03
      0.165000          0.677930E-03
      0.170000          0.595831E-03
      0.175000          0.526586E-03
      0.180000          0.468652E-03
      0.185000          0.420576E-03
      0.190000          0.380997E-03
      0.195000          0.348664E-03
      0.200000          0.322435E-03
      0.205000          0.301294E-03
      0.210000          0.284339E-03
      0.215000          0.270790E-03
      0.220000          0.259977E-03
      0.225000          0.251329E-03
      0.230000          0.244370E-03
      0.235000          0.238698E-03
      0.240000          0.233983E-03
      0.245000          0.229949E-03
      0.250000          0.226369E-03
      0.255000          0.223059E-03
      0.260000          0.219870E-03
      0.265000          0.216684E-03
      0.270000          0.213413E-03
      0.275000          0.209996E-03
      0.280000          0.206393E-03
      0.285000          0.202588E-03
      0.290000          0.198580E-03
      0.295000          0.194385E-03
      0.300000          0.190031E-03
      0.305000          0.185552E-03
      0.310000          0.180991E-03
      0.315000          0.176391E-03
      0.320000          0.171798E-03
      0.325000          0.167255E-03
      0.330000          0.162804E-03
      0.335000          0.158484E-03
      0.340000          0.154331E-03
      0.345000          0.150374E-03
      0.350000          0.146639E-03
      0.355000          0.143145E-03
      0.360000          0.139905E-03
      0.365000          0.136923E-03
      0.370000          0.134194E-03
      0.375000          0.131707E-03
      0.380000          0.129441E-03
      0.385000          0.127366E-03
      0.390000          0.125447E-03
      0.395000          0.123645E-03
      0.400000          0.121918E-03
      0.405000          0.120227E-03
      0.410000          0.118536E-03
      0.415000          0.116814E-03
      0.420000          0.115040E-03
      0.425000          0.113203E-03
      0.430000          0.111300E-03
      0.435000          0.109340E-03
      0.440000          0.107339E-03
      0.445000          0.105317E-03
      0.450000          0.103301E-03
      0.455000          0.101315E-03
      0.460000          0.993847E-04
      0.465000          0.975297E-04
      0.470000          0.957659E-04
      0.475000          0.941029E-04
      0.480000          0.925450E-04
      0.485000          0.910915E-04
      0.490000          0.897381E-04
      0.495000          0.884786E-04
      0.500000          0.873062E-04
