 I_abs(s)[cm^-1]/c[mg/ml]
       0.00000          0.147066E-01
      0.500000E-02      0.146505E-01
      0.100000E-01      0.144835E-01
      0.150000E-01      0.142093E-01
      0.200000E-01      0.138342E-01
      0.250000E-01      0.133666E-01
      0.300000E-01      0.128166E-01
      0.350000E-01      0.121959E-01
      0.400000E-01      0.115175E-01
      0.450000E-01      0.107949E-01
      0.500000E-01      0.100419E-01
      0.550000E-01      0.927205E-02
      0.600000E-01      0.849854E-02
      0.650000E-01      0.773352E-02
      0.700000E-01      0.698799E-02
      0.750000E-01      0.627151E-02
      0.800000E-01      0.559204E-02
      0.850000E-01      0.495589E-02
      0.900000E-01      0.436766E-02
      0.950000E-01      0.383029E-02
      0.100000          0.334517E-02
      0.105000          0.291225E-02
      0.110000          0.253028E-02
      0.115000          0.219696E-02
      0.120000          0.190918E-02
      0.125000          0.166325E-02
      0.130000          0.145507E-02
      0.135000          0.128038E-02
      0.140000          0.113487E-02
      0.145000          0.101438E-02
      0.150000          0.914967E-03
      0.155000          0.833032E-03
      0.160000          0.765345E-03
      0.165000          0.709093E-03
      0.170000          0.661875E-03
      0.175000          0.621697E-03
      0.180000          0.586939E-03
      0.185000          0.556320E-03
      0.190000          0.528854E-03
      0.195000          0.503800E-03
      0.200000          0.480620E-03
      0.205000          0.458931E-03
      0.210000          0.438471E-03
      0.215000          0.419062E-03
      0.220000          0.400586E-03
      0.225000          0.382963E-03
      0.230000          0.366136E-03
      0.235000          0.350063E-03
      0.240000          0.334709E-03
      0.245000          0.320043E-03
      0.250000          0.306042E-03
      0.255000          0.292682E-03
      0.260000          0.279951E-03
      0.265000          0.267839E-03
      0.270000          0.256344E-03
      0.275000          0.245471E-03
      0.280000          0.235229E-03
      0.285000          0.225632E-03
      0.290000          0.216693E-03
      0.295000          0.208423E-03
      0.300000          0.200831E-03
      0.305000          0.193914E-03
      0.310000          0.187666E-03
      0.315000          0.182064E-03
      0.320000          0.177077E-03
      0.325000          0.172664E-03
      0.330000          0.168771E-03
      0.335000          0.165337E-03
      0.340000          0.162297E-03
      0.345000          0.159581E-03
      0.350000          0.157118E-03
      0.355000          0.154844E-03
      0.360000          0.152696E-03
      0.365000          0.150623E-03
      0.370000          0.148583E-03
      0.375000          0.146544E-03
      0.380000          0.144487E-03
      0.385000          0.142405E-03
      0.390000          0.140298E-03
      0.395000          0.138177E-03
      0.400000          0.136057E-03
      0.405000          0.133958E-03
      0.410000          0.131901E-03
      0.415000          0.129903E-03
      0.420000          0.127978E-03
      0.425000          0.126136E-03
      0.430000          0.124376E-03
      0.435000          0.122693E-03
      0.440000          0.121070E-03
      0.445000          0.119488E-03
      0.450000          0.117920E-03
      0.455000          0.116334E-03
      0.460000          0.114699E-03
      0.465000          0.112985E-03
      0.470000          0.111165E-03
      0.475000          0.109220E-03
      0.480000          0.107136E-03
      0.485000          0.104912E-03
      0.490000          0.102555E-03
      0.495000          0.100083E-03
      0.500000          0.975255E-04
