 I_abs(s)[cm^-1]/c[mg/ml]
       0.00000          0.143736E-01
      0.500000E-02      0.143007E-01
      0.100000E-01      0.140842E-01
      0.150000E-01      0.137309E-01
      0.200000E-01      0.132514E-01
      0.250000E-01      0.126601E-01
      0.300000E-01      0.119743E-01
      0.350000E-01      0.112135E-01
      0.400000E-01      0.103985E-01
      0.450000E-01      0.955055E-02
      0.500000E-01      0.869061E-02
      0.550000E-01      0.783834E-02
      0.600000E-01      0.701155E-02
      0.650000E-01      0.622556E-02
      0.700000E-01      0.549279E-02
      0.750000E-01      0.482255E-02
      0.800000E-01      0.422090E-02
      0.850000E-01      0.369077E-02
      0.900000E-01      0.323217E-02
      0.950000E-01      0.284253E-02
      0.100000          0.251715E-02
      0.105000          0.224969E-02
      0.110000          0.203269E-02
      0.115000          0.185811E-02
      0.120000          0.171777E-02
      0.125000          0.160384E-02
      0.130000          0.150912E-02
      0.135000          0.142738E-02
      0.140000          0.135347E-02
      0.145000          0.128342E-02
      0.150000          0.121445E-02
      0.155000          0.114488E-02
      0.160000          0.107401E-02
      0.165000          0.100194E-02
      0.170000          0.929367E-03
      0.175000          0.857394E-03
      0.180000          0.787330E-03
      0.185000          0.720517E-03
      0.190000          0.658182E-03
      0.195000          0.601323E-03
      0.200000          0.550644E-03
      0.205000          0.506510E-03
      0.210000          0.468946E-03
      0.215000          0.437667E-03
      0.220000          0.412118E-03
      0.225000          0.391544E-03
      0.230000          0.375059E-03
      0.235000          0.361716E-03
      0.240000          0.350577E-03
      0.245000          0.340771E-03
      0.250000          0.331544E-03
      0.255000          0.322285E-03
      0.260000          0.312552E-03
      0.265000          0.302072E-03
      0.270000          0.290736E-03
      0.275000          0.278576E-03
      0.280000          0.265748E-03
      0.285000          0.252494E-03
      0.290000          0.239115E-03
      0.295000          0.225938E-03
      0.300000          0.213288E-03
      0.305000          0.201461E-03
      0.310000          0.190708E-03
      0.315000          0.181218E-03
      0.320000          0.173110E-03
      0.325000          0.166432E-03
      0.330000          0.161161E-03
      0.335000          0.157214E-03
      0.340000          0.154451E-03
      0.345000          0.152693E-03
      0.350000          0.151731E-03
      0.355000          0.151342E-03
      0.360000          0.151299E-03
      0.365000          0.151386E-03
      0.370000          0.151405E-03
      0.375000          0.151186E-03
      0.380000          0.150592E-03
      0.385000          0.149520E-03
      0.390000          0.147909E-03
      0.395000          0.145730E-03
      0.400000          0.142994E-03
      0.405000          0.139737E-03
      0.410000          0.136027E-03
      0.415000          0.131946E-03
      0.420000          0.127596E-03
      0.425000          0.123083E-03
      0.430000          0.118517E-03
      0.435000          0.114006E-03
      0.440000          0.109648E-03
      0.445000          0.105531E-03
      0.450000          0.101727E-03
      0.455000          0.982927E-04
      0.460000          0.952646E-04
      0.465000          0.926623E-04
      0.470000          0.904870E-04
      0.475000          0.887235E-04
      0.480000          0.873421E-04
      0.485000          0.863008E-04
      0.490000          0.855484E-04
      0.495000          0.850275E-04
      0.500000          0.846775E-04
