 I_abs(s)[cm^-1]/c[mg/ml]
       0.00000          0.147306E-01
      0.500000E-02      0.146723E-01
      0.100000E-01      0.144989E-01
      0.150000E-01      0.142152E-01
      0.200000E-01      0.138287E-01
      0.250000E-01      0.133496E-01
      0.300000E-01      0.127901E-01
      0.350000E-01      0.121636E-01
      0.400000E-01      0.114848E-01
      0.450000E-01      0.107685E-01
      0.500000E-01      0.100293E-01
      0.550000E-01      0.928074E-02
      0.600000E-01      0.853556E-02
      0.650000E-01      0.780473E-02
      0.700000E-01      0.709757E-02
      0.750000E-01      0.642155E-02
      0.800000E-01      0.578236E-02
      0.850000E-01      0.518395E-02
      0.900000E-01      0.462872E-02
      0.950000E-01      0.411768E-02
      0.100000          0.365076E-02
      0.105000          0.322697E-02
      0.110000          0.284465E-02
      0.115000          0.250167E-02
      0.120000          0.219563E-02
      0.125000          0.192394E-02
      0.130000          0.168395E-02
      0.135000          0.147303E-02
      0.140000          0.128861E-02
      0.145000          0.112821E-02
      0.150000          0.989432E-03
      0.155000          0.870016E-03
      0.160000          0.767806E-03
      0.165000          0.680769E-03
      0.170000          0.607005E-03
      0.175000          0.544755E-03
      0.180000          0.492403E-03
      0.185000          0.448491E-03
      0.190000          0.411719E-03
      0.195000          0.380949E-03
      0.200000          0.355198E-03
      0.205000          0.333632E-03
      0.210000          0.315555E-03
      0.215000          0.300391E-03
      0.220000          0.287671E-03
      0.225000          0.277010E-03
      0.230000          0.268094E-03
      0.235000          0.260662E-03
      0.240000          0.254496E-03
      0.245000          0.249408E-03
      0.250000          0.245235E-03
      0.255000          0.241828E-03
      0.260000          0.239056E-03
      0.265000          0.236794E-03
      0.270000          0.234929E-03
      0.275000          0.233354E-03
      0.280000          0.231968E-03
      0.285000          0.230672E-03
      0.290000          0.229373E-03
      0.295000          0.227980E-03
      0.300000          0.226405E-03
      0.305000          0.224563E-03
      0.310000          0.222375E-03
      0.315000          0.219771E-03
      0.320000          0.216692E-03
      0.325000          0.213091E-03
      0.330000          0.208940E-03
      0.335000          0.204230E-03
      0.340000          0.198970E-03
      0.345000          0.193194E-03
      0.350000          0.186952E-03
      0.355000          0.180314E-03
      0.360000          0.173367E-03
      0.365000          0.166205E-03
      0.370000          0.158933E-03
      0.375000          0.151659E-03
      0.380000          0.144487E-03
      0.385000          0.137518E-03
      0.390000          0.130845E-03
      0.395000          0.124547E-03
      0.400000          0.118693E-03
      0.405000          0.113334E-03
      0.410000          0.108508E-03
      0.415000          0.104235E-03
      0.420000          0.100520E-03
      0.425000          0.973527E-04
      0.430000          0.947107E-04
      0.435000          0.925587E-04
      0.440000          0.908522E-04
      0.445000          0.895396E-04
      0.450000          0.885652E-04
      0.455000          0.878714E-04
      0.460000          0.874022E-04
      0.465000          0.871049E-04
      0.470000          0.869325E-04
      0.475000          0.868451E-04
      0.480000          0.868105E-04
      0.485000          0.868042E-04
      0.490000          0.868086E-04
      0.495000          0.868120E-04
      0.500000          0.868067E-04
