 I_abs(s)[cm^-1]/c[mg/ml]
       0.00000          0.148505E-01
      0.500000E-02      0.147849E-01
      0.100000E-01      0.145897E-01
      0.150000E-01      0.142707E-01
      0.200000E-01      0.138369E-01
      0.250000E-01      0.133005E-01
      0.300000E-01      0.126760E-01
      0.350000E-01      0.119797E-01
      0.400000E-01      0.112290E-01
      0.450000E-01      0.104416E-01
      0.500000E-01      0.963466E-02
      0.550000E-01      0.882458E-02
      0.600000E-01      0.802602E-02
      0.650000E-01      0.725169E-02
      0.700000E-01      0.651209E-02
      0.750000E-01      0.581534E-02
      0.800000E-01      0.516717E-02
      0.850000E-01      0.457110E-02
      0.900000E-01      0.402859E-02
      0.950000E-01      0.353940E-02
      0.100000          0.310184E-02
      0.105000          0.271320E-02
      0.110000          0.237002E-02
      0.115000          0.206846E-02
      0.120000          0.180452E-02
      0.125000          0.157423E-02
      0.130000          0.137389E-02
      0.135000          0.120005E-02
      0.140000          0.104964E-02
      0.145000          0.919939E-03
      0.150000          0.808562E-03
      0.155000          0.713405E-03
      0.160000          0.632603E-03
      0.165000          0.564475E-03
      0.170000          0.507485E-03
      0.175000          0.460211E-03
      0.180000          0.421322E-03
      0.185000          0.389576E-03
      0.190000          0.363820E-03
      0.195000          0.343004E-03
      0.200000          0.326188E-03
      0.205000          0.312557E-03
      0.210000          0.301423E-03
      0.215000          0.292228E-03
      0.220000          0.284537E-03
      0.225000          0.278022E-03
      0.230000          0.272448E-03
      0.235000          0.267645E-03
      0.240000          0.263489E-03
      0.245000          0.259878E-03
      0.250000          0.256718E-03
      0.255000          0.253904E-03
      0.260000          0.251317E-03
      0.265000          0.248821E-03
      0.270000          0.246269E-03
      0.275000          0.243508E-03
      0.280000          0.240395E-03
      0.285000          0.236803E-03
      0.290000          0.232635E-03
      0.295000          0.227832E-03
      0.300000          0.222382E-03
      0.305000          0.216314E-03
      0.310000          0.209702E-03
      0.315000          0.202659E-03
      0.320000          0.195322E-03
      0.325000          0.187848E-03
      0.330000          0.180399E-03
      0.335000          0.173131E-03
      0.340000          0.166183E-03
      0.345000          0.159673E-03
      0.350000          0.153688E-03
      0.355000          0.148283E-03
      0.360000          0.143481E-03
      0.365000          0.139278E-03
      0.370000          0.135640E-03
      0.375000          0.132517E-03
      0.380000          0.129845E-03
      0.385000          0.127548E-03
      0.390000          0.125554E-03
      0.395000          0.123787E-03
      0.400000          0.122183E-03
      0.405000          0.120683E-03
      0.410000          0.119238E-03
      0.415000          0.117811E-03
      0.420000          0.116373E-03
      0.425000          0.114906E-03
      0.430000          0.113397E-03
      0.435000          0.111840E-03
      0.440000          0.110233E-03
      0.445000          0.108580E-03
      0.450000          0.106885E-03
      0.455000          0.105154E-03
      0.460000          0.103396E-03
      0.465000          0.101622E-03
      0.470000          0.998411E-04
      0.475000          0.980677E-04
      0.480000          0.963153E-04
      0.485000          0.945992E-04
      0.490000          0.929355E-04
      0.495000          0.913405E-04
      0.500000          0.898309E-04
