 I_abs(s)[cm^-1]/c[mg/ml]
       0.00000          0.147226E-01
      0.500000E-02      0.146692E-01
      0.100000E-01      0.145101E-01
      0.150000E-01      0.142492E-01
      0.200000E-01      0.138925E-01
      0.250000E-01      0.134483E-01
      0.300000E-01      0.129263E-01
      0.350000E-01      0.123381E-01
      0.400000E-01      0.116959E-01
      0.450000E-01      0.110125E-01
      0.500000E-01      0.103009E-01
      0.550000E-01      0.957370E-02
      0.600000E-01      0.884287E-02
      0.650000E-01      0.811933E-02
      0.700000E-01      0.741274E-02
      0.750000E-01      0.673134E-02
      0.800000E-01      0.608185E-02
      0.850000E-01      0.546941E-02
      0.900000E-01      0.489767E-02
      0.950000E-01      0.436884E-02
      0.100000          0.388387E-02
      0.105000          0.344260E-02
      0.110000          0.304397E-02
      0.115000          0.268620E-02
      0.120000          0.236701E-02
      0.125000          0.208378E-02
      0.130000          0.183371E-02
      0.135000          0.161397E-02
      0.140000          0.142174E-02
      0.145000          0.125436E-02
      0.150000          0.110932E-02
      0.155000          0.984298E-03
      0.160000          0.877152E-03
      0.165000          0.785932E-03
      0.170000          0.708839E-03
      0.175000          0.644216E-03
      0.180000          0.590517E-03
      0.185000          0.546298E-03
      0.190000          0.510195E-03
      0.195000          0.480922E-03
      0.200000          0.457270E-03
      0.205000          0.438111E-03
      0.210000          0.422404E-03
      0.215000          0.409208E-03
      0.220000          0.397692E-03
      0.225000          0.387146E-03
      0.230000          0.376982E-03
      0.235000          0.366743E-03
      0.240000          0.356101E-03
      0.245000          0.344845E-03
      0.250000          0.332878E-03
      0.255000          0.320200E-03
      0.260000          0.306889E-03
      0.265000          0.293090E-03
      0.270000          0.278988E-03
      0.275000          0.264796E-03
      0.280000          0.250734E-03
      0.285000          0.237015E-03
      0.290000          0.223835E-03
      0.295000          0.211359E-03
      0.300000          0.199720E-03
      0.305000          0.189010E-03
      0.310000          0.179283E-03
      0.315000          0.170554E-03
      0.320000          0.162805E-03
      0.325000          0.155985E-03
      0.330000          0.150023E-03
      0.335000          0.144829E-03
      0.340000          0.140301E-03
      0.345000          0.136333E-03
      0.350000          0.132821E-03
      0.355000          0.129666E-03
      0.360000          0.126780E-03
      0.365000          0.124088E-03
      0.370000          0.121531E-03
      0.375000          0.119063E-03
      0.380000          0.116658E-03
      0.385000          0.114303E-03
      0.390000          0.111995E-03
      0.395000          0.109745E-03
      0.400000          0.107571E-03
      0.405000          0.105492E-03
      0.410000          0.103531E-03
      0.415000          0.101709E-03
      0.420000          0.100042E-03
      0.425000          0.985387E-04
      0.430000          0.972024E-04
      0.435000          0.960272E-04
      0.440000          0.949995E-04
      0.445000          0.940984E-04
      0.450000          0.932971E-04
      0.455000          0.925647E-04
      0.460000          0.918686E-04
      0.465000          0.911758E-04
      0.470000          0.904562E-04
      0.475000          0.896835E-04
      0.480000          0.888374E-04
      0.485000          0.879048E-04
      0.490000          0.868800E-04
      0.495000          0.857651E-04
      0.500000          0.845699E-04
