 I_abs(s)[cm^-1]/c[mg/ml]
       0.00000          0.143342E-01
      0.500000E-02      0.142644E-01
      0.100000E-01      0.140575E-01
      0.150000E-01      0.137214E-01
      0.200000E-01      0.132681E-01
      0.250000E-01      0.127137E-01
      0.300000E-01      0.120769E-01
      0.350000E-01      0.113777E-01
      0.400000E-01      0.106368E-01
      0.450000E-01      0.987405E-02
      0.500000E-01      0.910762E-02
      0.550000E-01      0.835332E-02
      0.600000E-01      0.762411E-02
      0.650000E-01      0.692995E-02
      0.700000E-01      0.627777E-02
      0.750000E-01      0.567179E-02
      0.800000E-01      0.511389E-02
      0.850000E-01      0.460407E-02
      0.900000E-01      0.414098E-02
      0.950000E-01      0.372236E-02
      0.100000          0.334545E-02
      0.105000          0.300727E-02
      0.110000          0.270483E-02
      0.115000          0.243524E-02
      0.120000          0.219574E-02
      0.125000          0.198368E-02
      0.130000          0.179649E-02
      0.135000          0.163162E-02
      0.140000          0.148657E-02
      0.145000          0.135884E-02
      0.150000          0.124603E-02
      0.155000          0.114586E-02
      0.160000          0.105625E-02
      0.165000          0.975389E-03
      0.170000          0.901798E-03
      0.175000          0.834334E-03
      0.180000          0.772200E-03
      0.185000          0.714902E-03
      0.190000          0.662193E-03
      0.195000          0.613989E-03
      0.200000          0.570290E-03
      0.205000          0.531094E-03
      0.210000          0.496339E-03
      0.215000          0.465857E-03
      0.220000          0.439354E-03
      0.225000          0.416421E-03
      0.230000          0.396551E-03
      0.235000          0.379185E-03
      0.240000          0.363753E-03
      0.245000          0.349719E-03
      0.250000          0.336618E-03
      0.255000          0.324079E-03
      0.260000          0.311837E-03
      0.265000          0.299730E-03
      0.270000          0.287688E-03
      0.275000          0.275707E-03
      0.280000          0.263833E-03
      0.285000          0.252132E-03
      0.290000          0.240673E-03
      0.295000          0.229516E-03
      0.300000          0.218702E-03
      0.305000          0.208255E-03
      0.310000          0.198183E-03
      0.315000          0.188487E-03
      0.320000          0.179165E-03
      0.325000          0.170220E-03
      0.330000          0.161664E-03
      0.335000          0.153516E-03
      0.340000          0.145803E-03
      0.345000          0.138553E-03
      0.350000          0.131793E-03
      0.355000          0.125537E-03
      0.360000          0.119789E-03
      0.365000          0.114536E-03
      0.370000          0.109752E-03
      0.375000          0.105393E-03
      0.380000          0.101411E-03
      0.385000          0.977519E-04
      0.390000          0.943652E-04
      0.395000          0.912083E-04
      0.400000          0.882505E-04
      0.405000          0.854755E-04
      0.410000          0.828808E-04
      0.415000          0.804765E-04
      0.420000          0.782810E-04
      0.425000          0.763167E-04
      0.430000          0.746046E-04
      0.435000          0.731597E-04
      0.440000          0.719874E-04
      0.445000          0.710807E-04
      0.450000          0.704201E-04
      0.455000          0.699742E-04
      0.460000          0.697028E-04
      0.465000          0.695602E-04
      0.470000          0.694997E-04
      0.475000          0.694775E-04
      0.480000          0.694567E-04
      0.485000          0.694100E-04
      0.490000          0.693207E-04
      0.495000          0.691832E-04
      0.500000          0.690018E-04
