 I_abs(s)[cm^-1]/c[mg/ml]
       0.00000          0.142477E-01
      0.500000E-02      0.141830E-01
      0.100000E-01      0.139908E-01
      0.150000E-01      0.136773E-01
      0.200000E-01      0.132521E-01
      0.250000E-01      0.127283E-01
      0.300000E-01      0.121212E-01
      0.350000E-01      0.114480E-01
      0.400000E-01      0.107269E-01
      0.450000E-01      0.997586E-02
      0.500000E-01      0.921248E-02
      0.550000E-01      0.845279E-02
      0.600000E-01      0.771088E-02
      0.650000E-01      0.699853E-02
      0.700000E-01      0.632490E-02
      0.750000E-01      0.569652E-02
      0.800000E-01      0.511736E-02
      0.850000E-01      0.458909E-02
      0.900000E-01      0.411135E-02
      0.950000E-01      0.368220E-02
      0.100000          0.329849E-02
      0.105000          0.295636E-02
      0.110000          0.265156E-02
      0.115000          0.237982E-02
      0.120000          0.213711E-02
      0.125000          0.191980E-02
      0.130000          0.172480E-02
      0.135000          0.154954E-02
      0.140000          0.139201E-02
      0.145000          0.125061E-02
      0.150000          0.112412E-02
      0.155000          0.101151E-02
      0.160000          0.911934E-03
      0.165000          0.824539E-03
      0.170000          0.748461E-03
      0.175000          0.682766E-03
      0.180000          0.626436E-03
      0.185000          0.578381E-03
      0.190000          0.537470E-03
      0.195000          0.502574E-03
      0.200000          0.472604E-03
      0.205000          0.446559E-03
      0.210000          0.423561E-03
      0.215000          0.402872E-03
      0.220000          0.383909E-03
      0.225000          0.366239E-03
      0.230000          0.349563E-03
      0.235000          0.333697E-03
      0.240000          0.318542E-03
      0.245000          0.304056E-03
      0.250000          0.290229E-03
      0.255000          0.277063E-03
      0.260000          0.264550E-03
      0.265000          0.252675E-03
      0.270000          0.241403E-03
      0.275000          0.230690E-03
      0.280000          0.220484E-03
      0.285000          0.210737E-03
      0.290000          0.201412E-03
      0.295000          0.192486E-03
      0.300000          0.183956E-03
      0.305000          0.175838E-03
      0.310000          0.168164E-03
      0.315000          0.160972E-03
      0.320000          0.154304E-03
      0.325000          0.148194E-03
      0.330000          0.142664E-03
      0.335000          0.137715E-03
      0.340000          0.133327E-03
      0.345000          0.129458E-03
      0.350000          0.126048E-03
      0.355000          0.123021E-03
      0.360000          0.120297E-03
      0.365000          0.117796E-03
      0.370000          0.115445E-03
      0.375000          0.113188E-03
      0.380000          0.110985E-03
      0.385000          0.108818E-03
      0.390000          0.106689E-03
      0.395000          0.104619E-03
      0.400000          0.102639E-03
      0.405000          0.100790E-03
      0.410000          0.991097E-04
      0.415000          0.976334E-04
      0.420000          0.963825E-04
      0.425000          0.953639E-04
      0.430000          0.945669E-04
      0.435000          0.939636E-04
      0.440000          0.935105E-04
      0.445000          0.931524E-04
      0.450000          0.928269E-04
      0.455000          0.924707E-04
      0.460000          0.920245E-04
      0.465000          0.914384E-04
      0.470000          0.906767E-04
      0.475000          0.897200E-04
      0.480000          0.885674E-04
      0.485000          0.872358E-04
      0.490000          0.857585E-04
      0.495000          0.841823E-04
      0.500000          0.825633E-04
