 I_abs(s)[cm^-1]/c[mg/ml]
       0.00000          0.145952E-01
      0.500000E-02      0.145424E-01
      0.100000E-01      0.143852E-01
      0.150000E-01      0.141277E-01
      0.200000E-01      0.137761E-01
      0.250000E-01      0.133392E-01
      0.300000E-01      0.128271E-01
      0.350000E-01      0.122515E-01
      0.400000E-01      0.116250E-01
      0.450000E-01      0.109604E-01
      0.500000E-01      0.102705E-01
      0.550000E-01      0.956762E-02
      0.600000E-01      0.886304E-02
      0.650000E-01      0.816697E-02
      0.700000E-01      0.748822E-02
      0.750000E-01      0.683409E-02
      0.800000E-01      0.621034E-02
      0.850000E-01      0.562124E-02
      0.900000E-01      0.506969E-02
      0.950000E-01      0.455732E-02
      0.100000          0.408472E-02
      0.105000          0.365159E-02
      0.110000          0.325694E-02
      0.115000          0.289928E-02
      0.120000          0.257678E-02
      0.125000          0.228736E-02
      0.130000          0.202886E-02
      0.135000          0.179904E-02
      0.140000          0.159571E-02
      0.145000          0.141668E-02
      0.150000          0.125986E-02
      0.155000          0.112321E-02
      0.160000          0.100477E-02
      0.165000          0.902639E-03
      0.170000          0.815008E-03
      0.175000          0.740142E-03
      0.180000          0.676393E-03
      0.185000          0.622213E-03
      0.190000          0.576160E-03
      0.195000          0.536910E-03
      0.200000          0.503268E-03
      0.205000          0.474167E-03
      0.210000          0.448675E-03
      0.215000          0.425993E-03
      0.220000          0.405447E-03
      0.225000          0.386485E-03
      0.230000          0.368662E-03
      0.235000          0.351635E-03
      0.240000          0.335146E-03
      0.245000          0.319015E-03
      0.250000          0.303130E-03
      0.255000          0.287436E-03
      0.260000          0.271928E-03
      0.265000          0.256644E-03
      0.270000          0.241654E-03
      0.275000          0.227059E-03
      0.280000          0.212976E-03
      0.285000          0.199532E-03
      0.290000          0.186857E-03
      0.295000          0.175071E-03
      0.300000          0.164280E-03
      0.305000          0.154562E-03
      0.310000          0.145966E-03
      0.315000          0.138505E-03
      0.320000          0.132157E-03
      0.325000          0.126861E-03
      0.330000          0.122529E-03
      0.335000          0.119043E-03
      0.340000          0.116273E-03
      0.345000          0.114078E-03
      0.350000          0.112320E-03
      0.355000          0.110874E-03
      0.360000          0.109632E-03
      0.365000          0.108511E-03
      0.370000          0.107454E-03
      0.375000          0.106431E-03
      0.380000          0.105438E-03
      0.385000          0.104489E-03
      0.390000          0.103610E-03
      0.395000          0.102834E-03
      0.400000          0.102192E-03
      0.405000          0.101703E-03
      0.410000          0.101375E-03
      0.415000          0.101198E-03
      0.420000          0.101143E-03
      0.425000          0.101162E-03
      0.430000          0.101197E-03
      0.435000          0.101179E-03
      0.440000          0.101037E-03
      0.445000          0.100702E-03
      0.450000          0.100118E-03
      0.455000          0.992437E-04
      0.460000          0.980556E-04
      0.465000          0.965527E-04
      0.470000          0.947549E-04
      0.475000          0.927015E-04
      0.480000          0.904482E-04
      0.485000          0.880620E-04
      0.490000          0.856160E-04
      0.495000          0.831839E-04
      0.500000          0.808350E-04
