 I_abs(s)[cm^-1]/c[mg/ml]
       0.00000          0.144446E-01
      0.500000E-02      0.143848E-01
      0.100000E-01      0.142070E-01
      0.150000E-01      0.139166E-01
      0.200000E-01      0.135223E-01
      0.250000E-01      0.130353E-01
      0.300000E-01      0.124691E-01
      0.350000E-01      0.118390E-01
      0.400000E-01      0.111605E-01
      0.450000E-01      0.104496E-01
      0.500000E-01      0.972144E-02
      0.550000E-01      0.899011E-02
      0.600000E-01      0.826803E-02
      0.650000E-01      0.756569E-02
      0.700000E-01      0.689153E-02
      0.750000E-01      0.625189E-02
      0.800000E-01      0.565113E-02
      0.850000E-01      0.509181E-02
      0.900000E-01      0.457500E-02
      0.950000E-01      0.410051E-02
      0.100000          0.366724E-02
      0.105000          0.327345E-02
      0.110000          0.291699E-02
      0.115000          0.259552E-02
      0.120000          0.230665E-02
      0.125000          0.204801E-02
      0.130000          0.181733E-02
      0.135000          0.161243E-02
      0.140000          0.143124E-02
      0.145000          0.127176E-02
      0.150000          0.113204E-02
      0.155000          0.101019E-02
      0.160000          0.904364E-03
      0.165000          0.812763E-03
      0.170000          0.733661E-03
      0.175000          0.665424E-03
      0.180000          0.606539E-03
      0.185000          0.555634E-03
      0.190000          0.511499E-03
      0.195000          0.473093E-03
      0.200000          0.439540E-03
      0.205000          0.410123E-03
      0.210000          0.384265E-03
      0.215000          0.361504E-03
      0.220000          0.341468E-03
      0.225000          0.323849E-03
      0.230000          0.308385E-03
      0.235000          0.294836E-03
      0.240000          0.282977E-03
      0.245000          0.272590E-03
      0.250000          0.263462E-03
      0.255000          0.255390E-03
      0.260000          0.248182E-03
      0.265000          0.241663E-03
      0.270000          0.235681E-03
      0.275000          0.230105E-03
      0.280000          0.224831E-03
      0.285000          0.219780E-03
      0.290000          0.214891E-03
      0.295000          0.210121E-03
      0.300000          0.205440E-03
      0.305000          0.200824E-03
      0.310000          0.196258E-03
      0.315000          0.191728E-03
      0.320000          0.187225E-03
      0.325000          0.182740E-03
      0.330000          0.178271E-03
      0.335000          0.173818E-03
      0.340000          0.169389E-03
      0.345000          0.164996E-03
      0.350000          0.160659E-03
      0.355000          0.156400E-03
      0.360000          0.152246E-03
      0.365000          0.148222E-03
      0.370000          0.144351E-03
      0.375000          0.140652E-03
      0.380000          0.137136E-03
      0.385000          0.133806E-03
      0.390000          0.130658E-03
      0.395000          0.127676E-03
      0.400000          0.124841E-03
      0.405000          0.122127E-03
      0.410000          0.119508E-03
      0.415000          0.116956E-03
      0.420000          0.114450E-03
      0.425000          0.111970E-03
      0.430000          0.109509E-03
      0.435000          0.107066E-03
      0.440000          0.104650E-03
      0.445000          0.102279E-03
      0.450000          0.999777E-04
      0.455000          0.977784E-04
      0.460000          0.957147E-04
      0.465000          0.938208E-04
      0.470000          0.921279E-04
      0.475000          0.906612E-04
      0.480000          0.894371E-04
      0.485000          0.884618E-04
      0.490000          0.877295E-04
      0.495000          0.872224E-04
      0.500000          0.869115E-04
