 I_abs(s)[cm^-1]/c[mg/ml]
       0.00000          0.143421E-01
      0.500000E-02      0.142775E-01
      0.100000E-01      0.140858E-01
      0.150000E-01      0.137729E-01
      0.200000E-01      0.133485E-01
      0.250000E-01      0.128253E-01
      0.300000E-01      0.122183E-01
      0.350000E-01      0.115445E-01
      0.400000E-01      0.108215E-01
      0.450000E-01      0.100671E-01
      0.500000E-01      0.929841E-02
      0.550000E-01      0.853120E-02
      0.600000E-01      0.777940E-02
      0.650000E-01      0.705477E-02
      0.700000E-01      0.636668E-02
      0.750000E-01      0.572207E-02
      0.800000E-01      0.512557E-02
      0.850000E-01      0.457966E-02
      0.900000E-01      0.408499E-02
      0.950000E-01      0.364068E-02
      0.100000          0.324468E-02
      0.105000          0.289408E-02
      0.110000          0.258542E-02
      0.115000          0.231495E-02
      0.120000          0.207881E-02
      0.125000          0.187320E-02
      0.130000          0.169446E-02
      0.135000          0.153914E-02
      0.140000          0.140407E-02
      0.145000          0.128632E-02
      0.150000          0.118323E-02
      0.155000          0.109242E-02
      0.160000          0.101176E-02
      0.165000          0.939402E-03
      0.170000          0.873777E-03
      0.175000          0.813574E-03
      0.180000          0.757749E-03
      0.185000          0.705516E-03
      0.190000          0.656322E-03
      0.195000          0.609823E-03
      0.200000          0.565847E-03
      0.205000          0.524355E-03
      0.210000          0.485398E-03
      0.215000          0.449074E-03
      0.220000          0.415489E-03
      0.225000          0.384727E-03
      0.230000          0.356827E-03
      0.235000          0.331767E-03
      0.240000          0.309461E-03
      0.245000          0.289764E-03
      0.250000          0.272479E-03
      0.255000          0.257374E-03
      0.260000          0.244195E-03
      0.265000          0.232683E-03
      0.270000          0.222585E-03
      0.275000          0.213668E-03
      0.280000          0.205724E-03
      0.285000          0.198573E-03
      0.290000          0.192064E-03
      0.295000          0.186076E-03
      0.300000          0.180510E-03
      0.305000          0.175293E-03
      0.310000          0.170366E-03
      0.315000          0.165690E-03
      0.320000          0.161237E-03
      0.325000          0.156992E-03
      0.330000          0.152951E-03
      0.335000          0.149116E-03
      0.340000          0.145496E-03
      0.345000          0.142105E-03
      0.350000          0.138957E-03
      0.355000          0.136068E-03
      0.360000          0.133446E-03
      0.365000          0.131097E-03
      0.370000          0.129018E-03
      0.375000          0.127199E-03
      0.380000          0.125624E-03
      0.385000          0.124268E-03
      0.390000          0.123108E-03
      0.395000          0.122115E-03
      0.400000          0.121265E-03
      0.405000          0.120535E-03
      0.410000          0.119907E-03
      0.415000          0.119370E-03
      0.420000          0.118917E-03
      0.425000          0.118544E-03
      0.430000          0.118249E-03
      0.435000          0.118028E-03
      0.440000          0.117876E-03
      0.445000          0.117781E-03
      0.450000          0.117724E-03
      0.455000          0.117681E-03
      0.460000          0.117620E-03
      0.465000          0.117506E-03
      0.470000          0.117299E-03
      0.475000          0.116963E-03
      0.480000          0.116462E-03
      0.485000          0.115769E-03
      0.490000          0.114863E-03
      0.495000          0.113736E-03
      0.500000          0.112389E-03
