 I_abs(s)[cm^-1]/c[mg/ml]
       0.00000          0.146987E-01
      0.500000E-02      0.146370E-01
      0.100000E-01      0.144537E-01
      0.150000E-01      0.141536E-01
      0.200000E-01      0.137448E-01
      0.250000E-01      0.132377E-01
      0.300000E-01      0.126453E-01
      0.350000E-01      0.119819E-01
      0.400000E-01      0.112634E-01
      0.450000E-01      0.105056E-01
      0.500000E-01      0.972450E-02
      0.550000E-01      0.893540E-02
      0.600000E-01      0.815235E-02
      0.650000E-01      0.738785E-02
      0.700000E-01      0.665259E-02
      0.750000E-01      0.595521E-02
      0.800000E-01      0.530226E-02
      0.850000E-01      0.469824E-02
      0.900000E-01      0.414572E-02
      0.950000E-01      0.364554E-02
      0.100000          0.319707E-02
      0.105000          0.279846E-02
      0.110000          0.244694E-02
      0.115000          0.213915E-02
      0.120000          0.187130E-02
      0.125000          0.163949E-02
      0.130000          0.143983E-02
      0.135000          0.126861E-02
      0.140000          0.112235E-02
      0.145000          0.997909E-03
      0.150000          0.892454E-03
      0.155000          0.803476E-03
      0.160000          0.728758E-03
      0.165000          0.666340E-03
      0.170000          0.614479E-03
      0.175000          0.571615E-03
      0.180000          0.536344E-03
      0.185000          0.507389E-03
      0.190000          0.483597E-03
      0.195000          0.463927E-03
      0.200000          0.447454E-03
      0.205000          0.433372E-03
      0.210000          0.420998E-03
      0.215000          0.409774E-03
      0.220000          0.399267E-03
      0.225000          0.389158E-03
      0.230000          0.379238E-03
      0.235000          0.369383E-03
      0.240000          0.359546E-03
      0.245000          0.349725E-03
      0.250000          0.339953E-03
      0.255000          0.330273E-03
      0.260000          0.320723E-03
      0.265000          0.311331E-03
      0.270000          0.302101E-03
      0.275000          0.293019E-03
      0.280000          0.284052E-03
      0.285000          0.275156E-03
      0.290000          0.266282E-03
      0.295000          0.257391E-03
      0.300000          0.248456E-03
      0.305000          0.239470E-03
      0.310000          0.230454E-03
      0.315000          0.221452E-03
      0.320000          0.212531E-03
      0.325000          0.203779E-03
      0.330000          0.195292E-03
      0.335000          0.187168E-03
      0.340000          0.179500E-03
      0.345000          0.172365E-03
      0.350000          0.165819E-03
      0.355000          0.159888E-03
      0.360000          0.154575E-03
      0.365000          0.149851E-03
      0.370000          0.145664E-03
      0.375000          0.141943E-03
      0.380000          0.138603E-03
      0.385000          0.135555E-03
      0.390000          0.132712E-03
      0.395000          0.129996E-03
      0.400000          0.127345E-03
      0.405000          0.124713E-03
      0.410000          0.122077E-03
      0.415000          0.119431E-03
      0.420000          0.116791E-03
      0.425000          0.114183E-03
      0.430000          0.111646E-03
      0.435000          0.109223E-03
      0.440000          0.106956E-03
      0.445000          0.104884E-03
      0.450000          0.103035E-03
      0.455000          0.101428E-03
      0.460000          0.100067E-03
      0.465000          0.989453E-04
      0.470000          0.980446E-04
      0.475000          0.973371E-04
      0.480000          0.967891E-04
      0.485000          0.963638E-04
      0.490000          0.960248E-04
      0.495000          0.957386E-04
      0.500000          0.954774E-04
