 I_abs(s)[cm^-1]/c[mg/ml]
       0.00000          0.141458E-01
      0.500000E-02      0.140794E-01
      0.100000E-01      0.138819E-01
      0.150000E-01      0.135592E-01
      0.200000E-01      0.131209E-01
      0.250000E-01      0.125795E-01
      0.300000E-01      0.119504E-01
      0.350000E-01      0.112506E-01
      0.400000E-01      0.104987E-01
      0.450000E-01      0.971345E-02
      0.500000E-01      0.891352E-02
      0.550000E-01      0.811645E-02
      0.600000E-01      0.733822E-02
      0.650000E-01      0.659267E-02
      0.700000E-01      0.589117E-02
      0.750000E-01      0.524235E-02
      0.800000E-01      0.465208E-02
      0.850000E-01      0.412345E-02
      0.900000E-01      0.365703E-02
      0.950000E-01      0.325114E-02
      0.100000          0.290220E-02
      0.105000          0.260520E-02
      0.110000          0.235411E-02
      0.115000          0.214236E-02
      0.120000          0.196327E-02
      0.125000          0.181035E-02
      0.130000          0.167770E-02
      0.135000          0.156015E-02
      0.140000          0.145346E-02
      0.145000          0.135435E-02
      0.150000          0.126051E-02
      0.155000          0.117052E-02
      0.160000          0.108374E-02
      0.165000          0.100015E-02
      0.170000          0.920163E-03
      0.175000          0.844470E-03
      0.180000          0.773870E-03
      0.185000          0.709122E-03
      0.190000          0.650834E-03
      0.195000          0.599380E-03
      0.200000          0.554859E-03
      0.205000          0.517077E-03
      0.210000          0.485572E-03
      0.215000          0.459650E-03
      0.220000          0.438449E-03
      0.225000          0.421006E-03
      0.230000          0.406326E-03
      0.235000          0.393452E-03
      0.240000          0.381523E-03
      0.245000          0.369817E-03
      0.250000          0.357779E-03
      0.255000          0.345038E-03
      0.260000          0.331400E-03
      0.265000          0.316838E-03
      0.270000          0.301461E-03
      0.275000          0.285484E-03
      0.280000          0.269193E-03
      0.285000          0.252907E-03
      0.290000          0.236946E-03
      0.295000          0.221602E-03
      0.300000          0.207121E-03
      0.305000          0.193688E-03
      0.310000          0.181421E-03
      0.315000          0.170372E-03
      0.320000          0.160538E-03
      0.325000          0.151866E-03
      0.330000          0.144270E-03
      0.335000          0.137647E-03
      0.340000          0.131887E-03
      0.345000          0.126884E-03
      0.350000          0.122547E-03
      0.355000          0.118805E-03
      0.360000          0.115604E-03
      0.365000          0.112912E-03
      0.370000          0.110707E-03
      0.375000          0.108978E-03
      0.380000          0.107716E-03
      0.385000          0.106905E-03
      0.390000          0.106519E-03
      0.395000          0.106517E-03
      0.400000          0.106841E-03
      0.405000          0.107416E-03
      0.410000          0.108153E-03
      0.415000          0.108951E-03
      0.420000          0.109705E-03
      0.425000          0.110312E-03
      0.430000          0.110677E-03
      0.435000          0.110720E-03
      0.440000          0.110380E-03
      0.445000          0.109620E-03
      0.450000          0.108432E-03
      0.455000          0.106831E-03
      0.460000          0.104859E-03
      0.465000          0.102577E-03
      0.470000          0.100063E-03
      0.475000          0.974083E-04
      0.480000          0.947041E-04
      0.485000          0.920414E-04
      0.490000          0.895023E-04
      0.495000          0.871555E-04
      0.500000          0.850524E-04
