 I_abs(s)[cm^-1]/c[mg/ml]
       0.00000          0.142242E-01
      0.500000E-02      0.141327E-01
      0.100000E-01      0.138623E-01
      0.150000E-01      0.134248E-01
      0.200000E-01      0.128390E-01
      0.250000E-01      0.121293E-01
      0.300000E-01      0.113240E-01
      0.350000E-01      0.104536E-01
      0.400000E-01      0.954869E-02
      0.450000E-01      0.863832E-02
      0.500000E-01      0.774829E-02
      0.550000E-01      0.690006E-02
      0.600000E-01      0.610996E-02
      0.650000E-01      0.538896E-02
      0.700000E-01      0.474275E-02
      0.750000E-01      0.417232E-02
      0.800000E-01      0.367480E-02
      0.850000E-01      0.324438E-02
      0.900000E-01      0.287348E-02
      0.950000E-01      0.255369E-02
      0.100000          0.227667E-02
      0.105000          0.203488E-02
      0.110000          0.182199E-02
      0.115000          0.163307E-02
      0.120000          0.146463E-02
      0.125000          0.131443E-02
      0.130000          0.118114E-02
      0.135000          0.106403E-02
      0.140000          0.962587E-03
      0.145000          0.876250E-03
      0.150000          0.804167E-03
      0.155000          0.745097E-03
      0.160000          0.697408E-03
      0.165000          0.659152E-03
      0.170000          0.628216E-03
      0.175000          0.602492E-03
      0.180000          0.580056E-03
      0.185000          0.559320E-03
      0.190000          0.539127E-03
      0.195000          0.518794E-03
      0.200000          0.498097E-03
      0.205000          0.477194E-03
      0.210000          0.456515E-03
      0.215000          0.436637E-03
      0.220000          0.418151E-03
      0.225000          0.401546E-03
      0.230000          0.387134E-03
      0.235000          0.374998E-03
      0.240000          0.364991E-03
      0.245000          0.356764E-03
      0.250000          0.349827E-03
      0.255000          0.343618E-03
      0.260000          0.337582E-03
      0.265000          0.331237E-03
      0.270000          0.324230E-03
      0.275000          0.316362E-03
      0.280000          0.307598E-03
      0.285000          0.298048E-03
      0.290000          0.287935E-03
      0.295000          0.277549E-03
      0.300000          0.267202E-03
      0.305000          0.257181E-03
      0.310000          0.247713E-03
      0.315000          0.238945E-03
      0.320000          0.230933E-03
      0.325000          0.223650E-03
      0.330000          0.217002E-03
      0.335000          0.210852E-03
      0.340000          0.205047E-03
      0.345000          0.199444E-03
      0.350000          0.193932E-03
      0.355000          0.188443E-03
      0.360000          0.182964E-03
      0.365000          0.177527E-03
      0.370000          0.172206E-03
      0.375000          0.167097E-03
      0.380000          0.162306E-03
      0.385000          0.157930E-03
      0.390000          0.154041E-03
      0.395000          0.150682E-03
      0.400000          0.147856E-03
      0.405000          0.145526E-03
      0.410000          0.143627E-03
      0.415000          0.142065E-03
      0.420000          0.140733E-03
      0.425000          0.139522E-03
      0.430000          0.138330E-03
      0.435000          0.137070E-03
      0.440000          0.135678E-03
      0.445000          0.134117E-03
      0.450000          0.132372E-03
      0.455000          0.130451E-03
      0.460000          0.128383E-03
      0.465000          0.126205E-03
      0.470000          0.123963E-03
      0.475000          0.121702E-03
      0.480000          0.119462E-03
      0.485000          0.117278E-03
      0.490000          0.115173E-03
      0.495000          0.113160E-03
      0.500000          0.111245E-03
