 I_abs(s)[cm^-1]/c[mg/ml]
       0.00000          0.139510E-01
      0.500000E-02      0.138930E-01
      0.100000E-01      0.137207E-01
      0.150000E-01      0.134383E-01
      0.200000E-01      0.130531E-01
      0.250000E-01      0.125747E-01
      0.300000E-01      0.120149E-01
      0.350000E-01      0.113869E-01
      0.400000E-01      0.107053E-01
      0.450000E-01      0.998516E-02
      0.500000E-01      0.924161E-02
      0.550000E-01      0.848939E-02
      0.600000E-01      0.774232E-02
      0.650000E-01      0.701295E-02
      0.700000E-01      0.631221E-02
      0.750000E-01      0.564918E-02
      0.800000E-01      0.503099E-02
      0.850000E-01      0.446275E-02
      0.900000E-01      0.394756E-02
      0.950000E-01      0.348671E-02
      0.100000          0.307977E-02
      0.105000          0.272488E-02
      0.110000          0.241899E-02
      0.115000          0.215815E-02
      0.120000          0.193779E-02
      0.125000          0.175298E-02
      0.130000          0.159866E-02
      0.135000          0.146991E-02
      0.140000          0.136205E-02
      0.145000          0.127084E-02
      0.150000          0.119251E-02
      0.155000          0.112388E-02
      0.160000          0.106232E-02
      0.165000          0.100575E-02
      0.170000          0.952616E-03
      0.175000          0.901832E-03
      0.180000          0.852697E-03
      0.185000          0.804833E-03
      0.190000          0.758108E-03
      0.195000          0.712567E-03
      0.200000          0.668365E-03
      0.205000          0.625716E-03
      0.210000          0.584848E-03
      0.215000          0.545971E-03
      0.220000          0.509249E-03
      0.225000          0.474792E-03
      0.230000          0.442649E-03
      0.235000          0.412808E-03
      0.240000          0.385204E-03
      0.245000          0.359726E-03
      0.250000          0.336233E-03
      0.255000          0.314565E-03
      0.260000          0.294552E-03
      0.265000          0.276031E-03
      0.270000          0.258850E-03
      0.275000          0.242879E-03
      0.280000          0.228009E-03
      0.285000          0.214161E-03
      0.290000          0.201277E-03
      0.295000          0.189326E-03
      0.300000          0.178292E-03
      0.305000          0.168173E-03
      0.310000          0.158973E-03
      0.315000          0.150697E-03
      0.320000          0.143342E-03
      0.325000          0.136896E-03
      0.330000          0.131329E-03
      0.335000          0.126594E-03
      0.340000          0.122628E-03
      0.345000          0.119347E-03
      0.350000          0.116655E-03
      0.355000          0.114443E-03
      0.360000          0.112599E-03
      0.365000          0.111010E-03
      0.370000          0.109570E-03
      0.375000          0.108183E-03
      0.380000          0.106772E-03
      0.385000          0.105281E-03
      0.390000          0.103677E-03
      0.395000          0.101948E-03
      0.400000          0.100110E-03
      0.405000          0.981965E-04
      0.410000          0.962575E-04
      0.415000          0.943559E-04
      0.420000          0.925600E-04
      0.425000          0.909380E-04
      0.430000          0.895525E-04
      0.435000          0.884547E-04
      0.440000          0.876807E-04
      0.445000          0.872478E-04
      0.450000          0.871536E-04
      0.455000          0.873752E-04
      0.460000          0.878709E-04
      0.465000          0.885828E-04
      0.470000          0.894402E-04
      0.475000          0.903644E-04
      0.480000          0.912737E-04
      0.485000          0.920878E-04
      0.490000          0.927329E-04
      0.495000          0.931458E-04
      0.500000          0.932768E-04
