 I_abs(s)[cm^-1]/c[mg/ml]
       0.00000          0.143894E-01
      0.500000E-02      0.143373E-01
      0.100000E-01      0.141823E-01
      0.150000E-01      0.139281E-01
      0.200000E-01      0.135806E-01
      0.250000E-01      0.131480E-01
      0.300000E-01      0.126399E-01
      0.350000E-01      0.120675E-01
      0.400000E-01      0.114429E-01
      0.450000E-01      0.107787E-01
      0.500000E-01      0.100877E-01
      0.550000E-01      0.938217E-02
      0.600000E-01      0.867382E-02
      0.650000E-01      0.797332E-02
      0.700000E-01      0.729007E-02
      0.750000E-01      0.663206E-02
      0.800000E-01      0.600573E-02
      0.850000E-01      0.541596E-02
      0.900000E-01      0.486612E-02
      0.950000E-01      0.435815E-02
      0.100000          0.389273E-02
      0.105000          0.346944E-02
      0.110000          0.308696E-02
      0.115000          0.274331E-02
      0.120000          0.243598E-02
      0.125000          0.216220E-02
      0.130000          0.191903E-02
      0.135000          0.170355E-02
      0.140000          0.151294E-02
      0.145000          0.134455E-02
      0.150000          0.119595E-02
      0.155000          0.106497E-02
      0.160000          0.949665E-03
      0.165000          0.848334E-03
      0.170000          0.759468E-03
      0.175000          0.681738E-03
      0.180000          0.613953E-03
      0.185000          0.555038E-03
      0.190000          0.504009E-03
      0.195000          0.459954E-03
      0.200000          0.422025E-03
      0.205000          0.389428E-03
      0.210000          0.361430E-03
      0.215000          0.337353E-03
      0.220000          0.316584E-03
      0.225000          0.298577E-03
      0.230000          0.282856E-03
      0.235000          0.269014E-03
      0.240000          0.256713E-03
      0.245000          0.245681E-03
      0.250000          0.235699E-03
      0.255000          0.226598E-03
      0.260000          0.218249E-03
      0.265000          0.210551E-03
      0.270000          0.203423E-03
      0.275000          0.196799E-03
      0.280000          0.190620E-03
      0.285000          0.184832E-03
      0.290000          0.179386E-03
      0.295000          0.174234E-03
      0.300000          0.169335E-03
      0.305000          0.164652E-03
      0.310000          0.160162E-03
      0.315000          0.155849E-03
      0.320000          0.151712E-03
      0.325000          0.147758E-03
      0.330000          0.144007E-03
      0.335000          0.140485E-03
      0.340000          0.137223E-03
      0.345000          0.134248E-03
      0.350000          0.131586E-03
      0.355000          0.129252E-03
      0.360000          0.127249E-03
      0.365000          0.125568E-03
      0.370000          0.124181E-03
      0.375000          0.123050E-03
      0.380000          0.122122E-03
      0.385000          0.121337E-03
      0.390000          0.120628E-03
      0.395000          0.119931E-03
      0.400000          0.119184E-03
      0.405000          0.118335E-03
      0.410000          0.117343E-03
      0.415000          0.116184E-03
      0.420000          0.114850E-03
      0.425000          0.113347E-03
      0.430000          0.111697E-03
      0.435000          0.109935E-03
      0.440000          0.108105E-03
      0.445000          0.106255E-03
      0.450000          0.104435E-03
      0.455000          0.102691E-03
      0.460000          0.101065E-03
      0.465000          0.995859E-04
      0.470000          0.982754E-04
      0.475000          0.971415E-04
      0.480000          0.961808E-04
      0.485000          0.953793E-04
      0.490000          0.947143E-04
      0.495000          0.941567E-04
      0.500000          0.936738E-04
