 I_abs(s)[cm^-1]/c[mg/ml]
       0.00000          0.145873E-01
      0.500000E-02      0.145118E-01
      0.100000E-01      0.142882E-01
      0.150000E-01      0.139245E-01
      0.200000E-01      0.134332E-01
      0.250000E-01      0.128312E-01
      0.300000E-01      0.121380E-01
      0.350000E-01      0.113751E-01
      0.400000E-01      0.105646E-01
      0.450000E-01      0.972823E-02
      0.500000E-01      0.888623E-02
      0.550000E-01      0.805668E-02
      0.600000E-01      0.725497E-02
      0.650000E-01      0.649345E-02
      0.700000E-01      0.578138E-02
      0.750000E-01      0.512507E-02
      0.800000E-01      0.452814E-02
      0.850000E-01      0.399191E-02
      0.900000E-01      0.351577E-02
      0.950000E-01      0.309767E-02
      0.100000          0.273446E-02
      0.105000          0.242222E-02
      0.110000          0.215658E-02
      0.115000          0.193284E-02
      0.120000          0.174620E-02
      0.125000          0.159185E-02
      0.130000          0.146504E-02
      0.135000          0.136119E-02
      0.140000          0.127593E-02
      0.145000          0.120520E-02
      0.150000          0.114533E-02
      0.155000          0.109306E-02
      0.160000          0.104565E-02
      0.165000          0.100087E-02
      0.170000          0.957060E-03
      0.175000          0.913059E-03
      0.180000          0.868207E-03
      0.185000          0.822266E-03
      0.190000          0.775344E-03
      0.195000          0.727809E-03
      0.200000          0.680198E-03
      0.205000          0.633138E-03
      0.210000          0.587273E-03
      0.215000          0.543206E-03
      0.220000          0.501459E-03
      0.225000          0.462446E-03
      0.230000          0.426463E-03
      0.235000          0.393685E-03
      0.240000          0.364174E-03
      0.245000          0.337888E-03
      0.250000          0.314700E-03
      0.255000          0.294414E-03
      0.260000          0.276778E-03
      0.265000          0.261506E-03
      0.270000          0.248288E-03
      0.275000          0.236811E-03
      0.280000          0.226767E-03
      0.285000          0.217868E-03
      0.290000          0.209853E-03
      0.295000          0.202501E-03
      0.300000          0.195629E-03
      0.305000          0.189098E-03
      0.310000          0.182811E-03
      0.315000          0.176709E-03
      0.320000          0.170768E-03
      0.325000          0.164991E-03
      0.330000          0.159401E-03
      0.335000          0.154033E-03
      0.340000          0.148931E-03
      0.345000          0.144136E-03
      0.350000          0.139688E-03
      0.355000          0.135615E-03
      0.360000          0.131934E-03
      0.365000          0.128647E-03
      0.370000          0.125741E-03
      0.375000          0.123187E-03
      0.380000          0.120941E-03
      0.385000          0.118945E-03
      0.390000          0.117133E-03
      0.395000          0.115434E-03
      0.400000          0.113774E-03
      0.405000          0.112085E-03
      0.410000          0.110311E-03
      0.415000          0.108406E-03
      0.420000          0.106344E-03
      0.425000          0.104120E-03
      0.430000          0.101746E-03
      0.435000          0.992559E-04
      0.440000          0.966965E-04
      0.445000          0.941277E-04
      0.450000          0.916158E-04
      0.455000          0.892285E-04
      0.460000          0.870298E-04
      0.465000          0.850757E-04
      0.470000          0.834105E-04
      0.475000          0.820642E-04
      0.480000          0.810513E-04
      0.485000          0.803707E-04
      0.490000          0.800062E-04
      0.495000          0.799282E-04
      0.500000          0.800960E-04
