 I_abs(s)[cm^-1]/c[mg/ml]
       0.00000          0.146111E-01
      0.500000E-02      0.145664E-01
      0.100000E-01      0.144332E-01
      0.150000E-01      0.142139E-01
      0.200000E-01      0.139125E-01
      0.250000E-01      0.135345E-01
      0.300000E-01      0.130867E-01
      0.350000E-01      0.125768E-01
      0.400000E-01      0.120135E-01
      0.450000E-01      0.114062E-01
      0.500000E-01      0.107645E-01
      0.550000E-01      0.100982E-01
      0.600000E-01      0.941692E-02
      0.650000E-01      0.872995E-02
      0.700000E-01      0.804604E-02
      0.750000E-01      0.737321E-02
      0.800000E-01      0.671860E-02
      0.850000E-01      0.608837E-02
      0.900000E-01      0.548768E-02
      0.950000E-01      0.492061E-02
      0.100000          0.439017E-02
      0.105000          0.389838E-02
      0.110000          0.344630E-02
      0.115000          0.303413E-02
      0.120000          0.266132E-02
      0.125000          0.232666E-02
      0.130000          0.202843E-02
      0.135000          0.176451E-02
      0.140000          0.153249E-02
      0.145000          0.132979E-02
      0.150000          0.115372E-02
      0.155000          0.100162E-02
      0.160000          0.870894E-03
      0.165000          0.759049E-03
      0.170000          0.663770E-03
      0.175000          0.582922E-03
      0.180000          0.514572E-03
      0.185000          0.456991E-03
      0.190000          0.408646E-03
      0.195000          0.368198E-03
      0.200000          0.334477E-03
      0.205000          0.306473E-03
      0.210000          0.283316E-03
      0.215000          0.264254E-03
      0.220000          0.248645E-03
      0.225000          0.235934E-03
      0.230000          0.225644E-03
      0.235000          0.217368E-03
      0.240000          0.210755E-03
      0.245000          0.205505E-03
      0.250000          0.201365E-03
      0.255000          0.198121E-03
      0.260000          0.195597E-03
      0.265000          0.193646E-03
      0.270000          0.192151E-03
      0.275000          0.191017E-03
      0.280000          0.190171E-03
      0.285000          0.189553E-03
      0.290000          0.189113E-03
      0.295000          0.188812E-03
      0.300000          0.188611E-03
      0.305000          0.188473E-03
      0.310000          0.188361E-03
      0.315000          0.188232E-03
      0.320000          0.188043E-03
      0.325000          0.187746E-03
      0.330000          0.187291E-03
      0.335000          0.186627E-03
      0.340000          0.185705E-03
      0.345000          0.184481E-03
      0.350000          0.182916E-03
      0.355000          0.180978E-03
      0.360000          0.178648E-03
      0.365000          0.175917E-03
      0.370000          0.172788E-03
      0.375000          0.169279E-03
      0.380000          0.165417E-03
      0.385000          0.161242E-03
      0.390000          0.156802E-03
      0.395000          0.152153E-03
      0.400000          0.147356E-03
      0.405000          0.142473E-03
      0.410000          0.137566E-03
      0.415000          0.132697E-03
      0.420000          0.127919E-03
      0.425000          0.123282E-03
      0.430000          0.118828E-03
      0.435000          0.114589E-03
      0.440000          0.110591E-03
      0.445000          0.106848E-03
      0.450000          0.103370E-03
      0.455000          0.100159E-03
      0.460000          0.972098E-04
      0.465000          0.945150E-04
      0.470000          0.920632E-04
      0.475000          0.898416E-04
      0.480000          0.878373E-04
      0.485000          0.860374E-04
      0.490000          0.844308E-04
      0.495000          0.830077E-04
      0.500000          0.817605E-04
