 I_abs(s)[cm^-1]/c[mg/ml]
       0.00000          0.146588E-01
      0.500000E-02      0.146037E-01
      0.100000E-01      0.144397E-01
      0.150000E-01      0.141707E-01
      0.200000E-01      0.138029E-01
      0.250000E-01      0.133448E-01
      0.300000E-01      0.128068E-01
      0.350000E-01      0.122006E-01
      0.400000E-01      0.115392E-01
      0.450000E-01      0.108361E-01
      0.500000E-01      0.101048E-01
      0.550000E-01      0.935882E-02
      0.600000E-01      0.861079E-02
      0.650000E-01      0.787243E-02
      0.700000E-01      0.715412E-02
      0.750000E-01      0.646475E-02
      0.800000E-01      0.581154E-02
      0.850000E-01      0.520004E-02
      0.900000E-01      0.463407E-02
      0.950000E-01      0.411587E-02
      0.100000          0.364619E-02
      0.105000          0.322449E-02
      0.110000          0.284912E-02
      0.115000          0.251758E-02
      0.120000          0.222673E-02
      0.125000          0.197300E-02
      0.130000          0.175261E-02
      0.135000          0.156176E-02
      0.140000          0.139672E-02
      0.145000          0.125403E-02
      0.150000          0.113050E-02
      0.155000          0.102331E-02
      0.160000          0.930007E-03
      0.165000          0.848517E-03
      0.170000          0.777102E-03
      0.175000          0.714337E-03
      0.180000          0.659059E-03
      0.185000          0.610318E-03
      0.190000          0.567330E-03
      0.195000          0.529432E-03
      0.200000          0.496049E-03
      0.205000          0.466659E-03
      0.210000          0.440777E-03
      0.215000          0.417941E-03
      0.220000          0.397708E-03
      0.225000          0.379652E-03
      0.230000          0.363374E-03
      0.235000          0.348500E-03
      0.240000          0.334698E-03
      0.245000          0.321680E-03
      0.250000          0.309208E-03
      0.255000          0.297098E-03
      0.260000          0.285220E-03
      0.265000          0.273495E-03
      0.270000          0.261893E-03
      0.275000          0.250419E-03
      0.280000          0.239116E-03
      0.285000          0.228044E-03
      0.290000          0.217280E-03
      0.295000          0.206905E-03
      0.300000          0.196999E-03
      0.305000          0.187634E-03
      0.310000          0.178868E-03
      0.315000          0.170746E-03
      0.320000          0.163295E-03
      0.325000          0.156525E-03
      0.330000          0.150431E-03
      0.335000          0.144992E-03
      0.340000          0.140178E-03
      0.345000          0.135947E-03
      0.350000          0.132251E-03
      0.355000          0.129037E-03
      0.360000          0.126248E-03
      0.365000          0.123828E-03
      0.370000          0.121718E-03
      0.375000          0.119861E-03
      0.380000          0.118203E-03
      0.385000          0.116690E-03
      0.390000          0.115272E-03
      0.395000          0.113905E-03
      0.400000          0.112546E-03
      0.405000          0.111159E-03
      0.410000          0.109712E-03
      0.415000          0.108183E-03
      0.420000          0.106554E-03
      0.425000          0.104815E-03
      0.430000          0.102966E-03
      0.435000          0.101011E-03
      0.440000          0.989651E-04
      0.445000          0.968473E-04
      0.450000          0.946834E-04
      0.455000          0.925034E-04
      0.460000          0.903400E-04
      0.465000          0.882273E-04
      0.470000          0.861987E-04
      0.475000          0.842858E-04
      0.480000          0.825170E-04
      0.485000          0.809157E-04
      0.490000          0.795003E-04
      0.495000          0.782828E-04
      0.500000          0.772694E-04
