 I_abs(s)[cm^-1]/c[mg/ml]
       0.00000          0.144525E-01
      0.500000E-02      0.143812E-01
      0.100000E-01      0.141696E-01
      0.150000E-01      0.138240E-01
      0.200000E-01      0.133552E-01
      0.250000E-01      0.127770E-01
      0.300000E-01      0.121062E-01
      0.350000E-01      0.113617E-01
      0.400000E-01      0.105633E-01
      0.450000E-01      0.973126E-02
      0.500000E-01      0.888520E-02
      0.550000E-01      0.804348E-02
      0.600000E-01      0.722255E-02
      0.650000E-01      0.643648E-02
      0.700000E-01      0.569664E-02
      0.750000E-01      0.501159E-02
      0.800000E-01      0.438707E-02
      0.850000E-01      0.382612E-02
      0.900000E-01      0.332941E-02
      0.950000E-01      0.289551E-02
      0.100000          0.252131E-02
      0.105000          0.220241E-02
      0.110000          0.193355E-02
      0.115000          0.170896E-02
      0.120000          0.152271E-02
      0.125000          0.136894E-02
      0.130000          0.124213E-02
      0.135000          0.113721E-02
      0.140000          0.104970E-02
      0.145000          0.975710E-03
      0.150000          0.912017E-03
      0.155000          0.855994E-03
      0.160000          0.805592E-03
      0.165000          0.759280E-03
      0.170000          0.715976E-03
      0.175000          0.674978E-03
      0.180000          0.635893E-03
      0.185000          0.598563E-03
      0.190000          0.563001E-03
      0.195000          0.529329E-03
      0.200000          0.497722E-03
      0.205000          0.468366E-03
      0.210000          0.441412E-03
      0.215000          0.416956E-03
      0.220000          0.395020E-03
      0.225000          0.375539E-03
      0.230000          0.358371E-03
      0.235000          0.343303E-03
      0.240000          0.330067E-03
      0.245000          0.318366E-03
      0.250000          0.307891E-03
      0.255000          0.298349E-03
      0.260000          0.289478E-03
      0.265000          0.281066E-03
      0.270000          0.272957E-03
      0.275000          0.265057E-03
      0.280000          0.257327E-03
      0.285000          0.249780E-03
      0.290000          0.242463E-03
      0.295000          0.235448E-03
      0.300000          0.228813E-03
      0.305000          0.222633E-03
      0.310000          0.216961E-03
      0.315000          0.211828E-03
      0.320000          0.207232E-03
      0.325000          0.203144E-03
      0.330000          0.199504E-03
      0.335000          0.196231E-03
      0.340000          0.193229E-03
      0.345000          0.190394E-03
      0.350000          0.187625E-03
      0.355000          0.184829E-03
      0.360000          0.181926E-03
      0.365000          0.178855E-03
      0.370000          0.175574E-03
      0.375000          0.172063E-03
      0.380000          0.168320E-03
      0.385000          0.164360E-03
      0.390000          0.160211E-03
      0.395000          0.155911E-03
      0.400000          0.151507E-03
      0.405000          0.147045E-03
      0.410000          0.142575E-03
      0.415000          0.138142E-03
      0.420000          0.133789E-03
      0.425000          0.129552E-03
      0.430000          0.125461E-03
      0.435000          0.121539E-03
      0.440000          0.117802E-03
      0.445000          0.114260E-03
      0.450000          0.110914E-03
      0.455000          0.107764E-03
      0.460000          0.104803E-03
      0.465000          0.102020E-03
      0.470000          0.994030E-04
      0.475000          0.969403E-04
      0.480000          0.946191E-04
      0.485000          0.924283E-04
      0.490000          0.903591E-04
      0.495000          0.884055E-04
      0.500000          0.865645E-04
