 I_abs(s)[cm^-1]/c[mg/ml]
       0.00000          0.143106E-01
      0.500000E-02      0.142430E-01
      0.100000E-01      0.140420E-01
      0.150000E-01      0.137134E-01
      0.200000E-01      0.132661E-01
      0.250000E-01      0.127125E-01
      0.300000E-01      0.120672E-01
      0.350000E-01      0.113471E-01
      0.400000E-01      0.105701E-01
      0.450000E-01      0.975494E-02
      0.500000E-01      0.892004E-02
      0.550000E-01      0.808314E-02
      0.600000E-01      0.726060E-02
      0.650000E-01      0.646689E-02
      0.700000E-01      0.571428E-02
      0.750000E-01      0.501252E-02
      0.800000E-01      0.436877E-02
      0.850000E-01      0.378757E-02
      0.900000E-01      0.327099E-02
      0.950000E-01      0.281885E-02
      0.100000          0.242899E-02
      0.105000          0.209766E-02
      0.110000          0.181990E-02
      0.115000          0.158991E-02
      0.120000          0.140148E-02
      0.125000          0.124829E-02
      0.130000          0.112421E-02
      0.135000          0.102359E-02
      0.140000          0.941352E-03
      0.145000          0.873184E-03
      0.150000          0.815539E-03
      0.155000          0.765641E-03
      0.160000          0.721441E-03
      0.165000          0.681524E-03
      0.170000          0.645009E-03
      0.175000          0.611423E-03
      0.180000          0.580587E-03
      0.185000          0.552498E-03
      0.190000          0.527235E-03
      0.195000          0.504881E-03
      0.200000          0.485462E-03
      0.205000          0.468912E-03
      0.210000          0.455060E-03
      0.215000          0.443628E-03
      0.220000          0.434249E-03
      0.225000          0.426491E-03
      0.230000          0.419887E-03
      0.235000          0.413967E-03
      0.240000          0.408289E-03
      0.245000          0.402461E-03
      0.250000          0.396161E-03
      0.255000          0.389149E-03
      0.260000          0.381272E-03
      0.265000          0.372460E-03
      0.270000          0.362719E-03
      0.275000          0.352119E-03
      0.280000          0.340779E-03
      0.285000          0.328855E-03
      0.290000          0.316517E-03
      0.295000          0.303944E-03
      0.300000          0.291306E-03
      0.305000          0.278759E-03
      0.310000          0.266438E-03
      0.315000          0.254452E-03
      0.320000          0.242886E-03
      0.325000          0.231800E-03
      0.330000          0.221233E-03
      0.335000          0.211206E-03
      0.340000          0.201725E-03
      0.345000          0.192788E-03
      0.350000          0.184384E-03
      0.355000          0.176499E-03
      0.360000          0.169117E-03
      0.365000          0.162221E-03
      0.370000          0.155798E-03
      0.375000          0.149832E-03
      0.380000          0.144311E-03
      0.385000          0.139222E-03
      0.390000          0.134553E-03
      0.395000          0.130293E-03
      0.400000          0.126427E-03
      0.405000          0.122941E-03
      0.410000          0.119821E-03
      0.415000          0.117048E-03
      0.420000          0.114603E-03
      0.425000          0.112466E-03
      0.430000          0.110613E-03
      0.435000          0.109020E-03
      0.440000          0.107661E-03
      0.445000          0.106508E-03
      0.450000          0.105533E-03
      0.455000          0.104706E-03
      0.460000          0.103999E-03
      0.465000          0.103384E-03
      0.470000          0.102834E-03
      0.475000          0.102322E-03
      0.480000          0.101827E-03
      0.485000          0.101328E-03
      0.490000          0.100810E-03
      0.495000          0.100259E-03
      0.500000          0.996669E-04
