 I_abs(s)[cm^-1]/c[mg/ml]
       0.00000          0.144604E-01
      0.500000E-02      0.143995E-01
      0.100000E-01      0.142183E-01
      0.150000E-01      0.139218E-01
      0.200000E-01      0.135181E-01
      0.250000E-01      0.130180E-01
      0.300000E-01      0.124346E-01
      0.350000E-01      0.117824E-01
      0.400000E-01      0.110773E-01
      0.450000E-01      0.103353E-01
      0.500000E-01      0.957259E-02
      0.550000E-01      0.880422E-02
      0.600000E-01      0.804416E-02
      0.650000E-01      0.730470E-02
      0.700000E-01      0.659616E-02
      0.750000E-01      0.592678E-02
      0.800000E-01      0.530262E-02
      0.850000E-01      0.472764E-02
      0.900000E-01      0.420383E-02
      0.950000E-01      0.373147E-02
      0.100000          0.330933E-02
      0.105000          0.293505E-02
      0.110000          0.260542E-02
      0.115000          0.231667E-02
      0.120000          0.206473E-02
      0.125000          0.184549E-02
      0.130000          0.165497E-02
      0.135000          0.148946E-02
      0.140000          0.134558E-02
      0.145000          0.122033E-02
      0.150000          0.111113E-02
      0.155000          0.101574E-02
      0.160000          0.932266E-03
      0.165000          0.859075E-03
      0.170000          0.794768E-03
      0.175000          0.738122E-03
      0.180000          0.688051E-03
      0.185000          0.643586E-03
      0.190000          0.603849E-03
      0.195000          0.568055E-03
      0.200000          0.535509E-03
      0.205000          0.505613E-03
      0.210000          0.477873E-03
      0.215000          0.451899E-03
      0.220000          0.427412E-03
      0.225000          0.404233E-03
      0.230000          0.382276E-03
      0.235000          0.361529E-03
      0.240000          0.342034E-03
      0.245000          0.323863E-03
      0.250000          0.307098E-03
      0.255000          0.291807E-03
      0.260000          0.278025E-03
      0.265000          0.265747E-03
      0.270000          0.254915E-03
      0.275000          0.245423E-03
      0.280000          0.237122E-03
      0.285000          0.229825E-03
      0.290000          0.223329E-03
      0.295000          0.217423E-03
      0.300000          0.211906E-03
      0.305000          0.206600E-03
      0.310000          0.201362E-03
      0.315000          0.196088E-03
      0.320000          0.190717E-03
      0.325000          0.185232E-03
      0.330000          0.179653E-03
      0.335000          0.174026E-03
      0.340000          0.168421E-03
      0.345000          0.162914E-03
      0.350000          0.157583E-03
      0.355000          0.152495E-03
      0.360000          0.147702E-03
      0.365000          0.143236E-03
      0.370000          0.139107E-03
      0.375000          0.135303E-03
      0.380000          0.131797E-03
      0.385000          0.128547E-03
      0.390000          0.125503E-03
      0.395000          0.122615E-03
      0.400000          0.119836E-03
      0.405000          0.117124E-03
      0.410000          0.114452E-03
      0.415000          0.111801E-03
      0.420000          0.109168E-03
      0.425000          0.106556E-03
      0.430000          0.103982E-03
      0.435000          0.101462E-03
      0.440000          0.990184E-04
      0.445000          0.966694E-04
      0.450000          0.944296E-04
      0.455000          0.923074E-04
      0.460000          0.903043E-04
      0.465000          0.884150E-04
      0.470000          0.866286E-04
      0.475000          0.849306E-04
      0.480000          0.833050E-04
      0.485000          0.817378E-04
      0.490000          0.802187E-04
      0.495000          0.787435E-04
      0.500000          0.773157E-04
