 I_abs(s)[cm^-1]/c[mg/ml]
       0.00000          0.148105E-01
      0.500000E-02      0.147634E-01
      0.100000E-01      0.146231E-01
      0.150000E-01      0.143923E-01
      0.200000E-01      0.140753E-01
      0.250000E-01      0.136782E-01
      0.300000E-01      0.132083E-01
      0.350000E-01      0.126741E-01
      0.400000E-01      0.120851E-01
      0.450000E-01      0.114513E-01
      0.500000E-01      0.107831E-01
      0.550000E-01      0.100912E-01
      0.600000E-01      0.938570E-02
      0.650000E-01      0.867659E-02
      0.700000E-01      0.797308E-02
      0.750000E-01      0.728354E-02
      0.800000E-01      0.661537E-02
      0.850000E-01      0.597489E-02
      0.900000E-01      0.536724E-02
      0.950000E-01      0.479644E-02
      0.100000          0.426532E-02
      0.105000          0.377566E-02
      0.110000          0.332821E-02
      0.115000          0.292282E-02
      0.120000          0.255857E-02
      0.125000          0.223389E-02
      0.130000          0.194670E-02
      0.135000          0.169452E-02
      0.140000          0.147465E-02
      0.145000          0.128421E-02
      0.150000          0.112029E-02
      0.155000          0.980042E-03
      0.160000          0.860686E-03
      0.165000          0.759620E-03
      0.170000          0.674427E-03
      0.175000          0.602900E-03
      0.180000          0.543050E-03
      0.185000          0.493102E-03
      0.190000          0.451491E-03
      0.195000          0.416844E-03
      0.200000          0.387966E-03
      0.205000          0.363817E-03
      0.210000          0.343501E-03
      0.215000          0.326245E-03
      0.220000          0.311385E-03
      0.225000          0.298357E-03
      0.230000          0.286683E-03
      0.235000          0.275966E-03
      0.240000          0.265884E-03
      0.245000          0.256184E-03
      0.250000          0.246676E-03
      0.255000          0.237231E-03
      0.260000          0.227775E-03
      0.265000          0.218283E-03
      0.270000          0.208773E-03
      0.275000          0.199298E-03
      0.280000          0.189939E-03
      0.285000          0.180796E-03
      0.290000          0.171980E-03
      0.295000          0.163603E-03
      0.300000          0.155771E-03
      0.305000          0.148579E-03
      0.310000          0.142100E-03
      0.315000          0.136388E-03
      0.320000          0.131468E-03
      0.325000          0.127340E-03
      0.330000          0.123978E-03
      0.335000          0.121331E-03
      0.340000          0.119328E-03
      0.345000          0.117878E-03
      0.350000          0.116883E-03
      0.355000          0.116235E-03
      0.360000          0.115824E-03
      0.365000          0.115545E-03
      0.370000          0.115298E-03
      0.375000          0.114998E-03
      0.380000          0.114572E-03
      0.385000          0.113963E-03
      0.390000          0.113132E-03
      0.395000          0.112056E-03
      0.400000          0.110730E-03
      0.405000          0.109162E-03
      0.410000          0.107375E-03
      0.415000          0.105401E-03
      0.420000          0.103278E-03
      0.425000          0.101051E-03
      0.430000          0.987648E-04
      0.435000          0.964658E-04
      0.440000          0.941957E-04
      0.445000          0.919923E-04
      0.450000          0.898868E-04
      0.455000          0.879039E-04
      0.460000          0.860605E-04
      0.465000          0.843662E-04
      0.470000          0.828236E-04
      0.475000          0.814288E-04
      0.480000          0.801728E-04
      0.485000          0.790420E-04
      0.490000          0.780200E-04
      0.495000          0.770887E-04
      0.500000          0.762295E-04
