 I_abs(s)[cm^-1]/c[mg/ml]
       0.00000          0.147386E-01
      0.500000E-02      0.146870E-01
      0.100000E-01      0.145335E-01
      0.150000E-01      0.142817E-01
      0.200000E-01      0.139371E-01
      0.250000E-01      0.135074E-01
      0.300000E-01      0.130021E-01
      0.350000E-01      0.124318E-01
      0.400000E-01      0.118081E-01
      0.450000E-01      0.111433E-01
      0.500000E-01      0.104496E-01
      0.550000E-01      0.973902E-02
      0.600000E-01      0.902318E-02
      0.650000E-01      0.831258E-02
      0.700000E-01      0.761666E-02
      0.750000E-01      0.694351E-02
      0.800000E-01      0.629982E-02
      0.850000E-01      0.569079E-02
      0.900000E-01      0.512017E-02
      0.950000E-01      0.459034E-02
      0.100000          0.410245E-02
      0.105000          0.365655E-02
      0.110000          0.325178E-02
      0.115000          0.288656E-02
      0.120000          0.255876E-02
      0.125000          0.226592E-02
      0.130000          0.200536E-02
      0.135000          0.177434E-02
      0.140000          0.157015E-02
      0.145000          0.139022E-02
      0.150000          0.123213E-02
      0.155000          0.109368E-02
      0.160000          0.972872E-03
      0.165000          0.867904E-03
      0.170000          0.777160E-03
      0.175000          0.699179E-03
      0.180000          0.632631E-03
      0.185000          0.576285E-03
      0.190000          0.528991E-03
      0.195000          0.489661E-03
      0.200000          0.457260E-03
      0.205000          0.430796E-03
      0.210000          0.409330E-03
      0.215000          0.391973E-03
      0.220000          0.377899E-03
      0.225000          0.366352E-03
      0.230000          0.356654E-03
      0.235000          0.348214E-03
      0.240000          0.340534E-03
      0.245000          0.333207E-03
      0.250000          0.325916E-03
      0.255000          0.318431E-03
      0.260000          0.310601E-03
      0.265000          0.302340E-03
      0.270000          0.293621E-03
      0.275000          0.284461E-03
      0.280000          0.274908E-03
      0.285000          0.265034E-03
      0.290000          0.254924E-03
      0.295000          0.244666E-03
      0.300000          0.234348E-03
      0.305000          0.224053E-03
      0.310000          0.213855E-03
      0.315000          0.203820E-03
      0.320000          0.194003E-03
      0.325000          0.184453E-03
      0.330000          0.175211E-03
      0.335000          0.166310E-03
      0.340000          0.157780E-03
      0.345000          0.149645E-03
      0.350000          0.141924E-03
      0.355000          0.134635E-03
      0.360000          0.127788E-03
      0.365000          0.121391E-03
      0.370000          0.115448E-03
      0.375000          0.109955E-03
      0.380000          0.104906E-03
      0.385000          0.100290E-03
      0.390000          0.960902E-04
      0.395000          0.922882E-04
      0.400000          0.888622E-04
      0.405000          0.857890E-04
      0.410000          0.830451E-04
      0.415000          0.806076E-04
      0.420000          0.784547E-04
      0.425000          0.765669E-04
      0.430000          0.749266E-04
      0.435000          0.735187E-04
      0.440000          0.723301E-04
      0.445000          0.713490E-04
      0.450000          0.705647E-04
      0.455000          0.699667E-04
      0.460000          0.695438E-04
      0.465000          0.692837E-04
      0.470000          0.691725E-04
      0.475000          0.691943E-04
      0.480000          0.693315E-04
      0.485000          0.695646E-04
      0.490000          0.698731E-04
      0.495000          0.702356E-04
      0.500000          0.706312E-04
