 I_abs(s)[cm^-1]/c[mg/ml]
       0.00000          0.144130E-01
      0.500000E-02      0.143626E-01
      0.100000E-01      0.142123E-01
      0.150000E-01      0.139655E-01
      0.200000E-01      0.136272E-01
      0.250000E-01      0.132046E-01
      0.300000E-01      0.127062E-01
      0.350000E-01      0.121422E-01
      0.400000E-01      0.115235E-01
      0.450000E-01      0.108617E-01
      0.500000E-01      0.101689E-01
      0.550000E-01      0.945706E-02
      0.600000E-01      0.873774E-02
      0.650000E-01      0.802190E-02
      0.700000E-01      0.731958E-02
      0.750000E-01      0.663967E-02
      0.800000E-01      0.598978E-02
      0.850000E-01      0.537609E-02
      0.900000E-01      0.480334E-02
      0.950000E-01      0.427484E-02
      0.100000          0.379248E-02
      0.105000          0.335685E-02
      0.110000          0.296739E-02
      0.115000          0.262252E-02
      0.120000          0.231986E-02
      0.125000          0.205637E-02
      0.130000          0.182857E-02
      0.135000          0.163270E-02
      0.140000          0.146491E-02
      0.145000          0.132139E-02
      0.150000          0.119848E-02
      0.155000          0.109281E-02
      0.160000          0.100132E-02
      0.165000          0.921356E-03
      0.170000          0.850634E-03
      0.175000          0.787289E-03
      0.180000          0.729831E-03
      0.185000          0.677119E-03
      0.190000          0.628320E-03
      0.195000          0.582854E-03
      0.200000          0.540352E-03
      0.205000          0.500597E-03
      0.210000          0.463483E-03
      0.215000          0.428970E-03
      0.220000          0.397048E-03
      0.225000          0.367716E-03
      0.230000          0.340954E-03
      0.235000          0.316714E-03
      0.240000          0.294914E-03
      0.245000          0.275434E-03
      0.250000          0.258123E-03
      0.255000          0.242805E-03
      0.260000          0.229282E-03
      0.265000          0.217349E-03
      0.270000          0.206801E-03
      0.275000          0.197439E-03
      0.280000          0.189078E-03
      0.285000          0.181553E-03
      0.290000          0.174720E-03
      0.295000          0.168458E-03
      0.300000          0.162671E-03
      0.305000          0.157284E-03
      0.310000          0.152240E-03
      0.315000          0.147502E-03
      0.320000          0.143043E-03
      0.325000          0.138851E-03
      0.330000          0.134917E-03
      0.335000          0.131239E-03
      0.340000          0.127817E-03
      0.345000          0.124651E-03
      0.350000          0.121741E-03
      0.355000          0.119086E-03
      0.360000          0.116683E-03
      0.365000          0.114524E-03
      0.370000          0.112601E-03
      0.375000          0.110905E-03
      0.380000          0.109420E-03
      0.385000          0.108133E-03
      0.390000          0.107024E-03
      0.395000          0.106074E-03
      0.400000          0.105260E-03
      0.405000          0.104560E-03
      0.410000          0.103948E-03
      0.415000          0.103398E-03
      0.420000          0.102883E-03
      0.425000          0.102376E-03
      0.430000          0.101850E-03
      0.435000          0.101281E-03
      0.440000          0.100646E-03
      0.445000          0.999263E-04
      0.450000          0.991060E-04
      0.455000          0.981745E-04
      0.460000          0.971261E-04
      0.465000          0.959606E-04
      0.470000          0.946831E-04
      0.475000          0.933042E-04
      0.480000          0.918392E-04
      0.485000          0.903078E-04
      0.490000          0.887327E-04
      0.495000          0.871390E-04
      0.500000          0.855530E-04
