 I_abs(s)[cm^-1]/c[mg/ml]
       0.00000          0.145634E-01
      0.500000E-02      0.145017E-01
      0.100000E-01      0.143180E-01
      0.150000E-01      0.140170E-01
      0.200000E-01      0.136062E-01
      0.250000E-01      0.130957E-01
      0.300000E-01      0.124977E-01
      0.350000E-01      0.118264E-01
      0.400000E-01      0.110971E-01
      0.450000E-01      0.103259E-01
      0.500000E-01      0.952890E-02
      0.550000E-01      0.872207E-02
      0.600000E-01      0.792041E-02
      0.650000E-01      0.713764E-02
      0.700000E-01      0.638587E-02
      0.750000E-01      0.567527E-02
      0.800000E-01      0.501392E-02
      0.850000E-01      0.440774E-02
      0.900000E-01      0.386047E-02
      0.950000E-01      0.337375E-02
      0.100000          0.294735E-02
      0.105000          0.257935E-02
      0.110000          0.226639E-02
      0.115000          0.200404E-02
      0.120000          0.178706E-02
      0.125000          0.160973E-02
      0.130000          0.146615E-02
      0.135000          0.135046E-02
      0.140000          0.125710E-02
      0.145000          0.118099E-02
      0.150000          0.111764E-02
      0.155000          0.106321E-02
      0.160000          0.101461E-02
      0.165000          0.969409E-03
      0.170000          0.925879E-03
      0.175000          0.882864E-03
      0.180000          0.839724E-03
      0.185000          0.796230E-03
      0.190000          0.752463E-03
      0.195000          0.708717E-03
      0.200000          0.665414E-03
      0.205000          0.623019E-03
      0.210000          0.581986E-03
      0.215000          0.542712E-03
      0.220000          0.505504E-03
      0.225000          0.470568E-03
      0.230000          0.438008E-03
      0.235000          0.407832E-03
      0.240000          0.379971E-03
      0.245000          0.354297E-03
      0.250000          0.330644E-03
      0.255000          0.308833E-03
      0.260000          0.288688E-03
      0.265000          0.270046E-03
      0.270000          0.252776E-03
      0.275000          0.236776E-03
      0.280000          0.221976E-03
      0.285000          0.208333E-03
      0.290000          0.195829E-03
      0.295000          0.184457E-03
      0.300000          0.174217E-03
      0.305000          0.165101E-03
      0.310000          0.157095E-03
      0.315000          0.150164E-03
      0.320000          0.144254E-03
      0.325000          0.139291E-03
      0.330000          0.135179E-03
      0.335000          0.131808E-03
      0.340000          0.129055E-03
      0.345000          0.126791E-03
      0.350000          0.124888E-03
      0.355000          0.123226E-03
      0.360000          0.121695E-03
      0.365000          0.120205E-03
      0.370000          0.118683E-03
      0.375000          0.117079E-03
      0.380000          0.115365E-03
      0.385000          0.113534E-03
      0.390000          0.111596E-03
      0.395000          0.109576E-03
      0.400000          0.107512E-03
      0.405000          0.105445E-03
      0.410000          0.103422E-03
      0.415000          0.101485E-03
      0.420000          0.996756E-04
      0.425000          0.980244E-04
      0.430000          0.965548E-04
      0.435000          0.952799E-04
      0.440000          0.942029E-04
      0.445000          0.933174E-04
      0.450000          0.926088E-04
      0.455000          0.920560E-04
      0.460000          0.916328E-04
      0.465000          0.913105E-04
      0.470000          0.910590E-04
      0.475000          0.908493E-04
      0.480000          0.906542E-04
      0.485000          0.904500E-04
      0.490000          0.902168E-04
      0.495000          0.899391E-04
      0.500000          0.896061E-04
