 I_abs(s)[cm^-1]/c[mg/ml]
       0.00000          0.147386E-01
      0.500000E-02      0.146877E-01
      0.100000E-01      0.145361E-01
      0.150000E-01      0.142869E-01
      0.200000E-01      0.139452E-01
      0.250000E-01      0.135179E-01
      0.300000E-01      0.130133E-01
      0.350000E-01      0.124414E-01
      0.400000E-01      0.118128E-01
      0.450000E-01      0.111390E-01
      0.500000E-01      0.104318E-01
      0.550000E-01      0.970299E-02
      0.600000E-01      0.896418E-02
      0.650000E-01      0.822624E-02
      0.700000E-01      0.749927E-02
      0.750000E-01      0.679230E-02
      0.800000E-01      0.611316E-02
      0.850000E-01      0.546833E-02
      0.900000E-01      0.486294E-02
      0.950000E-01      0.430075E-02
      0.100000          0.378413E-02
      0.105000          0.331426E-02
      0.110000          0.289113E-02
      0.115000          0.251377E-02
      0.120000          0.218034E-02
      0.125000          0.188836E-02
      0.130000          0.163486E-02
      0.135000          0.141652E-02
      0.140000          0.122985E-02
      0.145000          0.107133E-02
      0.150000          0.937501E-03
      0.155000          0.825070E-03
      0.160000          0.730990E-03
      0.165000          0.652493E-03
      0.170000          0.587123E-03
      0.175000          0.532740E-03
      0.180000          0.487516E-03
      0.185000          0.449912E-03
      0.190000          0.418653E-03
      0.195000          0.392687E-03
      0.200000          0.371156E-03
      0.205000          0.353356E-03
      0.210000          0.338704E-03
      0.215000          0.326709E-03
      0.220000          0.316948E-03
      0.225000          0.309044E-03
      0.230000          0.302655E-03
      0.235000          0.297468E-03
      0.240000          0.293187E-03
      0.245000          0.289541E-03
      0.250000          0.286279E-03
      0.255000          0.283178E-03
      0.260000          0.280041E-03
      0.265000          0.276707E-03
      0.270000          0.273047E-03
      0.275000          0.268971E-03
      0.280000          0.264422E-03
      0.285000          0.259380E-03
      0.290000          0.253854E-03
      0.295000          0.247879E-03
      0.300000          0.241511E-03
      0.305000          0.234824E-03
      0.310000          0.227900E-03
      0.315000          0.220824E-03
      0.320000          0.213683E-03
      0.325000          0.206557E-03
      0.330000          0.199521E-03
      0.335000          0.192636E-03
      0.340000          0.185955E-03
      0.345000          0.179519E-03
      0.350000          0.173355E-03
      0.355000          0.167485E-03
      0.360000          0.161918E-03
      0.365000          0.156659E-03
      0.370000          0.151706E-03
      0.375000          0.147056E-03
      0.380000          0.142703E-03
      0.385000          0.138638E-03
      0.390000          0.134856E-03
      0.395000          0.131350E-03
      0.400000          0.128112E-03
      0.405000          0.125137E-03
      0.410000          0.122419E-03
      0.415000          0.119950E-03
      0.420000          0.117722E-03
      0.425000          0.115723E-03
      0.430000          0.113941E-03
      0.435000          0.112360E-03
      0.440000          0.110962E-03
      0.445000          0.109725E-03
      0.450000          0.108625E-03
      0.455000          0.107637E-03
      0.460000          0.106734E-03
      0.465000          0.105889E-03
      0.470000          0.105076E-03
      0.475000          0.104268E-03
      0.480000          0.103445E-03
      0.485000          0.102585E-03
      0.490000          0.101672E-03
      0.495000          0.100696E-03
      0.500000          0.996490E-04
