 I_abs(s)[cm^-1]/c[mg/ml]
       0.00000          0.143657E-01
      0.500000E-02      0.143187E-01
      0.100000E-01      0.141785E-01
      0.150000E-01      0.139481E-01
      0.200000E-01      0.136321E-01
      0.250000E-01      0.132369E-01
      0.300000E-01      0.127702E-01
      0.350000E-01      0.122409E-01
      0.400000E-01      0.116588E-01
      0.450000E-01      0.110345E-01
      0.500000E-01      0.103787E-01
      0.550000E-01      0.970194E-02
      0.600000E-01      0.901475E-02
      0.650000E-01      0.832694E-02
      0.700000E-01      0.764751E-02
      0.750000E-01      0.698455E-02
      0.800000E-01      0.634500E-02
      0.850000E-01      0.573463E-02
      0.900000E-01      0.515798E-02
      0.950000E-01      0.461838E-02
      0.100000          0.411799E-02
      0.105000          0.365790E-02
      0.110000          0.323824E-02
      0.115000          0.285831E-02
      0.120000          0.251670E-02
      0.125000          0.221150E-02
      0.130000          0.194038E-02
      0.135000          0.170076E-02
      0.140000          0.148996E-02
      0.145000          0.130522E-02
      0.150000          0.114389E-02
      0.155000          0.100343E-02
      0.160000          0.881486E-03
      0.165000          0.775897E-03
      0.170000          0.684738E-03
      0.175000          0.606297E-03
      0.180000          0.539073E-03
      0.185000          0.481758E-03
      0.190000          0.433207E-03
      0.195000          0.392419E-03
      0.200000          0.358510E-03
      0.205000          0.330686E-03
      0.210000          0.308225E-03
      0.215000          0.290461E-03
      0.220000          0.276769E-03
      0.225000          0.266560E-03
      0.230000          0.259271E-03
      0.235000          0.254373E-03
      0.240000          0.251363E-03
      0.245000          0.249775E-03
      0.250000          0.249178E-03
      0.255000          0.249187E-03
      0.260000          0.249461E-03
      0.265000          0.249709E-03
      0.270000          0.249695E-03
      0.275000          0.249233E-03
      0.280000          0.248189E-03
      0.285000          0.246479E-03
      0.290000          0.244063E-03
      0.295000          0.240942E-03
      0.300000          0.237149E-03
      0.305000          0.232748E-03
      0.310000          0.227820E-03
      0.315000          0.222461E-03
      0.320000          0.216774E-03
      0.325000          0.210864E-03
      0.330000          0.204832E-03
      0.335000          0.198769E-03
      0.340000          0.192757E-03
      0.345000          0.186863E-03
      0.350000          0.181138E-03
      0.355000          0.175620E-03
      0.360000          0.170331E-03
      0.365000          0.165280E-03
      0.370000          0.160464E-03
      0.375000          0.155874E-03
      0.380000          0.151490E-03
      0.385000          0.147293E-03
      0.390000          0.143259E-03
      0.395000          0.139365E-03
      0.400000          0.135593E-03
      0.405000          0.131927E-03
      0.410000          0.128355E-03
      0.415000          0.124873E-03
      0.420000          0.121480E-03
      0.425000          0.118181E-03
      0.430000          0.114982E-03
      0.435000          0.111897E-03
      0.440000          0.108938E-03
      0.445000          0.106118E-03
      0.450000          0.103453E-03
      0.455000          0.100953E-03
      0.460000          0.986306E-04
      0.465000          0.964924E-04
      0.470000          0.945438E-04
      0.475000          0.927870E-04
      0.480000          0.912212E-04
      0.485000          0.898430E-04
      0.490000          0.886467E-04
      0.495000          0.876249E-04
      0.500000          0.867686E-04
