 I_abs(s)[cm^-1]/c[mg/ml]
       0.00000          0.141302E-01
      0.500000E-02      0.140637E-01
      0.100000E-01      0.138662E-01
      0.150000E-01      0.135439E-01
      0.200000E-01      0.131066E-01
      0.250000E-01      0.125673E-01
      0.300000E-01      0.119417E-01
      0.350000E-01      0.112474E-01
      0.400000E-01      0.105032E-01
      0.450000E-01      0.972794E-02
      0.500000E-01      0.894016E-02
      0.550000E-01      0.815708E-02
      0.600000E-01      0.739409E-02
      0.650000E-01      0.666426E-02
      0.700000E-01      0.597806E-02
      0.750000E-01      0.534315E-02
      0.800000E-01      0.476437E-02
      0.850000E-01      0.424396E-02
      0.900000E-01      0.378173E-02
      0.950000E-01      0.337548E-02
      0.100000          0.302143E-02
      0.105000          0.271462E-02
      0.110000          0.244941E-02
      0.115000          0.221989E-02
      0.120000          0.202024E-02
      0.125000          0.184506E-02
      0.130000          0.168957E-02
      0.135000          0.154975E-02
      0.140000          0.142242E-02
      0.145000          0.130521E-02
      0.150000          0.119651E-02
      0.155000          0.109535E-02
      0.160000          0.100125E-02
      0.165000          0.914121E-03
      0.170000          0.834040E-03
      0.175000          0.761182E-03
      0.180000          0.695687E-03
      0.185000          0.637582E-03
      0.190000          0.586734E-03
      0.195000          0.542828E-03
      0.200000          0.505376E-03
      0.205000          0.473739E-03
      0.210000          0.447171E-03
      0.215000          0.424865E-03
      0.220000          0.406004E-03
      0.225000          0.389807E-03
      0.230000          0.375569E-03
      0.235000          0.362682E-03
      0.240000          0.350661E-03
      0.245000          0.339142E-03
      0.250000          0.327880E-03
      0.255000          0.316734E-03
      0.260000          0.305649E-03
      0.265000          0.294637E-03
      0.270000          0.283749E-03
      0.275000          0.273060E-03
      0.280000          0.262648E-03
      0.285000          0.252583E-03
      0.290000          0.242917E-03
      0.295000          0.233680E-03
      0.300000          0.224878E-03
      0.305000          0.216500E-03
      0.310000          0.208520E-03
      0.315000          0.200900E-03
      0.320000          0.193603E-03
      0.325000          0.186591E-03
      0.330000          0.179835E-03
      0.335000          0.173315E-03
      0.340000          0.167021E-03
      0.345000          0.160955E-03
      0.350000          0.155126E-03
      0.355000          0.149553E-03
      0.360000          0.144258E-03
      0.365000          0.139263E-03
      0.370000          0.134591E-03
      0.375000          0.130260E-03
      0.380000          0.126281E-03
      0.385000          0.122660E-03
      0.390000          0.119395E-03
      0.395000          0.116475E-03
      0.400000          0.113882E-03
      0.405000          0.111594E-03
      0.410000          0.109581E-03
      0.415000          0.107811E-03
      0.420000          0.106248E-03
      0.425000          0.104858E-03
      0.430000          0.103604E-03
      0.435000          0.102454E-03
      0.440000          0.101377E-03
      0.445000          0.100345E-03
      0.450000          0.993358E-04
      0.455000          0.983297E-04
      0.460000          0.973127E-04
      0.465000          0.962748E-04
      0.470000          0.952101E-04
      0.475000          0.941164E-04
      0.480000          0.929948E-04
      0.485000          0.918488E-04
      0.490000          0.906841E-04
      0.495000          0.895075E-04
      0.500000          0.883268E-04
