 I_abs(s)[cm^-1]/c[mg/ml]
       0.00000          0.142399E-01
      0.500000E-02      0.141696E-01
      0.100000E-01      0.139613E-01
      0.150000E-01      0.136231E-01
      0.200000E-01      0.131675E-01
      0.250000E-01      0.126109E-01
      0.300000E-01      0.119723E-01
      0.350000E-01      0.112725E-01
      0.400000E-01      0.105323E-01
      0.450000E-01      0.977189E-02
      0.500000E-01      0.900938E-02
      0.550000E-01      0.826040E-02
      0.600000E-01      0.753749E-02
      0.650000E-01      0.684989E-02
      0.700000E-01      0.620373E-02
      0.750000E-01      0.560223E-02
      0.800000E-01      0.504625E-02
      0.850000E-01      0.453483E-02
      0.900000E-01      0.406578E-02
      0.950000E-01      0.363626E-02
      0.100000          0.324324E-02
      0.105000          0.288387E-02
      0.110000          0.255566E-02
      0.115000          0.225662E-02
      0.120000          0.198522E-02
      0.125000          0.174030E-02
      0.130000          0.152095E-02
      0.135000          0.132628E-02
      0.140000          0.115537E-02
      0.145000          0.100710E-02
      0.150000          0.880103E-03
      0.155000          0.772757E-03
      0.160000          0.683212E-03
      0.165000          0.609459E-03
      0.170000          0.549413E-03
      0.175000          0.501006E-03
      0.180000          0.462263E-03
      0.185000          0.431375E-03
      0.190000          0.406738E-03
      0.195000          0.386976E-03
      0.200000          0.370936E-03
      0.205000          0.357677E-03
      0.210000          0.346440E-03
      0.215000          0.336622E-03
      0.220000          0.327744E-03
      0.225000          0.319431E-03
      0.230000          0.311392E-03
      0.235000          0.303409E-03
      0.240000          0.295331E-03
      0.245000          0.287062E-03
      0.250000          0.278564E-03
      0.255000          0.269844E-03
      0.260000          0.260944E-03
      0.265000          0.251934E-03
      0.270000          0.242893E-03
      0.275000          0.233904E-03
      0.280000          0.225039E-03
      0.285000          0.216355E-03
      0.290000          0.207891E-03
      0.295000          0.199668E-03
      0.300000          0.191701E-03
      0.305000          0.183995E-03
      0.310000          0.176566E-03
      0.315000          0.169433E-03
      0.320000          0.162633E-03
      0.325000          0.156215E-03
      0.330000          0.150236E-03
      0.335000          0.144757E-03
      0.340000          0.139833E-03
      0.345000          0.135504E-03
      0.350000          0.131788E-03
      0.355000          0.128672E-03
      0.360000          0.126117E-03
      0.365000          0.124051E-03
      0.370000          0.122383E-03
      0.375000          0.121005E-03
      0.380000          0.119803E-03
      0.385000          0.118669E-03
      0.390000          0.117508E-03
      0.395000          0.116244E-03
      0.400000          0.114827E-03
      0.405000          0.113235E-03
      0.410000          0.111466E-03
      0.415000          0.109545E-03
      0.420000          0.107508E-03
      0.425000          0.105403E-03
      0.430000          0.103284E-03
      0.435000          0.101203E-03
      0.440000          0.992082E-04
      0.445000          0.973420E-04
      0.450000          0.956374E-04
      0.455000          0.941188E-04
      0.460000          0.928014E-04
      0.465000          0.916919E-04
      0.470000          0.907889E-04
      0.475000          0.900835E-04
      0.480000          0.895604E-04
      0.485000          0.891986E-04
      0.490000          0.889730E-04
      0.495000          0.888559E-04
      0.500000          0.888191E-04
