 I_abs(s)[cm^-1]/c[mg/ml]
       0.00000          0.139686E-01
      0.500000E-02      0.138978E-01
      0.100000E-01      0.136879E-01
      0.150000E-01      0.133466E-01
      0.200000E-01      0.128862E-01
      0.250000E-01      0.123228E-01
      0.300000E-01      0.116755E-01
      0.350000E-01      0.109653E-01
      0.400000E-01      0.102139E-01
      0.450000E-01      0.944240E-02
      0.500000E-01      0.867074E-02
      0.550000E-01      0.791646E-02
      0.600000E-01      0.719419E-02
      0.650000E-01      0.651520E-02
      0.700000E-01      0.588731E-02
      0.750000E-01      0.531491E-02
      0.800000E-01      0.479929E-02
      0.850000E-01      0.433908E-02
      0.900000E-01      0.393081E-02
      0.950000E-01      0.356956E-02
      0.100000          0.324955E-02
      0.105000          0.296476E-02
      0.110000          0.270934E-02
      0.115000          0.247807E-02
      0.120000          0.226653E-02
      0.125000          0.207128E-02
      0.130000          0.188983E-02
      0.135000          0.172054E-02
      0.140000          0.156252E-02
      0.145000          0.141538E-02
      0.150000          0.127908E-02
      0.155000          0.115370E-02
      0.160000          0.103931E-02
      0.165000          0.935840E-03
      0.170000          0.843024E-03
      0.175000          0.760384E-03
      0.180000          0.687247E-03
      0.185000          0.622790E-03
      0.190000          0.566111E-03
      0.195000          0.516291E-03
      0.200000          0.472460E-03
      0.205000          0.433846E-03
      0.210000          0.399795E-03
      0.215000          0.369789E-03
      0.220000          0.343423E-03
      0.225000          0.320393E-03
      0.230000          0.300449E-03
      0.235000          0.283369E-03
      0.240000          0.268923E-03
      0.245000          0.256851E-03
      0.250000          0.246851E-03
      0.255000          0.238577E-03
      0.260000          0.231655E-03
      0.265000          0.225702E-03
      0.270000          0.220350E-03
      0.275000          0.215278E-03
      0.280000          0.210231E-03
      0.285000          0.205039E-03
      0.290000          0.199626E-03
      0.295000          0.194008E-03
      0.300000          0.188281E-03
      0.305000          0.182602E-03
      0.310000          0.177164E-03
      0.315000          0.172165E-03
      0.320000          0.167786E-03
      0.325000          0.164161E-03
      0.330000          0.161366E-03
      0.335000          0.159404E-03
      0.340000          0.158208E-03
      0.345000          0.157646E-03
      0.350000          0.157536E-03
      0.355000          0.157666E-03
      0.360000          0.157814E-03
      0.365000          0.157771E-03
      0.370000          0.157358E-03
      0.375000          0.156444E-03
      0.380000          0.154953E-03
      0.385000          0.152870E-03
      0.390000          0.150231E-03
      0.395000          0.147122E-03
      0.400000          0.143663E-03
      0.405000          0.139992E-03
      0.410000          0.136248E-03
      0.415000          0.132562E-03
      0.420000          0.129041E-03
      0.425000          0.125758E-03
      0.430000          0.122754E-03
      0.435000          0.120035E-03
      0.440000          0.117575E-03
      0.445000          0.115329E-03
      0.450000          0.113236E-03
      0.455000          0.111235E-03
      0.460000          0.109270E-03
      0.465000          0.107300E-03
      0.470000          0.105304E-03
      0.475000          0.103280E-03
      0.480000          0.101249E-03
      0.485000          0.992460E-04
      0.490000          0.973182E-04
      0.495000          0.955146E-04
      0.500000          0.938800E-04
