 I_abs(s)[cm^-1]/c[mg/ml]
       0.00000          0.140076E-01
      0.500000E-02      0.139555E-01
      0.100000E-01      0.138006E-01
      0.150000E-01      0.135462E-01
      0.200000E-01      0.131978E-01
      0.250000E-01      0.127630E-01
      0.300000E-01      0.122512E-01
      0.350000E-01      0.116728E-01
      0.400000E-01      0.110398E-01
      0.450000E-01      0.103645E-01
      0.500000E-01      0.965982E-02
      0.550000E-01      0.893850E-02
      0.600000E-01      0.821292E-02
      0.650000E-01      0.749470E-02
      0.700000E-01      0.679448E-02
      0.750000E-01      0.612160E-02
      0.800000E-01      0.548400E-02
      0.850000E-01      0.488801E-02
      0.900000E-01      0.433836E-02
      0.950000E-01      0.383814E-02
      0.100000          0.338887E-02
      0.105000          0.299062E-02
      0.110000          0.264213E-02
      0.115000          0.234101E-02
      0.120000          0.208396E-02
      0.125000          0.186696E-02
      0.130000          0.168552E-02
      0.135000          0.153489E-02
      0.140000          0.141025E-02
      0.145000          0.130692E-02
      0.150000          0.122047E-02
      0.155000          0.114690E-02
      0.160000          0.108268E-02
      0.165000          0.102483E-02
      0.170000          0.970948E-03
      0.175000          0.919209E-03
      0.180000          0.868326E-03
      0.185000          0.817509E-03
      0.190000          0.766399E-03
      0.195000          0.714995E-03
      0.200000          0.663573E-03
      0.205000          0.612603E-03
      0.210000          0.562674E-03
      0.215000          0.514426E-03
      0.220000          0.468484E-03
      0.225000          0.425411E-03
      0.230000          0.385675E-03
      0.235000          0.349619E-03
      0.240000          0.317449E-03
      0.245000          0.289236E-03
      0.250000          0.264921E-03
      0.255000          0.244329E-03
      0.260000          0.227190E-03
      0.265000          0.213162E-03
      0.270000          0.201853E-03
      0.275000          0.192851E-03
      0.280000          0.185739E-03
      0.285000          0.180117E-03
      0.290000          0.175620E-03
      0.295000          0.171924E-03
      0.300000          0.168757E-03
      0.305000          0.165903E-03
      0.310000          0.163198E-03
      0.315000          0.160528E-03
      0.320000          0.157825E-03
      0.325000          0.155058E-03
      0.330000          0.152226E-03
      0.335000          0.149348E-03
      0.340000          0.146459E-03
      0.345000          0.143598E-03
      0.350000          0.140805E-03
      0.355000          0.138120E-03
      0.360000          0.135571E-03
      0.365000          0.133179E-03
      0.370000          0.130958E-03
      0.375000          0.128910E-03
      0.380000          0.127031E-03
      0.385000          0.125308E-03
      0.390000          0.123726E-03
      0.395000          0.122266E-03
      0.400000          0.120908E-03
      0.405000          0.119632E-03
      0.410000          0.118419E-03
      0.415000          0.117252E-03
      0.420000          0.116117E-03
      0.425000          0.115000E-03
      0.430000          0.113889E-03
      0.435000          0.112774E-03
      0.440000          0.111644E-03
      0.445000          0.110490E-03
      0.450000          0.109301E-03
      0.455000          0.108067E-03
      0.460000          0.106776E-03
      0.465000          0.105418E-03
      0.470000          0.103982E-03
      0.475000          0.102460E-03
      0.480000          0.100846E-03
      0.485000          0.991351E-04
      0.490000          0.973293E-04
      0.495000          0.954340E-04
      0.500000          0.934601E-04
