 I_abs(s)[cm^-1]/c[mg/ml]
       0.00000          0.146462E-01
      0.500000E-02      0.145954E-01
      0.100000E-01      0.144442E-01
      0.150000E-01      0.141952E-01
      0.200000E-01      0.138532E-01
      0.250000E-01      0.134244E-01
      0.300000E-01      0.129167E-01
      0.350000E-01      0.123392E-01
      0.400000E-01      0.117019E-01
      0.450000E-01      0.110160E-01
      0.500000E-01      0.102927E-01
      0.550000E-01      0.954365E-02
      0.600000E-01      0.878050E-02
      0.650000E-01      0.801445E-02
      0.700000E-01      0.725610E-02
      0.750000E-01      0.651529E-02
      0.800000E-01      0.580081E-02
      0.850000E-01      0.512033E-02
      0.900000E-01      0.448026E-02
      0.950000E-01      0.388567E-02
      0.100000          0.334027E-02
      0.105000          0.284647E-02
      0.110000          0.240537E-02
      0.115000          0.201688E-02
      0.120000          0.167983E-02
      0.125000          0.139211E-02
      0.130000          0.115080E-02
      0.135000          0.952368E-03
      0.140000          0.792801E-03
      0.145000          0.667787E-03
      0.150000          0.572862E-03
      0.155000          0.503556E-03
      0.160000          0.455515E-03
      0.165000          0.424612E-03
      0.170000          0.407032E-03
      0.175000          0.399338E-03
      0.180000          0.398513E-03
      0.185000          0.401990E-03
      0.190000          0.407647E-03
      0.195000          0.413807E-03
      0.200000          0.419202E-03
      0.205000          0.422942E-03
      0.210000          0.424471E-03
      0.215000          0.423513E-03
      0.220000          0.420022E-03
      0.225000          0.414132E-03
      0.230000          0.406101E-03
      0.235000          0.396273E-03
      0.240000          0.385034E-03
      0.245000          0.372777E-03
      0.250000          0.359877E-03
      0.255000          0.346674E-03
      0.260000          0.333453E-03
      0.265000          0.320443E-03
      0.270000          0.307813E-03
      0.275000          0.295676E-03
      0.280000          0.284091E-03
      0.285000          0.273078E-03
      0.290000          0.262622E-03
      0.295000          0.252685E-03
      0.300000          0.243218E-03
      0.305000          0.234168E-03
      0.310000          0.225485E-03
      0.315000          0.217128E-03
      0.320000          0.209071E-03
      0.325000          0.201301E-03
      0.330000          0.193823E-03
      0.335000          0.186652E-03
      0.340000          0.179818E-03
      0.345000          0.173358E-03
      0.350000          0.167310E-03
      0.355000          0.161716E-03
      0.360000          0.156610E-03
      0.365000          0.152020E-03
      0.370000          0.147962E-03
      0.375000          0.144440E-03
      0.380000          0.141443E-03
      0.385000          0.138945E-03
      0.390000          0.136905E-03
      0.395000          0.135273E-03
      0.400000          0.133984E-03
      0.405000          0.132968E-03
      0.410000          0.132149E-03
      0.415000          0.131449E-03
      0.420000          0.130792E-03
      0.425000          0.130104E-03
      0.430000          0.129321E-03
      0.435000          0.128385E-03
      0.440000          0.127252E-03
      0.445000          0.125887E-03
      0.450000          0.124270E-03
      0.455000          0.122392E-03
      0.460000          0.120256E-03
      0.465000          0.117878E-03
      0.470000          0.115283E-03
      0.475000          0.112504E-03
      0.480000          0.109581E-03
      0.485000          0.106557E-03
      0.490000          0.103480E-03
      0.495000          0.100395E-03
      0.500000          0.973505E-04
