 I_abs(s)[cm^-1]/c[mg/ml]
       0.00000          0.146223E-01
      0.500000E-02      0.145747E-01
      0.100000E-01      0.144327E-01
      0.150000E-01      0.141990E-01
      0.200000E-01      0.138778E-01
      0.250000E-01      0.134750E-01
      0.300000E-01      0.129976E-01
      0.350000E-01      0.124542E-01
      0.400000E-01      0.118541E-01
      0.450000E-01      0.112072E-01
      0.500000E-01      0.105241E-01
      0.550000E-01      0.981558E-02
      0.600000E-01      0.909215E-02
      0.650000E-01      0.836416E-02
      0.700000E-01      0.764139E-02
      0.750000E-01      0.693288E-02
      0.800000E-01      0.624673E-02
      0.850000E-01      0.559003E-02
      0.900000E-01      0.496872E-02
      0.950000E-01      0.438751E-02
      0.100000          0.384993E-02
      0.105000          0.335830E-02
      0.110000          0.291378E-02
      0.115000          0.251646E-02
      0.120000          0.216547E-02
      0.125000          0.185911E-02
      0.130000          0.159496E-02
      0.135000          0.137005E-02
      0.140000          0.118099E-02
      0.145000          0.102412E-02
      0.150000          0.895668E-03
      0.155000          0.791827E-03
      0.160000          0.708901E-03
      0.165000          0.643384E-03
      0.170000          0.592032E-03
      0.175000          0.551919E-03
      0.180000          0.520472E-03
      0.185000          0.495488E-03
      0.190000          0.475138E-03
      0.195000          0.457949E-03
      0.200000          0.442787E-03
      0.205000          0.428820E-03
      0.210000          0.415478E-03
      0.215000          0.402415E-03
      0.220000          0.389461E-03
      0.225000          0.376580E-03
      0.230000          0.363829E-03
      0.235000          0.351325E-03
      0.240000          0.339208E-03
      0.245000          0.327622E-03
      0.250000          0.316691E-03
      0.255000          0.306505E-03
      0.260000          0.297117E-03
      0.265000          0.288536E-03
      0.270000          0.280729E-03
      0.275000          0.273625E-03
      0.280000          0.267126E-03
      0.285000          0.261110E-03
      0.290000          0.255444E-03
      0.295000          0.249992E-03
      0.300000          0.244624E-03
      0.305000          0.239224E-03
      0.310000          0.233695E-03
      0.315000          0.227960E-03
      0.320000          0.221973E-03
      0.325000          0.215709E-03
      0.330000          0.209171E-03
      0.335000          0.202385E-03
      0.340000          0.195393E-03
      0.345000          0.188257E-03
      0.350000          0.181047E-03
      0.355000          0.173838E-03
      0.360000          0.166709E-03
      0.365000          0.159734E-03
      0.370000          0.152985E-03
      0.375000          0.146521E-03
      0.380000          0.140392E-03
      0.385000          0.134637E-03
      0.390000          0.129283E-03
      0.395000          0.124342E-03
      0.400000          0.119819E-03
      0.405000          0.115706E-03
      0.410000          0.111989E-03
      0.415000          0.108646E-03
      0.420000          0.105651E-03
      0.425000          0.102977E-03
      0.430000          0.100593E-03
      0.435000          0.984707E-04
      0.440000          0.965818E-04
      0.445000          0.949011E-04
      0.450000          0.934055E-04
      0.455000          0.920753E-04
      0.460000          0.908934E-04
      0.465000          0.898452E-04
      0.470000          0.889184E-04
      0.475000          0.881024E-04
      0.480000          0.873875E-04
      0.485000          0.867649E-04
      0.490000          0.862256E-04
      0.495000          0.857606E-04
      0.500000          0.853603E-04
