 I_abs(s)[cm^-1]/c[mg/ml]
       0.00000          0.135437E-01
      0.500000E-02      0.134661E-01
      0.100000E-01      0.132359E-01
      0.150000E-01      0.128616E-01
      0.200000E-01      0.123562E-01
      0.250000E-01      0.117371E-01
      0.300000E-01      0.110253E-01
      0.350000E-01      0.102437E-01
      0.400000E-01      0.941646E-02
      0.450000E-01      0.856755E-02
      0.500000E-01      0.771985E-02
      0.550000E-01      0.689408E-02
      0.600000E-01      0.610806E-02
      0.650000E-01      0.537615E-02
      0.700000E-01      0.470897E-02
      0.750000E-01      0.411329E-02
      0.800000E-01      0.359217E-02
      0.850000E-01      0.314536E-02
      0.900000E-01      0.276968E-02
      0.950000E-01      0.245967E-02
      0.100000          0.220818E-02
      0.105000          0.200703E-02
      0.110000          0.184757E-02
      0.115000          0.172121E-02
      0.120000          0.161988E-02
      0.125000          0.153634E-02
      0.130000          0.146438E-02
      0.135000          0.139898E-02
      0.140000          0.133629E-02
      0.145000          0.127360E-02
      0.150000          0.120927E-02
      0.155000          0.114250E-02
      0.160000          0.107324E-02
      0.165000          0.100199E-02
      0.170000          0.929623E-03
      0.175000          0.857236E-03
      0.180000          0.786029E-03
      0.185000          0.717188E-03
      0.190000          0.651800E-03
      0.195000          0.590791E-03
      0.200000          0.534884E-03
      0.205000          0.484579E-03
      0.210000          0.440149E-03
      0.215000          0.401640E-03
      0.220000          0.368899E-03
      0.225000          0.341595E-03
      0.230000          0.319254E-03
      0.235000          0.301300E-03
      0.240000          0.287089E-03
      0.245000          0.275953E-03
      0.250000          0.267237E-03
      0.255000          0.260327E-03
      0.260000          0.254679E-03
      0.265000          0.249839E-03
      0.270000          0.245451E-03
      0.275000          0.241262E-03
      0.280000          0.237118E-03
      0.285000          0.232950E-03
      0.290000          0.228761E-03
      0.295000          0.224606E-03
      0.300000          0.220572E-03
      0.305000          0.216756E-03
      0.310000          0.213251E-03
      0.315000          0.210128E-03
      0.320000          0.207428E-03
      0.325000          0.205155E-03
      0.330000          0.203278E-03
      0.335000          0.201728E-03
      0.340000          0.200407E-03
      0.345000          0.199199E-03
      0.350000          0.197972E-03
      0.355000          0.196597E-03
      0.360000          0.194948E-03
      0.365000          0.192916E-03
      0.370000          0.190416E-03
      0.375000          0.187386E-03
      0.380000          0.183794E-03
      0.385000          0.179640E-03
      0.390000          0.174949E-03
      0.395000          0.169773E-03
      0.400000          0.164189E-03
      0.405000          0.158287E-03
      0.410000          0.152175E-03
      0.415000          0.145965E-03
      0.420000          0.139772E-03
      0.425000          0.133709E-03
      0.430000          0.127880E-03
      0.435000          0.122380E-03
      0.440000          0.117284E-03
      0.445000          0.112653E-03
      0.450000          0.108527E-03
      0.455000          0.104925E-03
      0.460000          0.101845E-03
      0.465000          0.992679E-04
      0.470000          0.971555E-04
      0.475000          0.954566E-04
      0.480000          0.941095E-04
      0.485000          0.930455E-04
      0.490000          0.921937E-04
      0.495000          0.914848E-04
      0.500000          0.908548E-04
