 I_abs(s)[cm^-1]/c[mg/ml]
       0.00000          0.147260E-01
      0.500000E-02      0.146704E-01
      0.100000E-01      0.145049E-01
      0.150000E-01      0.142334E-01
      0.200000E-01      0.138623E-01
      0.250000E-01      0.134002E-01
      0.300000E-01      0.128574E-01
      0.350000E-01      0.122458E-01
      0.400000E-01      0.115784E-01
      0.450000E-01      0.108685E-01
      0.500000E-01      0.101298E-01
      0.550000E-01      0.937529E-02
      0.600000E-01      0.861765E-02
      0.650000E-01      0.786832E-02
      0.700000E-01      0.713748E-02
      0.750000E-01      0.643387E-02
      0.800000E-01      0.576463E-02
      0.850000E-01      0.513533E-02
      0.900000E-01      0.454996E-02
      0.950000E-01      0.401103E-02
      0.100000          0.351971E-02
      0.105000          0.307597E-02
      0.110000          0.267881E-02
      0.115000          0.232640E-02
      0.120000          0.201627E-02
      0.125000          0.174552E-02
      0.130000          0.151092E-02
      0.135000          0.130912E-02
      0.140000          0.113669E-02
      0.145000          0.990275E-03
      0.150000          0.866631E-03
      0.155000          0.762695E-03
      0.160000          0.675626E-03
      0.165000          0.602826E-03
      0.170000          0.541960E-03
      0.175000          0.490964E-03
      0.180000          0.448042E-03
      0.185000          0.411663E-03
      0.190000          0.380551E-03
      0.195000          0.353667E-03
      0.200000          0.330189E-03
      0.205000          0.309492E-03
      0.210000          0.291122E-03
      0.215000          0.274766E-03
      0.220000          0.260221E-03
      0.225000          0.247371E-03
      0.230000          0.236154E-03
      0.235000          0.226539E-03
      0.240000          0.218504E-03
      0.245000          0.212018E-03
      0.250000          0.207027E-03
      0.255000          0.203445E-03
      0.260000          0.201157E-03
      0.265000          0.200011E-03
      0.270000          0.199830E-03
      0.275000          0.200414E-03
      0.280000          0.201554E-03
      0.285000          0.203036E-03
      0.290000          0.204658E-03
      0.295000          0.206231E-03
      0.300000          0.207591E-03
      0.305000          0.208604E-03
      0.310000          0.209168E-03
      0.315000          0.209213E-03
      0.320000          0.208704E-03
      0.325000          0.207634E-03
      0.330000          0.206026E-03
      0.335000          0.203921E-03
      0.340000          0.201382E-03
      0.345000          0.198480E-03
      0.350000          0.195295E-03
      0.355000          0.191910E-03
      0.360000          0.188403E-03
      0.365000          0.184849E-03
      0.370000          0.181313E-03
      0.375000          0.177847E-03
      0.380000          0.174494E-03
      0.385000          0.171280E-03
      0.390000          0.168220E-03
      0.395000          0.165316E-03
      0.400000          0.162557E-03
      0.405000          0.159925E-03
      0.410000          0.157392E-03
      0.415000          0.154929E-03
      0.420000          0.152501E-03
      0.425000          0.150077E-03
      0.430000          0.147626E-03
      0.435000          0.145123E-03
      0.440000          0.142550E-03
      0.445000          0.139897E-03
      0.450000          0.137159E-03
      0.455000          0.134341E-03
      0.460000          0.131455E-03
      0.465000          0.128515E-03
      0.470000          0.125543E-03
      0.475000          0.122560E-03
      0.480000          0.119591E-03
      0.485000          0.116656E-03
      0.490000          0.113775E-03
      0.495000          0.110965E-03
      0.500000          0.108238E-03
