 I_abs(s)[cm^-1]/c[mg/ml]
       0.00000          0.145189E-01
      0.500000E-02      0.144476E-01
      0.100000E-01      0.142361E-01
      0.150000E-01      0.138923E-01
      0.200000E-01      0.134286E-01
      0.250000E-01      0.128611E-01
      0.300000E-01      0.122088E-01
      0.350000E-01      0.114922E-01
      0.400000E-01      0.107326E-01
      0.450000E-01      0.995018E-02
      0.500000E-01      0.916392E-02
      0.550000E-01      0.839020E-02
      0.600000E-01      0.764252E-02
      0.650000E-01      0.693126E-02
      0.700000E-01      0.626361E-02
      0.750000E-01      0.564382E-02
      0.800000E-01      0.507361E-02
      0.850000E-01      0.455260E-02
      0.900000E-01      0.407891E-02
      0.950000E-01      0.364968E-02
      0.100000          0.326152E-02
      0.105000          0.291091E-02
      0.110000          0.259449E-02
      0.115000          0.230921E-02
      0.120000          0.205239E-02
      0.125000          0.182174E-02
      0.130000          0.161527E-02
      0.135000          0.143120E-02
      0.140000          0.126787E-02
      0.145000          0.112367E-02
      0.150000          0.996975E-03
      0.155000          0.886147E-03
      0.160000          0.789524E-03
      0.165000          0.705467E-03
      0.170000          0.632405E-03
      0.175000          0.568886E-03
      0.180000          0.513618E-03
      0.185000          0.465492E-03
      0.190000          0.423593E-03
      0.195000          0.387191E-03
      0.200000          0.355709E-03
      0.205000          0.328688E-03
      0.210000          0.305748E-03
      0.215000          0.286547E-03
      0.220000          0.270746E-03
      0.225000          0.257992E-03
      0.230000          0.247910E-03
      0.235000          0.240098E-03
      0.240000          0.234146E-03
      0.245000          0.229652E-03
      0.250000          0.226238E-03
      0.255000          0.223573E-03
      0.260000          0.221381E-03
      0.265000          0.219452E-03
      0.270000          0.217640E-03
      0.275000          0.215861E-03
      0.280000          0.214075E-03
      0.285000          0.212277E-03
      0.290000          0.210484E-03
      0.295000          0.208714E-03
      0.300000          0.206986E-03
      0.305000          0.205301E-03
      0.310000          0.203649E-03
      0.315000          0.202002E-03
      0.320000          0.200323E-03
      0.325000          0.198566E-03
      0.330000          0.196683E-03
      0.335000          0.194632E-03
      0.340000          0.192377E-03
      0.345000          0.189896E-03
      0.350000          0.187177E-03
      0.355000          0.184220E-03
      0.360000          0.181037E-03
      0.365000          0.177647E-03
      0.370000          0.174074E-03
      0.375000          0.170347E-03
      0.380000          0.166494E-03
      0.385000          0.162542E-03
      0.390000          0.158518E-03
      0.395000          0.154445E-03
      0.400000          0.150346E-03
      0.405000          0.146241E-03
      0.410000          0.142151E-03
      0.415000          0.138096E-03
      0.420000          0.134098E-03
      0.425000          0.130178E-03
      0.430000          0.126362E-03
      0.435000          0.122675E-03
      0.440000          0.119143E-03
      0.445000          0.115792E-03
      0.450000          0.112649E-03
      0.455000          0.109736E-03
      0.460000          0.107074E-03
      0.465000          0.104681E-03
      0.470000          0.102566E-03
      0.475000          0.100734E-03
      0.480000          0.991835E-04
      0.485000          0.979030E-04
      0.490000          0.968751E-04
      0.495000          0.960750E-04
      0.500000          0.954715E-04
