 I_abs(s)[cm^-1]/c[mg/ml]
       0.00000          0.140544E-01
      0.500000E-02      0.139780E-01
      0.100000E-01      0.137517E-01
      0.150000E-01      0.133840E-01
      0.200000E-01      0.128883E-01
      0.250000E-01      0.122825E-01
      0.300000E-01      0.115876E-01
      0.350000E-01      0.108266E-01
      0.400000E-01      0.100234E-01
      0.450000E-01      0.920123E-02
      0.500000E-01      0.838198E-02
      0.550000E-01      0.758481E-02
      0.600000E-01      0.682570E-02
      0.650000E-01      0.611691E-02
      0.700000E-01      0.546684E-02
      0.750000E-01      0.488008E-02
      0.800000E-01      0.435780E-02
      0.850000E-01      0.389819E-02
      0.900000E-01      0.349710E-02
      0.950000E-01      0.314877E-02
      0.100000          0.284648E-02
      0.105000          0.258317E-02
      0.110000          0.235203E-02
      0.115000          0.214690E-02
      0.120000          0.196251E-02
      0.125000          0.179468E-02
      0.130000          0.164031E-02
      0.135000          0.149731E-02
      0.140000          0.136441E-02
      0.145000          0.124100E-02
      0.150000          0.112689E-02
      0.155000          0.102212E-02
      0.160000          0.926769E-03
      0.165000          0.840846E-03
      0.170000          0.764188E-03
      0.175000          0.696437E-03
      0.180000          0.637044E-03
      0.185000          0.585304E-03
      0.190000          0.540413E-03
      0.195000          0.501526E-03
      0.200000          0.467819E-03
      0.205000          0.438531E-03
      0.210000          0.413000E-03
      0.215000          0.390668E-03
      0.220000          0.371085E-03
      0.225000          0.353890E-03
      0.230000          0.338790E-03
      0.235000          0.325529E-03
      0.240000          0.313874E-03
      0.245000          0.303589E-03
      0.250000          0.294431E-03
      0.255000          0.286146E-03
      0.260000          0.278482E-03
      0.265000          0.271196E-03
      0.270000          0.264070E-03
      0.275000          0.256931E-03
      0.280000          0.249659E-03
      0.285000          0.242197E-03
      0.290000          0.234551E-03
      0.295000          0.226784E-03
      0.300000          0.219005E-03
      0.305000          0.211356E-03
      0.310000          0.203990E-03
      0.315000          0.197057E-03
      0.320000          0.190682E-03
      0.325000          0.184959E-03
      0.330000          0.179937E-03
      0.335000          0.175618E-03
      0.340000          0.171960E-03
      0.345000          0.168880E-03
      0.350000          0.166267E-03
      0.355000          0.163989E-03
      0.360000          0.161907E-03
      0.365000          0.159887E-03
      0.370000          0.157809E-03
      0.375000          0.155574E-03
      0.380000          0.153109E-03
      0.385000          0.150372E-03
      0.390000          0.147349E-03
      0.395000          0.144055E-03
      0.400000          0.140525E-03
      0.405000          0.136815E-03
      0.410000          0.132994E-03
      0.415000          0.129138E-03
      0.420000          0.125325E-03
      0.425000          0.121633E-03
      0.430000          0.118129E-03
      0.435000          0.114872E-03
      0.440000          0.111910E-03
      0.445000          0.109271E-03
      0.450000          0.106972E-03
      0.455000          0.105013E-03
      0.460000          0.103379E-03
      0.465000          0.102043E-03
      0.470000          0.100967E-03
      0.475000          0.100106E-03
      0.480000          0.994115E-04
      0.485000          0.988352E-04
      0.490000          0.983310E-04
      0.495000          0.978591E-04
      0.500000          0.973880E-04
