 I_abs(s)[cm^-1]/c[mg/ml]
       0.00000          0.146064E-01
      0.500000E-02      0.145536E-01
      0.100000E-01      0.143964E-01
      0.150000E-01      0.141383E-01
      0.200000E-01      0.137847E-01
      0.250000E-01      0.133432E-01
      0.300000E-01      0.128231E-01
      0.350000E-01      0.122348E-01
      0.400000E-01      0.115901E-01
      0.450000E-01      0.109014E-01
      0.500000E-01      0.101812E-01
      0.550000E-01      0.944225E-02
      0.600000E-01      0.869670E-02
      0.650000E-01      0.795600E-02
      0.700000E-01      0.723063E-02
      0.750000E-01      0.652981E-02
      0.800000E-01      0.586139E-02
      0.850000E-01      0.523175E-02
      0.900000E-01      0.464570E-02
      0.950000E-01      0.410656E-02
      0.100000          0.361617E-02
      0.105000          0.317505E-02
      0.110000          0.278248E-02
      0.115000          0.243674E-02
      0.120000          0.213526E-02
      0.125000          0.187480E-02
      0.130000          0.165167E-02
      0.135000          0.146193E-02
      0.140000          0.130150E-02
      0.145000          0.116635E-02
      0.150000          0.105264E-02
      0.155000          0.956754E-03
      0.160000          0.875447E-03
      0.165000          0.805836E-03
      0.170000          0.745452E-03
      0.175000          0.692233E-03
      0.180000          0.644513E-03
      0.185000          0.600994E-03
      0.190000          0.560708E-03
      0.195000          0.522974E-03
      0.200000          0.487346E-03
      0.205000          0.453572E-03
      0.210000          0.421542E-03
      0.215000          0.391246E-03
      0.220000          0.362742E-03
      0.225000          0.336115E-03
      0.230000          0.311458E-03
      0.235000          0.288853E-03
      0.240000          0.268350E-03
      0.245000          0.249965E-03
      0.250000          0.233676E-03
      0.255000          0.219417E-03
      0.260000          0.207089E-03
      0.265000          0.196558E-03
      0.270000          0.187667E-03
      0.275000          0.180240E-03
      0.280000          0.174092E-03
      0.285000          0.169036E-03
      0.290000          0.164889E-03
      0.295000          0.161478E-03
      0.300000          0.158646E-03
      0.305000          0.156254E-03
      0.310000          0.154183E-03
      0.315000          0.152337E-03
      0.320000          0.150640E-03
      0.325000          0.149036E-03
      0.330000          0.147486E-03
      0.335000          0.145967E-03
      0.340000          0.144469E-03
      0.345000          0.142987E-03
      0.350000          0.141523E-03
      0.355000          0.140084E-03
      0.360000          0.138673E-03
      0.365000          0.137293E-03
      0.370000          0.135942E-03
      0.375000          0.134614E-03
      0.380000          0.133300E-03
      0.385000          0.131984E-03
      0.390000          0.130648E-03
      0.395000          0.129272E-03
      0.400000          0.127836E-03
      0.405000          0.126319E-03
      0.410000          0.124705E-03
      0.415000          0.122980E-03
      0.420000          0.121137E-03
      0.425000          0.119174E-03
      0.430000          0.117095E-03
      0.435000          0.114912E-03
      0.440000          0.112643E-03
      0.445000          0.110311E-03
      0.450000          0.107945E-03
      0.455000          0.105575E-03
      0.460000          0.103233E-03
      0.465000          0.100954E-03
      0.470000          0.987686E-04
      0.475000          0.967063E-04
      0.480000          0.947924E-04
      0.485000          0.930473E-04
      0.490000          0.914857E-04
      0.495000          0.901163E-04
      0.500000          0.889420E-04
