 I_abs(s)[cm^-1]/c[mg/ml]
       0.00000          0.132161E-01
      0.500000E-02      0.131194E-01
      0.100000E-01      0.128343E-01
      0.150000E-01      0.123752E-01
      0.200000E-01      0.117649E-01
      0.250000E-01      0.110329E-01
      0.300000E-01      0.102130E-01
      0.350000E-01      0.934122E-02
      0.400000E-01      0.845293E-02
      0.450000E-01      0.758086E-02
      0.500000E-01      0.675302E-02
      0.550000E-01      0.599135E-02
      0.600000E-01      0.531087E-02
      0.650000E-01      0.471952E-02
      0.700000E-01      0.421856E-02
      0.750000E-01      0.380348E-02
      0.800000E-01      0.346523E-02
      0.850000E-01      0.319172E-02
      0.900000E-01      0.296932E-02
      0.950000E-01      0.278430E-02
      0.100000          0.262397E-02
      0.105000          0.247764E-02
      0.110000          0.233712E-02
      0.115000          0.219694E-02
      0.120000          0.205426E-02
      0.125000          0.190849E-02
      0.130000          0.176078E-02
      0.135000          0.161346E-02
      0.140000          0.146941E-02
      0.145000          0.133157E-02
      0.150000          0.120250E-02
      0.155000          0.108412E-02
      0.160000          0.977599E-03
      0.165000          0.883316E-03
      0.170000          0.800977E-03
      0.175000          0.729762E-03
      0.180000          0.668508E-03
      0.185000          0.615887E-03
      0.190000          0.570558E-03
      0.195000          0.531280E-03
      0.200000          0.496977E-03
      0.205000          0.466759E-03
      0.210000          0.439914E-03
      0.215000          0.415881E-03
      0.220000          0.394209E-03
      0.225000          0.374529E-03
      0.230000          0.356524E-03
      0.235000          0.339921E-03
      0.240000          0.324488E-03
      0.245000          0.310042E-03
      0.250000          0.296455E-03
      0.255000          0.283663E-03
      0.260000          0.271660E-03
      0.265000          0.260488E-03
      0.270000          0.250219E-03
      0.275000          0.240925E-03
      0.280000          0.232656E-03
      0.285000          0.225415E-03
      0.290000          0.219143E-03
      0.295000          0.213714E-03
      0.300000          0.208944E-03
      0.305000          0.204612E-03
      0.310000          0.200483E-03
      0.315000          0.196343E-03
      0.320000          0.192026E-03
      0.325000          0.187437E-03
      0.330000          0.182564E-03
      0.335000          0.177478E-03
      0.340000          0.172322E-03
      0.345000          0.167283E-03
      0.350000          0.162569E-03
      0.355000          0.158368E-03
      0.360000          0.154824E-03
      0.365000          0.152010E-03
      0.370000          0.149915E-03
      0.375000          0.148444E-03
      0.380000          0.147428E-03
      0.385000          0.146644E-03
      0.390000          0.145844E-03
      0.395000          0.144789E-03
      0.400000          0.143270E-03
      0.405000          0.141145E-03
      0.410000          0.138345E-03
      0.415000          0.134886E-03
      0.420000          0.130861E-03
      0.425000          0.126432E-03
      0.430000          0.121803E-03
      0.435000          0.117200E-03
      0.440000          0.112844E-03
      0.445000          0.108923E-03
      0.450000          0.105583E-03
      0.455000          0.102905E-03
      0.460000          0.100908E-03
      0.465000          0.995527E-04
      0.470000          0.987444E-04
      0.475000          0.983532E-04
      0.480000          0.982281E-04
      0.485000          0.982137E-04
      0.490000          0.981662E-04
      0.495000          0.979655E-04
      0.500000          0.975238E-04
