 I_abs(s)[cm^-1]/c[mg/ml]
       0.00000          0.142503E-01
      0.500000E-02      0.141847E-01
      0.100000E-01      0.139900E-01
      0.150000E-01      0.136729E-01
      0.200000E-01      0.132441E-01
      0.250000E-01      0.127175E-01
      0.300000E-01      0.121096E-01
      0.350000E-01      0.114384E-01
      0.400000E-01      0.107227E-01
      0.450000E-01      0.998084E-02
      0.500000E-01      0.922995E-02
      0.550000E-01      0.848542E-02
      0.600000E-01      0.776025E-02
      0.650000E-01      0.706478E-02
      0.700000E-01      0.640665E-02
      0.750000E-01      0.579085E-02
      0.800000E-01      0.522002E-02
      0.850000E-01      0.469479E-02
      0.900000E-01      0.421425E-02
      0.950000E-01      0.377635E-02
      0.100000          0.337838E-02
      0.105000          0.301732E-02
      0.110000          0.269013E-02
      0.115000          0.239398E-02
      0.120000          0.212635E-02
      0.125000          0.188507E-02
      0.130000          0.166832E-02
      0.135000          0.147454E-02
      0.140000          0.130237E-02
      0.145000          0.115054E-02
      0.150000          0.101778E-02
      0.155000          0.902791E-03
      0.160000          0.804187E-03
      0.165000          0.720492E-03
      0.170000          0.650161E-03
      0.175000          0.591608E-03
      0.180000          0.543250E-03
      0.185000          0.503552E-03
      0.190000          0.471070E-03
      0.195000          0.444481E-03
      0.200000          0.422608E-03
      0.205000          0.404434E-03
      0.210000          0.389097E-03
      0.215000          0.375887E-03
      0.220000          0.364231E-03
      0.225000          0.353679E-03
      0.230000          0.343883E-03
      0.235000          0.334586E-03
      0.240000          0.325602E-03
      0.245000          0.316809E-03
      0.250000          0.308135E-03
      0.255000          0.299548E-03
      0.260000          0.291053E-03
      0.265000          0.282677E-03
      0.270000          0.274466E-03
      0.275000          0.266473E-03
      0.280000          0.258753E-03
      0.285000          0.251356E-03
      0.290000          0.244316E-03
      0.295000          0.237654E-03
      0.300000          0.231369E-03
      0.305000          0.225443E-03
      0.310000          0.219838E-03
      0.315000          0.214503E-03
      0.320000          0.209376E-03
      0.325000          0.204391E-03
      0.330000          0.199483E-03
      0.335000          0.194592E-03
      0.340000          0.189669E-03
      0.345000          0.184676E-03
      0.350000          0.179592E-03
      0.355000          0.174412E-03
      0.360000          0.169145E-03
      0.365000          0.163812E-03
      0.370000          0.158448E-03
      0.375000          0.153093E-03
      0.380000          0.147792E-03
      0.385000          0.142591E-03
      0.390000          0.137534E-03
      0.395000          0.132659E-03
      0.400000          0.127996E-03
      0.405000          0.123569E-03
      0.410000          0.119391E-03
      0.415000          0.115471E-03
      0.420000          0.111810E-03
      0.425000          0.108404E-03
      0.430000          0.105250E-03
      0.435000          0.102345E-03
      0.440000          0.996867E-04
      0.445000          0.972785E-04
      0.450000          0.951265E-04
      0.455000          0.932398E-04
      0.460000          0.916287E-04
      0.465000          0.903025E-04
      0.470000          0.892668E-04
      0.475000          0.885212E-04
      0.480000          0.880565E-04
      0.485000          0.878542E-04
      0.490000          0.878857E-04
      0.495000          0.881130E-04
      0.500000          0.884909E-04
