 I_abs(s)[cm^-1]/c[mg/ml]
       0.00000          0.138366E-01
      0.500000E-02      0.137586E-01
      0.100000E-01      0.135276E-01
      0.150000E-01      0.131520E-01
      0.200000E-01      0.126456E-01
      0.250000E-01      0.120263E-01
      0.300000E-01      0.113157E-01
      0.350000E-01      0.105373E-01
      0.400000E-01      0.971563E-02
      0.450000E-01      0.887515E-02
      0.500000E-01      0.803871E-02
      0.550000E-01      0.722678E-02
      0.600000E-01      0.645660E-02
      0.650000E-01      0.574169E-02
      0.700000E-01      0.509148E-02
      0.750000E-01      0.451137E-02
      0.800000E-01      0.400296E-02
      0.850000E-01      0.356444E-02
      0.900000E-01      0.319121E-02
      0.950000E-01      0.287660E-02
      0.100000          0.261256E-02
      0.105000          0.239041E-02
      0.110000          0.220150E-02
      0.115000          0.203774E-02
      0.120000          0.189204E-02
      0.125000          0.175861E-02
      0.130000          0.163306E-02
      0.135000          0.151242E-02
      0.140000          0.139507E-02
      0.145000          0.128048E-02
      0.150000          0.116899E-02
      0.155000          0.106158E-02
      0.160000          0.959505E-03
      0.165000          0.864118E-03
      0.170000          0.776631E-03
      0.175000          0.697971E-03
      0.180000          0.628681E-03
      0.185000          0.568886E-03
      0.190000          0.518302E-03
      0.195000          0.476288E-03
      0.200000          0.441931E-03
      0.205000          0.414134E-03
      0.210000          0.391721E-03
      0.215000          0.373529E-03
      0.220000          0.358479E-03
      0.225000          0.345643E-03
      0.230000          0.334272E-03
      0.235000          0.323811E-03
      0.240000          0.313896E-03
      0.245000          0.304333E-03
      0.250000          0.295060E-03
      0.255000          0.286116E-03
      0.260000          0.277597E-03
      0.265000          0.269621E-03
      0.270000          0.262298E-03
      0.275000          0.255704E-03
      0.280000          0.249870E-03
      0.285000          0.244772E-03
      0.290000          0.240336E-03
      0.295000          0.236442E-03
      0.300000          0.232942E-03
      0.305000          0.229666E-03
      0.310000          0.226444E-03
      0.315000          0.223118E-03
      0.320000          0.219552E-03
      0.325000          0.215644E-03
      0.330000          0.211328E-03
      0.335000          0.206579E-03
      0.340000          0.201410E-03
      0.345000          0.195865E-03
      0.350000          0.190019E-03
      0.355000          0.183963E-03
      0.360000          0.177801E-03
      0.365000          0.171637E-03
      0.370000          0.165573E-03
      0.375000          0.159699E-03
      0.380000          0.154091E-03
      0.385000          0.148806E-03
      0.390000          0.143885E-03
      0.395000          0.139349E-03
      0.400000          0.135203E-03
      0.405000          0.131441E-03
      0.410000          0.128044E-03
      0.415000          0.124989E-03
      0.420000          0.122247E-03
      0.425000          0.119788E-03
      0.430000          0.117584E-03
      0.435000          0.115606E-03
      0.440000          0.113829E-03
      0.445000          0.112231E-03
      0.450000          0.110788E-03
      0.455000          0.109481E-03
      0.460000          0.108290E-03
      0.465000          0.107193E-03
      0.470000          0.106171E-03
      0.475000          0.105202E-03
      0.480000          0.104265E-03
      0.485000          0.103341E-03
      0.490000          0.102410E-03
      0.495000          0.101455E-03
      0.500000          0.100462E-03
