 I_abs(s)[cm^-1]/c[mg/ml]
       0.00000          0.133147E-01
      0.500000E-02      0.132363E-01
      0.100000E-01      0.130039E-01
      0.150000E-01      0.126260E-01
      0.200000E-01      0.121164E-01
      0.250000E-01      0.114929E-01
      0.300000E-01      0.107772E-01
      0.350000E-01      0.999289E-02
      0.400000E-01      0.916492E-02
      0.450000E-01      0.831801E-02
      0.500000E-01      0.747564E-02
      0.550000E-01      0.665899E-02
      0.600000E-01      0.588613E-02
      0.650000E-01      0.517145E-02
      0.700000E-01      0.452533E-02
      0.750000E-01      0.395403E-02
      0.800000E-01      0.345990E-02
      0.850000E-01      0.304173E-02
      0.900000E-01      0.269525E-02
      0.950000E-01      0.241387E-02
      0.100000          0.218928E-02
      0.105000          0.201226E-02
      0.110000          0.187329E-02
      0.115000          0.176315E-02
      0.120000          0.167341E-02
      0.125000          0.159679E-02
      0.130000          0.152734E-02
      0.135000          0.146055E-02
      0.140000          0.139331E-02
      0.145000          0.132382E-02
      0.150000          0.125136E-02
      0.155000          0.117608E-02
      0.160000          0.109876E-02
      0.165000          0.102057E-02
      0.170000          0.942848E-03
      0.175000          0.866947E-03
      0.180000          0.794076E-03
      0.185000          0.725233E-03
      0.190000          0.661151E-03
      0.195000          0.602293E-03
      0.200000          0.548873E-03
      0.205000          0.500891E-03
      0.210000          0.458182E-03
      0.215000          0.420465E-03
      0.220000          0.387390E-03
      0.225000          0.358574E-03
      0.230000          0.333629E-03
      0.235000          0.312183E-03
      0.240000          0.293884E-03
      0.245000          0.278404E-03
      0.250000          0.265439E-03
      0.255000          0.254699E-03
      0.260000          0.245912E-03
      0.265000          0.238811E-03
      0.270000          0.233139E-03
      0.275000          0.228651E-03
      0.280000          0.225110E-03
      0.285000          0.222297E-03
      0.290000          0.220008E-03
      0.295000          0.218065E-03
      0.300000          0.216307E-03
      0.305000          0.214600E-03
      0.310000          0.212829E-03
      0.315000          0.210900E-03
      0.320000          0.208737E-03
      0.325000          0.206276E-03
      0.330000          0.203470E-03
      0.335000          0.200284E-03
      0.340000          0.196697E-03
      0.345000          0.192704E-03
      0.350000          0.188315E-03
      0.355000          0.183563E-03
      0.360000          0.178500E-03
      0.365000          0.173197E-03
      0.370000          0.167745E-03
      0.375000          0.162250E-03
      0.380000          0.156826E-03
      0.385000          0.151591E-03
      0.390000          0.146655E-03
      0.395000          0.142117E-03
      0.400000          0.138053E-03
      0.405000          0.134513E-03
      0.410000          0.131517E-03
      0.415000          0.129053E-03
      0.420000          0.127078E-03
      0.425000          0.125525E-03
      0.430000          0.124304E-03
      0.435000          0.123314E-03
      0.440000          0.122451E-03
      0.445000          0.121613E-03
      0.450000          0.120709E-03
      0.455000          0.119666E-03
      0.460000          0.118433E-03
      0.465000          0.116980E-03
      0.470000          0.115298E-03
      0.475000          0.113400E-03
      0.480000          0.111314E-03
      0.485000          0.109081E-03
      0.490000          0.106748E-03
      0.495000          0.104365E-03
      0.500000          0.101980E-03
