 I_abs(s)[cm^-1]/c[mg/ml]
       0.00000          0.145984E-01
      0.500000E-02      0.145457E-01
      0.100000E-01      0.143889E-01
      0.150000E-01      0.141311E-01
      0.200000E-01      0.137779E-01
      0.250000E-01      0.133365E-01
      0.300000E-01      0.128160E-01
      0.350000E-01      0.122267E-01
      0.400000E-01      0.115801E-01
      0.450000E-01      0.108882E-01
      0.500000E-01      0.101634E-01
      0.550000E-01      0.941822E-02
      0.600000E-01      0.866458E-02
      0.650000E-01      0.791383E-02
      0.700000E-01      0.717639E-02
      0.750000E-01      0.646151E-02
      0.800000E-01      0.577714E-02
      0.850000E-01      0.512980E-02
      0.900000E-01      0.452460E-02
      0.950000E-01      0.396518E-02
      0.100000          0.345379E-02
      0.105000          0.299141E-02
      0.110000          0.257785E-02
      0.115000          0.221194E-02
      0.120000          0.189164E-02
      0.125000          0.161429E-02
      0.130000          0.137673E-02
      0.135000          0.117547E-02
      0.140000          0.100685E-02
      0.145000          0.867182E-03
      0.150000          0.752835E-03
      0.155000          0.660337E-03
      0.160000          0.586442E-03
      0.165000          0.528166E-03
      0.170000          0.482825E-03
      0.175000          0.448036E-03
      0.180000          0.421720E-03
      0.185000          0.402085E-03
      0.190000          0.387613E-03
      0.195000          0.377028E-03
      0.200000          0.369278E-03
      0.205000          0.363500E-03
      0.210000          0.359003E-03
      0.215000          0.355236E-03
      0.220000          0.351775E-03
      0.225000          0.348295E-03
      0.230000          0.344562E-03
      0.235000          0.340414E-03
      0.240000          0.335748E-03
      0.245000          0.330513E-03
      0.250000          0.324695E-03
      0.255000          0.318313E-03
      0.260000          0.311410E-03
      0.265000          0.304045E-03
      0.270000          0.296287E-03
      0.275000          0.288211E-03
      0.280000          0.279895E-03
      0.285000          0.271411E-03
      0.290000          0.262831E-03
      0.295000          0.254217E-03
      0.300000          0.245629E-03
      0.305000          0.237118E-03
      0.310000          0.228731E-03
      0.315000          0.220508E-03
      0.320000          0.212488E-03
      0.325000          0.204707E-03
      0.330000          0.197197E-03
      0.335000          0.189991E-03
      0.340000          0.183117E-03
      0.345000          0.176602E-03
      0.350000          0.170471E-03
      0.355000          0.164740E-03
      0.360000          0.159424E-03
      0.365000          0.154526E-03
      0.370000          0.150045E-03
      0.375000          0.145967E-03
      0.380000          0.142273E-03
      0.385000          0.138931E-03
      0.390000          0.135905E-03
      0.395000          0.133152E-03
      0.400000          0.130624E-03
      0.405000          0.128272E-03
      0.410000          0.126048E-03
      0.415000          0.123907E-03
      0.420000          0.121809E-03
      0.425000          0.119723E-03
      0.430000          0.117625E-03
      0.435000          0.115503E-03
      0.440000          0.113354E-03
      0.445000          0.111185E-03
      0.450000          0.109011E-03
      0.455000          0.106855E-03
      0.460000          0.104746E-03
      0.465000          0.102713E-03
      0.470000          0.100789E-03
      0.475000          0.990031E-04
      0.480000          0.973822E-04
      0.485000          0.959464E-04
      0.490000          0.947090E-04
      0.495000          0.936754E-04
      0.500000          0.928427E-04
