 I_abs(s)[cm^-1]/c[mg/ml]
       0.00000          0.139764E-01
      0.500000E-02      0.139118E-01
      0.100000E-01      0.137198E-01
      0.150000E-01      0.134060E-01
      0.200000E-01      0.129793E-01
      0.250000E-01      0.124517E-01
      0.300000E-01      0.118375E-01
      0.350000E-01      0.111530E-01
      0.400000E-01      0.104157E-01
      0.450000E-01      0.964345E-02
      0.500000E-01      0.885387E-02
      0.550000E-01      0.806378E-02
      0.600000E-01      0.728848E-02
      0.650000E-01      0.654141E-02
      0.700000E-01      0.583377E-02
      0.750000E-01      0.517428E-02
      0.800000E-01      0.456918E-02
      0.850000E-01      0.402221E-02
      0.900000E-01      0.353484E-02
      0.950000E-01      0.310644E-02
      0.100000          0.273466E-02
      0.105000          0.241577E-02
      0.110000          0.214499E-02
      0.115000          0.191695E-02
      0.120000          0.172595E-02
      0.125000          0.156628E-02
      0.130000          0.143250E-02
      0.135000          0.131961E-02
      0.140000          0.122318E-02
      0.145000          0.113942E-02
      0.150000          0.106520E-02
      0.155000          0.998040E-03
      0.160000          0.936073E-03
      0.165000          0.877939E-03
      0.170000          0.822718E-03
      0.175000          0.769842E-03
      0.180000          0.719007E-03
      0.185000          0.670099E-03
      0.190000          0.623132E-03
      0.195000          0.578193E-03
      0.200000          0.535413E-03
      0.205000          0.494934E-03
      0.210000          0.456897E-03
      0.215000          0.421431E-03
      0.220000          0.388646E-03
      0.225000          0.358630E-03
      0.230000          0.331449E-03
      0.235000          0.307139E-03
      0.240000          0.285705E-03
      0.245000          0.267112E-03
      0.250000          0.251287E-03
      0.255000          0.238108E-03
      0.260000          0.227409E-03
      0.265000          0.218975E-03
      0.270000          0.212552E-03
      0.275000          0.207848E-03
      0.280000          0.204549E-03
      0.285000          0.202327E-03
      0.290000          0.200854E-03
      0.295000          0.199819E-03
      0.300000          0.198939E-03
      0.305000          0.197968E-03
      0.310000          0.196712E-03
      0.315000          0.195028E-03
      0.320000          0.192829E-03
      0.325000          0.190084E-03
      0.330000          0.186807E-03
      0.335000          0.183059E-03
      0.340000          0.178930E-03
      0.345000          0.174535E-03
      0.350000          0.170000E-03
      0.355000          0.165452E-03
      0.360000          0.161011E-03
      0.365000          0.156786E-03
      0.370000          0.152861E-03
      0.375000          0.149302E-03
      0.380000          0.146145E-03
      0.385000          0.143405E-03
      0.390000          0.141071E-03
      0.395000          0.139114E-03
      0.400000          0.137485E-03
      0.405000          0.136123E-03
      0.410000          0.134960E-03
      0.415000          0.133920E-03
      0.420000          0.132928E-03
      0.425000          0.131912E-03
      0.430000          0.130806E-03
      0.435000          0.129554E-03
      0.440000          0.128113E-03
      0.445000          0.126451E-03
      0.450000          0.124552E-03
      0.455000          0.122416E-03
      0.460000          0.120057E-03
      0.465000          0.117505E-03
      0.470000          0.114799E-03
      0.475000          0.111990E-03
      0.480000          0.109137E-03
      0.485000          0.106300E-03
      0.490000          0.103539E-03
      0.495000          0.100912E-03
      0.500000          0.984662E-04
