 I_abs(s)[cm^-1]/c[mg/ml]
       0.00000          0.136128E-01
      0.500000E-02      0.135442E-01
      0.100000E-01      0.133408E-01
      0.150000E-01      0.130086E-01
      0.200000E-01      0.125578E-01
      0.250000E-01      0.120017E-01
      0.300000E-01      0.113566E-01
      0.350000E-01      0.106407E-01
      0.400000E-01      0.987348E-02
      0.450000E-01      0.907487E-02
      0.500000E-01      0.826444E-02
      0.550000E-01      0.746067E-02
      0.600000E-01      0.668027E-02
      0.650000E-01      0.593767E-02
      0.700000E-01      0.524465E-02
      0.750000E-01      0.461009E-02
      0.800000E-01      0.403992E-02
      0.850000E-01      0.353714E-02
      0.900000E-01      0.310206E-02
      0.950000E-01      0.273262E-02
      0.100000          0.242473E-02
      0.105000          0.217275E-02
      0.110000          0.196995E-02
      0.115000          0.180895E-02
      0.120000          0.168218E-02
      0.125000          0.158223E-02
      0.130000          0.150220E-02
      0.135000          0.143591E-02
      0.140000          0.137811E-02
      0.145000          0.132452E-02
      0.150000          0.127190E-02
      0.155000          0.121801E-02
      0.160000          0.116150E-02
      0.165000          0.110179E-02
      0.170000          0.103896E-02
      0.175000          0.973596E-03
      0.180000          0.906597E-03
      0.185000          0.839076E-03
      0.190000          0.772219E-03
      0.195000          0.707182E-03
      0.200000          0.645010E-03
      0.205000          0.586583E-03
      0.210000          0.532578E-03
      0.215000          0.483455E-03
      0.220000          0.439462E-03
      0.225000          0.400648E-03
      0.230000          0.366887E-03
      0.235000          0.337914E-03
      0.240000          0.313354E-03
      0.245000          0.292758E-03
      0.250000          0.275638E-03
      0.255000          0.261492E-03
      0.260000          0.249829E-03
      0.265000          0.240189E-03
      0.270000          0.232157E-03
      0.275000          0.225370E-03
      0.280000          0.219524E-03
      0.285000          0.214372E-03
      0.290000          0.209722E-03
      0.295000          0.205432E-03
      0.300000          0.201405E-03
      0.305000          0.197576E-03
      0.310000          0.193909E-03
      0.315000          0.190386E-03
      0.320000          0.187002E-03
      0.325000          0.183759E-03
      0.330000          0.180658E-03
      0.335000          0.177700E-03
      0.340000          0.174879E-03
      0.345000          0.172187E-03
      0.350000          0.169608E-03
      0.355000          0.167122E-03
      0.360000          0.164707E-03
      0.365000          0.162336E-03
      0.370000          0.159985E-03
      0.375000          0.157629E-03
      0.380000          0.155246E-03
      0.385000          0.152818E-03
      0.390000          0.150330E-03
      0.395000          0.147771E-03
      0.400000          0.145133E-03
      0.405000          0.142414E-03
      0.410000          0.139612E-03
      0.415000          0.136730E-03
      0.420000          0.133775E-03
      0.425000          0.130754E-03
      0.430000          0.127677E-03
      0.435000          0.124557E-03
      0.440000          0.121410E-03
      0.445000          0.118254E-03
      0.450000          0.115109E-03
      0.455000          0.111999E-03
      0.460000          0.108950E-03
      0.465000          0.105988E-03
      0.470000          0.103142E-03
      0.475000          0.100440E-03
      0.480000          0.979088E-04
      0.485000          0.955730E-04
      0.490000          0.934534E-04
      0.495000          0.915658E-04
      0.500000          0.899197E-04
