 I_abs(s)[cm^-1]/c[mg/ml]
       0.00000          0.135897E-01
      0.500000E-02      0.135117E-01
      0.100000E-01      0.132805E-01
      0.150000E-01      0.129051E-01
      0.200000E-01      0.123997E-01
      0.250000E-01      0.117832E-01
      0.300000E-01      0.110776E-01
      0.350000E-01      0.103073E-01
      0.400000E-01      0.949763E-02
      0.450000E-01      0.867333E-02
      0.500000E-01      0.785752E-02
      0.550000E-01      0.707061E-02
      0.600000E-01      0.632947E-02
      0.650000E-01      0.564697E-02
      0.700000E-01      0.503167E-02
      0.750000E-01      0.448790E-02
      0.800000E-01      0.401608E-02
      0.850000E-01      0.361320E-02
      0.900000E-01      0.327355E-02
      0.950000E-01      0.298944E-02
      0.100000          0.275202E-02
      0.105000          0.255204E-02
      0.110000          0.238056E-02
      0.115000          0.222941E-02
      0.120000          0.209172E-02
      0.125000          0.196205E-02
      0.130000          0.183655E-02
      0.135000          0.171287E-02
      0.140000          0.159001E-02
      0.145000          0.146807E-02
      0.150000          0.134797E-02
      0.155000          0.123111E-02
      0.160000          0.111912E-02
      0.165000          0.101359E-02
      0.170000          0.915888E-03
      0.175000          0.826996E-03
      0.180000          0.747474E-03
      0.185000          0.677434E-03
      0.190000          0.616581E-03
      0.195000          0.564282E-03
      0.200000          0.519660E-03
      0.205000          0.481693E-03
      0.210000          0.449307E-03
      0.215000          0.421462E-03
      0.220000          0.397208E-03
      0.225000          0.375729E-03
      0.230000          0.356364E-03
      0.235000          0.338605E-03
      0.240000          0.322086E-03
      0.245000          0.306562E-03
      0.250000          0.291880E-03
      0.255000          0.277957E-03
      0.260000          0.264753E-03
      0.265000          0.252255E-03
      0.270000          0.240460E-03
      0.275000          0.229373E-03
      0.280000          0.218996E-03
      0.285000          0.209333E-03
      0.290000          0.200385E-03
      0.295000          0.192156E-03
      0.300000          0.184646E-03
      0.305000          0.177856E-03
      0.310000          0.171778E-03
      0.315000          0.166398E-03
      0.320000          0.161691E-03
      0.325000          0.157615E-03
      0.330000          0.154117E-03
      0.335000          0.151125E-03
      0.340000          0.148561E-03
      0.345000          0.146336E-03
      0.350000          0.144361E-03
      0.355000          0.142549E-03
      0.360000          0.140825E-03
      0.365000          0.139126E-03
      0.370000          0.137402E-03
      0.375000          0.135625E-03
      0.380000          0.133777E-03
      0.385000          0.131857E-03
      0.390000          0.129871E-03
      0.395000          0.127829E-03
      0.400000          0.125744E-03
      0.405000          0.123626E-03
      0.410000          0.121480E-03
      0.415000          0.119307E-03
      0.420000          0.117105E-03
      0.425000          0.114868E-03
      0.430000          0.112595E-03
      0.435000          0.110285E-03
      0.440000          0.107947E-03
      0.445000          0.105598E-03
      0.450000          0.103263E-03
      0.455000          0.100977E-03
      0.460000          0.987786E-04
      0.465000          0.967105E-04
      0.470000          0.948126E-04
      0.475000          0.931185E-04
      0.480000          0.916512E-04
      0.485000          0.904200E-04
      0.490000          0.894189E-04
      0.495000          0.886259E-04
      0.500000          0.880050E-04
