 I_abs(s)[cm^-1]/c[mg/ml]
       0.00000          0.136820E-01
      0.500000E-02      0.136160E-01
      0.100000E-01      0.134200E-01
      0.150000E-01      0.130999E-01
      0.200000E-01      0.126654E-01
      0.250000E-01      0.121292E-01
      0.300000E-01      0.115069E-01
      0.350000E-01      0.108158E-01
      0.400000E-01      0.100746E-01
      0.450000E-01      0.930226E-02
      0.500000E-01      0.851749E-02
      0.550000E-01      0.773789E-02
      0.600000E-01      0.697938E-02
      0.650000E-01      0.625569E-02
      0.700000E-01      0.557800E-02
      0.750000E-01      0.495471E-02
      0.800000E-01      0.439138E-02
      0.850000E-01      0.389082E-02
      0.900000E-01      0.345326E-02
      0.950000E-01      0.307667E-02
      0.100000          0.275717E-02
      0.105000          0.248942E-02
      0.110000          0.226710E-02
      0.115000          0.208335E-02
      0.120000          0.193121E-02
      0.125000          0.180395E-02
      0.130000          0.169538E-02
      0.135000          0.160009E-02
      0.140000          0.151355E-02
      0.145000          0.143223E-02
      0.150000          0.135356E-02
      0.155000          0.127588E-02
      0.160000          0.119834E-02
      0.165000          0.112074E-02
      0.170000          0.104338E-02
      0.175000          0.966942E-03
      0.180000          0.892255E-03
      0.185000          0.820231E-03
      0.190000          0.751723E-03
      0.195000          0.687448E-03
      0.200000          0.627930E-03
      0.205000          0.573477E-03
      0.210000          0.524175E-03
      0.215000          0.479910E-03
      0.220000          0.440397E-03
      0.225000          0.405227E-03
      0.230000          0.373910E-03
      0.235000          0.345922E-03
      0.240000          0.320747E-03
      0.245000          0.297908E-03
      0.250000          0.276996E-03
      0.255000          0.257682E-03
      0.260000          0.239724E-03
      0.265000          0.222963E-03
      0.270000          0.207318E-03
      0.275000          0.192765E-03
      0.280000          0.179326E-03
      0.285000          0.167049E-03
      0.290000          0.155988E-03
      0.295000          0.146194E-03
      0.300000          0.137695E-03
      0.305000          0.130495E-03
      0.310000          0.124562E-03
      0.315000          0.119834E-03
      0.320000          0.116216E-03
      0.325000          0.113584E-03
      0.330000          0.111797E-03
      0.335000          0.110698E-03
      0.340000          0.110126E-03
      0.345000          0.109924E-03
      0.350000          0.109943E-03
      0.355000          0.110052E-03
      0.360000          0.110137E-03
      0.365000          0.110110E-03
      0.370000          0.109906E-03
      0.375000          0.109484E-03
      0.380000          0.108828E-03
      0.385000          0.107941E-03
      0.390000          0.106844E-03
      0.395000          0.105571E-03
      0.400000          0.104166E-03
      0.405000          0.102680E-03
      0.410000          0.101165E-03
      0.415000          0.996719E-04
      0.420000          0.982465E-04
      0.425000          0.969283E-04
      0.430000          0.957482E-04
      0.435000          0.947274E-04
      0.440000          0.938769E-04
      0.445000          0.931977E-04
      0.450000          0.926816E-04
      0.455000          0.923122E-04
      0.460000          0.920667E-04
      0.465000          0.919172E-04
      0.470000          0.918334E-04
      0.475000          0.917837E-04
      0.480000          0.917381E-04
      0.485000          0.916692E-04
      0.490000          0.915542E-04
      0.495000          0.913756E-04
      0.500000          0.911225E-04
