 I_abs(s)[cm^-1]/c[mg/ml]
       0.00000          0.143527E-01
      0.500000E-02      0.142737E-01
      0.100000E-01      0.140398E-01
      0.150000E-01      0.136601E-01
      0.200000E-01      0.131490E-01
      0.250000E-01      0.125252E-01
      0.300000E-01      0.118107E-01
      0.350000E-01      0.110291E-01
      0.400000E-01      0.102044E-01
      0.450000E-01      0.935957E-02
      0.500000E-01      0.851541E-02
      0.550000E-01      0.768989E-02
      0.600000E-01      0.689746E-02
      0.650000E-01      0.614894E-02
      0.700000E-01      0.545159E-02
      0.750000E-01      0.480947E-02
      0.800000E-01      0.422399E-02
      0.850000E-01      0.369447E-02
      0.900000E-01      0.321887E-02
      0.950000E-01      0.279427E-02
      0.100000          0.241745E-02
      0.105000          0.208515E-02
      0.110000          0.179433E-02
      0.115000          0.154221E-02
      0.120000          0.132625E-02
      0.125000          0.114405E-02
      0.130000          0.993204E-03
      0.135000          0.871170E-03
      0.140000          0.775202E-03
      0.145000          0.702290E-03
      0.150000          0.649187E-03
      0.155000          0.612483E-03
      0.160000          0.588721E-03
      0.165000          0.574536E-03
      0.170000          0.566796E-03
      0.175000          0.562729E-03
      0.180000          0.560013E-03
      0.185000          0.556834E-03
      0.190000          0.551898E-03
      0.195000          0.544402E-03
      0.200000          0.533979E-03
      0.205000          0.520616E-03
      0.210000          0.504575E-03
      0.215000          0.486301E-03
      0.220000          0.466348E-03
      0.225000          0.445319E-03
      0.230000          0.423818E-03
      0.235000          0.402422E-03
      0.240000          0.381658E-03
      0.245000          0.361995E-03
      0.250000          0.343834E-03
      0.255000          0.327502E-03
      0.260000          0.313244E-03
      0.265000          0.301217E-03
      0.270000          0.291479E-03
      0.275000          0.283987E-03
      0.280000          0.278593E-03
      0.285000          0.275053E-03
      0.290000          0.273037E-03
      0.295000          0.272149E-03
      0.300000          0.271955E-03
      0.305000          0.272012E-03
      0.310000          0.271897E-03
      0.315000          0.271236E-03
      0.320000          0.269724E-03
      0.325000          0.267144E-03
      0.330000          0.263368E-03
      0.335000          0.258364E-03
      0.340000          0.252179E-03
      0.345000          0.244930E-03
      0.350000          0.236786E-03
      0.355000          0.227947E-03
      0.360000          0.218632E-03
      0.365000          0.209062E-03
      0.370000          0.199448E-03
      0.375000          0.189984E-03
      0.380000          0.180843E-03
      0.385000          0.172173E-03
      0.390000          0.164098E-03
      0.395000          0.156713E-03
      0.400000          0.150086E-03
      0.405000          0.144255E-03
      0.410000          0.139227E-03
      0.415000          0.134978E-03
      0.420000          0.131454E-03
      0.425000          0.128570E-03
      0.430000          0.126220E-03
      0.435000          0.124278E-03
      0.440000          0.122614E-03
      0.445000          0.121097E-03
      0.450000          0.119611E-03
      0.455000          0.118062E-03
      0.460000          0.116384E-03
      0.465000          0.114544E-03
      0.470000          0.112544E-03
      0.475000          0.110414E-03
      0.480000          0.108209E-03
      0.485000          0.105997E-03
      0.490000          0.103852E-03
      0.495000          0.101843E-03
      0.500000          0.100025E-03
