 I_abs(s)[cm^-1]/c[mg/ml]
       0.00000          0.140856E-01
      0.500000E-02      0.140233E-01
      0.100000E-01      0.138379E-01
      0.150000E-01      0.135346E-01
      0.200000E-01      0.131219E-01
      0.250000E-01      0.126109E-01
      0.300000E-01      0.120151E-01
      0.350000E-01      0.113499E-01
      0.400000E-01      0.106318E-01
      0.450000E-01      0.987773E-02
      0.500000E-01      0.910461E-02
      0.550000E-01      0.832855E-02
      0.600000E-01      0.756441E-02
      0.650000E-01      0.682535E-02
      0.700000E-01      0.612248E-02
      0.750000E-01      0.546465E-02
      0.800000E-01      0.485835E-02
      0.850000E-01      0.430775E-02
      0.900000E-01      0.381476E-02
      0.950000E-01      0.337929E-02
      0.100000          0.299951E-02
      0.105000          0.267215E-02
      0.110000          0.239284E-02
      0.115000          0.215649E-02
      0.120000          0.195756E-02
      0.125000          0.179042E-02
      0.130000          0.164957E-02
      0.135000          0.152987E-02
      0.140000          0.142667E-02
      0.145000          0.133594E-02
      0.150000          0.125430E-02
      0.155000          0.117904E-02
      0.160000          0.110810E-02
      0.165000          0.104001E-02
      0.170000          0.973807E-03
      0.175000          0.908970E-03
      0.180000          0.845319E-03
      0.185000          0.782938E-03
      0.190000          0.722088E-03
      0.195000          0.663144E-03
      0.200000          0.606533E-03
      0.205000          0.552690E-03
      0.210000          0.502019E-03
      0.215000          0.454873E-03
      0.220000          0.411531E-03
      0.225000          0.372193E-03
      0.230000          0.336973E-03
      0.235000          0.305903E-03
      0.240000          0.278931E-03
      0.245000          0.255931E-03
      0.250000          0.236708E-03
      0.255000          0.221006E-03
      0.260000          0.208522E-03
      0.265000          0.198910E-03
      0.270000          0.191796E-03
      0.275000          0.186790E-03
      0.280000          0.183498E-03
      0.285000          0.181531E-03
      0.290000          0.180518E-03
      0.295000          0.180117E-03
      0.300000          0.180021E-03
      0.305000          0.179966E-03
      0.310000          0.179738E-03
      0.315000          0.179169E-03
      0.320000          0.178141E-03
      0.325000          0.176585E-03
      0.330000          0.174474E-03
      0.335000          0.171817E-03
      0.340000          0.168655E-03
      0.345000          0.165053E-03
      0.350000          0.161091E-03
      0.355000          0.156858E-03
      0.360000          0.152449E-03
      0.365000          0.147952E-03
      0.370000          0.143454E-03
      0.375000          0.139031E-03
      0.380000          0.134746E-03
      0.385000          0.130653E-03
      0.390000          0.126793E-03
      0.395000          0.123196E-03
      0.400000          0.119883E-03
      0.405000          0.116863E-03
      0.410000          0.114139E-03
      0.415000          0.111707E-03
      0.420000          0.109557E-03
      0.425000          0.107672E-03
      0.430000          0.106033E-03
      0.435000          0.104617E-03
      0.440000          0.103398E-03
      0.445000          0.102345E-03
      0.450000          0.101429E-03
      0.455000          0.100618E-03
      0.460000          0.998814E-04
      0.465000          0.991878E-04
      0.470000          0.985091E-04
      0.475000          0.978199E-04
      0.480000          0.970981E-04
      0.485000          0.963260E-04
      0.490000          0.954903E-04
      0.495000          0.945824E-04
      0.500000          0.935980E-04
