 I_abs(s)[cm^-1]/c[mg/ml]
       0.00000          0.134671E-01
      0.500000E-02      0.133864E-01
      0.100000E-01      0.131473E-01
      0.150000E-01      0.127591E-01
      0.200000E-01      0.122364E-01
      0.250000E-01      0.115985E-01
      0.300000E-01      0.108684E-01
      0.350000E-01      0.100710E-01
      0.400000E-01      0.923235E-02
      0.450000E-01      0.837784E-02
      0.500000E-01      0.753120E-02
      0.550000E-01      0.671343E-02
      0.600000E-01      0.594198E-02
      0.650000E-01      0.523030E-02
      0.700000E-01      0.458757E-02
      0.750000E-01      0.401883E-02
      0.800000E-01      0.352527E-02
      0.850000E-01      0.310471E-02
      0.900000E-01      0.275231E-02
      0.950000E-01      0.246125E-02
      0.100000          0.222346E-02
      0.105000          0.203028E-02
      0.110000          0.187312E-02
      0.115000          0.174388E-02
      0.120000          0.163533E-02
      0.125000          0.154134E-02
      0.130000          0.145695E-02
      0.135000          0.137840E-02
      0.140000          0.130300E-02
      0.145000          0.122906E-02
      0.150000          0.115565E-02
      0.155000          0.108249E-02
      0.160000          0.100972E-02
      0.165000          0.937787E-03
      0.170000          0.867334E-03
      0.175000          0.799069E-03
      0.180000          0.733712E-03
      0.185000          0.671939E-03
      0.190000          0.614347E-03
      0.195000          0.561431E-03
      0.200000          0.513562E-03
      0.205000          0.470982E-03
      0.210000          0.433792E-03
      0.215000          0.401951E-03
      0.220000          0.375278E-03
      0.225000          0.353464E-03
      0.230000          0.336083E-03
      0.235000          0.322615E-03
      0.240000          0.312476E-03
      0.245000          0.305045E-03
      0.250000          0.299698E-03
      0.255000          0.295835E-03
      0.260000          0.292913E-03
      0.265000          0.290460E-03
      0.270000          0.288089E-03
      0.275000          0.285505E-03
      0.280000          0.282501E-03
      0.285000          0.278952E-03
      0.290000          0.274797E-03
      0.295000          0.270030E-03
      0.300000          0.264681E-03
      0.305000          0.258806E-03
      0.310000          0.252470E-03
      0.315000          0.245748E-03
      0.320000          0.238712E-03
      0.325000          0.231436E-03
      0.330000          0.223991E-03
      0.335000          0.216451E-03
      0.340000          0.208888E-03
      0.345000          0.201376E-03
      0.350000          0.193987E-03
      0.355000          0.186790E-03
      0.360000          0.179847E-03
      0.365000          0.173207E-03
      0.370000          0.166908E-03
      0.375000          0.160970E-03
      0.380000          0.155394E-03
      0.385000          0.150169E-03
      0.390000          0.145272E-03
      0.395000          0.140669E-03
      0.400000          0.136328E-03
      0.405000          0.132219E-03
      0.410000          0.128320E-03
      0.415000          0.124618E-03
      0.420000          0.121116E-03
      0.425000          0.117824E-03
      0.430000          0.114763E-03
      0.435000          0.111959E-03
      0.440000          0.109435E-03
      0.445000          0.107210E-03
      0.450000          0.105293E-03
      0.455000          0.103681E-03
      0.460000          0.102357E-03
      0.465000          0.101293E-03
      0.470000          0.100449E-03
      0.475000          0.997784E-04
      0.480000          0.992354E-04
      0.485000          0.987754E-04
      0.490000          0.983609E-04
      0.495000          0.979645E-04
      0.500000          0.975698E-04
