 I_abs(s)[cm^-1]/c[mg/ml]
       0.00000          0.137824E-01
      0.500000E-02      0.137143E-01
      0.100000E-01      0.135124E-01
      0.150000E-01      0.131834E-01
      0.200000E-01      0.127380E-01
      0.250000E-01      0.121905E-01
      0.300000E-01      0.115581E-01
      0.350000E-01      0.108596E-01
      0.400000E-01      0.101153E-01
      0.450000E-01      0.934496E-02
      0.500000E-01      0.856804E-02
      0.550000E-01      0.780215E-02
      0.600000E-01      0.706271E-02
      0.650000E-01      0.636240E-02
      0.700000E-01      0.571090E-02
      0.750000E-01      0.511479E-02
      0.800000E-01      0.457762E-02
      0.850000E-01      0.410014E-02
      0.900000E-01      0.368070E-02
      0.950000E-01      0.331569E-02
      0.100000          0.300006E-02
      0.105000          0.272784E-02
      0.110000          0.249262E-02
      0.115000          0.228804E-02
      0.120000          0.210811E-02
      0.125000          0.194751E-02
      0.130000          0.180178E-02
      0.135000          0.166739E-02
      0.140000          0.154174E-02
      0.145000          0.142313E-02
      0.150000          0.131058E-02
      0.155000          0.120374E-02
      0.160000          0.110265E-02
      0.165000          0.100766E-02
      0.170000          0.919189E-03
      0.175000          0.837655E-03
      0.180000          0.763363E-03
      0.185000          0.696442E-03
      0.190000          0.636822E-03
      0.195000          0.584225E-03
      0.200000          0.538196E-03
      0.205000          0.498133E-03
      0.210000          0.463341E-03
      0.215000          0.433075E-03
      0.220000          0.406593E-03
      0.225000          0.383188E-03
      0.230000          0.362228E-03
      0.235000          0.343167E-03
      0.240000          0.325561E-03
      0.245000          0.309065E-03
      0.250000          0.293429E-03
      0.255000          0.278488E-03
      0.260000          0.264142E-03
      0.265000          0.250349E-03
      0.270000          0.237101E-03
      0.275000          0.224419E-03
      0.280000          0.212336E-03
      0.285000          0.200893E-03
      0.290000          0.190128E-03
      0.295000          0.180075E-03
      0.300000          0.170761E-03
      0.305000          0.162201E-03
      0.310000          0.154402E-03
      0.315000          0.147359E-03
      0.320000          0.141053E-03
      0.325000          0.135458E-03
      0.330000          0.130534E-03
      0.335000          0.126233E-03
      0.340000          0.122500E-03
      0.345000          0.119272E-03
      0.350000          0.116484E-03
      0.355000          0.114070E-03
      0.360000          0.111969E-03
      0.365000          0.110122E-03
      0.370000          0.108482E-03
      0.375000          0.107010E-03
      0.380000          0.105677E-03
      0.385000          0.104467E-03
      0.390000          0.103375E-03
      0.395000          0.102400E-03
      0.400000          0.101551E-03
      0.405000          0.100837E-03
      0.410000          0.100269E-03
      0.415000          0.998526E-04
      0.420000          0.995891E-04
      0.425000          0.994729E-04
      0.430000          0.994904E-04
      0.435000          0.996210E-04
      0.440000          0.998378E-04
      0.445000          0.100109E-03
      0.450000          0.100403E-03
      0.455000          0.100685E-03
      0.460000          0.100927E-03
      0.465000          0.101105E-03
      0.470000          0.101201E-03
      0.475000          0.101208E-03
      0.480000          0.101123E-03
      0.485000          0.100955E-03
      0.490000          0.100718E-03
      0.495000          0.100428E-03
      0.500000          0.100106E-03
