 I_abs(s)[cm^-1]/c[mg/ml]
       0.00000          0.139142E-01
      0.500000E-02      0.138538E-01
      0.100000E-01      0.136744E-01
      0.150000E-01      0.133810E-01
      0.200000E-01      0.129819E-01
      0.250000E-01      0.124879E-01
      0.300000E-01      0.119123E-01
      0.350000E-01      0.112700E-01
      0.400000E-01      0.105771E-01
      0.450000E-01      0.984982E-02
      0.500000E-01      0.910451E-02
      0.550000E-01      0.835655E-02
      0.600000E-01      0.762005E-02
      0.650000E-01      0.690735E-02
      0.700000E-01      0.622879E-02
      0.750000E-01      0.559246E-02
      0.800000E-01      0.500414E-02
      0.850000E-01      0.446738E-02
      0.900000E-01      0.398362E-02
      0.950000E-01      0.355244E-02
      0.100000          0.317181E-02
      0.105000          0.283850E-02
      0.110000          0.254833E-02
      0.115000          0.229660E-02
      0.120000          0.207834E-02
      0.125000          0.188864E-02
      0.130000          0.172281E-02
      0.135000          0.157664E-02
      0.140000          0.144645E-02
      0.145000          0.132915E-02
      0.150000          0.122230E-02
      0.155000          0.112405E-02
      0.160000          0.103304E-02
      0.165000          0.948394E-03
      0.170000          0.869575E-03
      0.175000          0.796300E-03
      0.180000          0.728450E-03
      0.185000          0.665993E-03
      0.190000          0.608918E-03
      0.195000          0.557183E-03
      0.200000          0.510690E-03
      0.205000          0.469263E-03
      0.210000          0.432650E-03
      0.215000          0.400531E-03
      0.220000          0.372530E-03
      0.225000          0.348237E-03
      0.230000          0.327228E-03
      0.235000          0.309081E-03
      0.240000          0.293397E-03
      0.245000          0.279809E-03
      0.250000          0.267988E-03
      0.255000          0.257651E-03
      0.260000          0.248556E-03
      0.265000          0.240501E-03
      0.270000          0.233318E-03
      0.275000          0.226866E-03
      0.280000          0.221026E-03
      0.285000          0.215693E-03
      0.290000          0.210772E-03
      0.295000          0.206176E-03
      0.300000          0.201823E-03
      0.305000          0.197636E-03
      0.310000          0.193546E-03
      0.315000          0.189492E-03
      0.320000          0.185423E-03
      0.325000          0.181306E-03
      0.330000          0.177121E-03
      0.335000          0.172865E-03
      0.340000          0.168556E-03
      0.345000          0.164228E-03
      0.350000          0.159928E-03
      0.355000          0.155719E-03
      0.360000          0.151668E-03
      0.365000          0.147846E-03
      0.370000          0.144324E-03
      0.375000          0.141162E-03
      0.380000          0.138409E-03
      0.385000          0.136098E-03
      0.390000          0.134241E-03
      0.395000          0.132830E-03
      0.400000          0.131833E-03
      0.405000          0.131199E-03
      0.410000          0.130859E-03
      0.415000          0.130727E-03
      0.420000          0.130710E-03
      0.425000          0.130707E-03
      0.430000          0.130619E-03
      0.435000          0.130353E-03
      0.440000          0.129827E-03
      0.445000          0.128973E-03
      0.450000          0.127742E-03
      0.455000          0.126102E-03
      0.460000          0.124045E-03
      0.465000          0.121580E-03
      0.470000          0.118735E-03
      0.475000          0.115554E-03
      0.480000          0.112090E-03
      0.485000          0.108408E-03
      0.490000          0.104577E-03
      0.495000          0.100664E-03
      0.500000          0.967383E-04
