 I_abs(s)[cm^-1]/c[mg/ml]
       0.00000          0.139453E-01
      0.500000E-02      0.138624E-01
      0.100000E-01      0.136171E-01
      0.150000E-01      0.132186E-01
      0.200000E-01      0.126820E-01
      0.250000E-01      0.120270E-01
      0.300000E-01      0.112769E-01
      0.350000E-01      0.104574E-01
      0.400000E-01      0.959499E-02
      0.450000E-01      0.871562E-02
      0.500000E-01      0.784360E-02
      0.550000E-01      0.700039E-02
      0.600000E-01      0.620384E-02
      0.650000E-01      0.546767E-02
      0.700000E-01      0.480123E-02
      0.750000E-01      0.420958E-02
      0.800000E-01      0.369382E-02
      0.850000E-01      0.325163E-02
      0.900000E-01      0.287792E-02
      0.950000E-01      0.256560E-02
      0.100000          0.230638E-02
      0.105000          0.209143E-02
      0.110000          0.191207E-02
      0.115000          0.176027E-02
      0.120000          0.162900E-02
      0.125000          0.151247E-02
      0.130000          0.140622E-02
      0.135000          0.130707E-02
      0.140000          0.121299E-02
      0.145000          0.112294E-02
      0.150000          0.103660E-02
      0.155000          0.954182E-03
      0.160000          0.876173E-03
      0.165000          0.803170E-03
      0.170000          0.735729E-03
      0.175000          0.674264E-03
      0.180000          0.618989E-03
      0.185000          0.569902E-03
      0.190000          0.526798E-03
      0.195000          0.489300E-03
      0.200000          0.456911E-03
      0.205000          0.429060E-03
      0.210000          0.405149E-03
      0.215000          0.384600E-03
      0.220000          0.366878E-03
      0.225000          0.351515E-03
      0.230000          0.338115E-03
      0.235000          0.326356E-03
      0.240000          0.315984E-03
      0.245000          0.306795E-03
      0.250000          0.298628E-03
      0.255000          0.291348E-03
      0.260000          0.284833E-03
      0.265000          0.278965E-03
      0.270000          0.273624E-03
      0.275000          0.268685E-03
      0.280000          0.264016E-03
      0.285000          0.259485E-03
      0.290000          0.254962E-03
      0.295000          0.250327E-03
      0.300000          0.245474E-03
      0.305000          0.240323E-03
      0.310000          0.234822E-03
      0.315000          0.228948E-03
      0.320000          0.222717E-03
      0.325000          0.216173E-03
      0.330000          0.209394E-03
      0.335000          0.202481E-03
      0.340000          0.195553E-03
      0.345000          0.188740E-03
      0.350000          0.182170E-03
      0.355000          0.175966E-03
      0.360000          0.170234E-03
      0.365000          0.165058E-03
      0.370000          0.160492E-03
      0.375000          0.156565E-03
      0.380000          0.153272E-03
      0.385000          0.150579E-03
      0.390000          0.148429E-03
      0.395000          0.146740E-03
      0.400000          0.145419E-03
      0.405000          0.144363E-03
      0.410000          0.143465E-03
      0.415000          0.142625E-03
      0.420000          0.141752E-03
      0.425000          0.140767E-03
      0.430000          0.139609E-03
      0.435000          0.138237E-03
      0.440000          0.136628E-03
      0.445000          0.134777E-03
      0.450000          0.132696E-03
      0.455000          0.130412E-03
      0.460000          0.127961E-03
      0.465000          0.125386E-03
      0.470000          0.122734E-03
      0.475000          0.120051E-03
      0.480000          0.117380E-03
      0.485000          0.114758E-03
      0.490000          0.112216E-03
      0.495000          0.109776E-03
      0.500000          0.107452E-03
