 I_abs(s)[cm^-1]/c[mg/ml]
       0.00000          0.131933E-01
      0.500000E-02      0.131066E-01
      0.100000E-01      0.128504E-01
      0.150000E-01      0.124359E-01
      0.200000E-01      0.118812E-01
      0.250000E-01      0.112098E-01
      0.300000E-01      0.104492E-01
      0.350000E-01      0.962878E-02
      0.400000E-01      0.877859E-02
      0.450000E-01      0.792713E-02
      0.500000E-01      0.710003E-02
      0.550000E-01      0.631878E-02
      0.600000E-01      0.559993E-02
      0.650000E-01      0.495473E-02
      0.700000E-01      0.438909E-02
      0.750000E-01      0.390400E-02
      0.800000E-01      0.349622E-02
      0.850000E-01      0.315918E-02
      0.900000E-01      0.288397E-02
      0.950000E-01      0.266036E-02
      0.100000          0.247776E-02
      0.105000          0.232605E-02
      0.110000          0.219614E-02
      0.115000          0.208043E-02
      0.120000          0.197301E-02
      0.125000          0.186965E-02
      0.130000          0.176771E-02
      0.135000          0.166589E-02
      0.140000          0.156392E-02
      0.145000          0.146228E-02
      0.150000          0.136186E-02
      0.155000          0.126375E-02
      0.160000          0.116902E-02
      0.165000          0.107859E-02
      0.170000          0.993179E-03
      0.175000          0.913238E-03
      0.180000          0.839012E-03
      0.185000          0.770546E-03
      0.190000          0.707741E-03
      0.195000          0.650396E-03
      0.200000          0.598243E-03
      0.205000          0.550981E-03
      0.210000          0.508286E-03
      0.215000          0.469822E-03
      0.220000          0.435249E-03
      0.225000          0.404220E-03
      0.230000          0.376386E-03
      0.235000          0.351401E-03
      0.240000          0.328930E-03
      0.245000          0.308658E-03
      0.250000          0.290300E-03
      0.255000          0.273609E-03
      0.260000          0.258379E-03
      0.265000          0.244450E-03
      0.270000          0.231698E-03
      0.275000          0.220034E-03
      0.280000          0.209390E-03
      0.285000          0.199709E-03
      0.290000          0.190938E-03
      0.295000          0.183017E-03
      0.300000          0.175881E-03
      0.305000          0.169454E-03
      0.310000          0.163654E-03
      0.315000          0.158404E-03
      0.320000          0.153632E-03
      0.325000          0.149282E-03
      0.330000          0.145318E-03
      0.335000          0.141727E-03
      0.340000          0.138516E-03
      0.345000          0.135711E-03
      0.350000          0.133347E-03
      0.355000          0.131461E-03
      0.360000          0.130083E-03
      0.365000          0.129226E-03
      0.370000          0.128880E-03
      0.375000          0.129010E-03
      0.380000          0.129550E-03
      0.385000          0.130410E-03
      0.390000          0.131476E-03
      0.395000          0.132622E-03
      0.400000          0.133715E-03
      0.405000          0.134624E-03
      0.410000          0.135227E-03
      0.415000          0.135424E-03
      0.420000          0.135134E-03
      0.425000          0.134306E-03
      0.430000          0.132916E-03
      0.435000          0.130969E-03
      0.440000          0.128497E-03
      0.445000          0.125555E-03
      0.450000          0.122219E-03
      0.455000          0.118580E-03
      0.460000          0.114739E-03
      0.465000          0.110802E-03
      0.470000          0.106877E-03
      0.475000          0.103067E-03
      0.480000          0.994660E-04
      0.485000          0.961574E-04
      0.490000          0.932074E-04
      0.495000          0.906643E-04
      0.500000          0.885564E-04
