 I_abs(s)[cm^-1]/c[mg/ml]
       0.00000          0.139219E-01
      0.500000E-02      0.138561E-01
      0.100000E-01      0.136604E-01
      0.150000E-01      0.133406E-01
      0.200000E-01      0.129059E-01
      0.250000E-01      0.123685E-01
      0.300000E-01      0.117432E-01
      0.350000E-01      0.110467E-01
      0.400000E-01      0.102971E-01
      0.450000E-01      0.951267E-02
      0.500000E-01      0.871177E-02
      0.550000E-01      0.791171E-02
      0.600000E-01      0.712836E-02
      0.650000E-01      0.637565E-02
      0.700000E-01      0.566521E-02
      0.750000E-01      0.500611E-02
      0.800000E-01      0.440482E-02
      0.850000E-01      0.386522E-02
      0.900000E-01      0.338875E-02
      0.950000E-01      0.297465E-02
      0.100000          0.262029E-02
      0.105000          0.232153E-02
      0.110000          0.207311E-02
      0.115000          0.186903E-02
      0.120000          0.170292E-02
      0.125000          0.156840E-02
      0.130000          0.145929E-02
      0.135000          0.136991E-02
      0.140000          0.129521E-02
      0.145000          0.123083E-02
      0.150000          0.117321E-02
      0.155000          0.111957E-02
      0.160000          0.106782E-02
      0.165000          0.101658E-02
      0.170000          0.964987E-03
      0.175000          0.912682E-03
      0.180000          0.859658E-03
      0.185000          0.806177E-03
      0.190000          0.752680E-03
      0.195000          0.699711E-03
      0.200000          0.647850E-03
      0.205000          0.597666E-03
      0.210000          0.549683E-03
      0.215000          0.504348E-03
      0.220000          0.462022E-03
      0.225000          0.422971E-03
      0.230000          0.387368E-03
      0.235000          0.355289E-03
      0.240000          0.326731E-03
      0.245000          0.301613E-03
      0.250000          0.279789E-03
      0.255000          0.261062E-03
      0.260000          0.245191E-03
      0.265000          0.231908E-03
      0.270000          0.220926E-03
      0.275000          0.211951E-03
      0.280000          0.204693E-03
      0.285000          0.198873E-03
      0.290000          0.194232E-03
      0.295000          0.190532E-03
      0.300000          0.187567E-03
      0.305000          0.185158E-03
      0.310000          0.183155E-03
      0.315000          0.181436E-03
      0.320000          0.179902E-03
      0.325000          0.178475E-03
      0.330000          0.177094E-03
      0.335000          0.175710E-03
      0.340000          0.174281E-03
      0.345000          0.172772E-03
      0.350000          0.171149E-03
      0.355000          0.169384E-03
      0.360000          0.167449E-03
      0.365000          0.165320E-03
      0.370000          0.162977E-03
      0.375000          0.160407E-03
      0.380000          0.157604E-03
      0.385000          0.154571E-03
      0.390000          0.151322E-03
      0.395000          0.147881E-03
      0.400000          0.144280E-03
      0.405000          0.140561E-03
      0.410000          0.136770E-03
      0.415000          0.132959E-03
      0.420000          0.129180E-03
      0.425000          0.125481E-03
      0.430000          0.121908E-03
      0.435000          0.118500E-03
      0.440000          0.115286E-03
      0.445000          0.112285E-03
      0.450000          0.109509E-03
      0.455000          0.106959E-03
      0.460000          0.104627E-03
      0.465000          0.102499E-03
      0.470000          0.100557E-03
      0.475000          0.987796E-04
      0.480000          0.971442E-04
      0.485000          0.956306E-04
      0.490000          0.942213E-04
      0.495000          0.929026E-04
      0.500000          0.916654E-04
