 I_abs(s)[cm^-1]/c[mg/ml]
       0.00000          0.143133E-01
      0.500000E-02      0.142520E-01
      0.100000E-01      0.140698E-01
      0.150000E-01      0.137719E-01
      0.200000E-01      0.133666E-01
      0.250000E-01      0.128651E-01
      0.300000E-01      0.122807E-01
      0.350000E-01      0.116286E-01
      0.400000E-01      0.109248E-01
      0.450000E-01      0.101859E-01
      0.500000E-01      0.942804E-02
      0.550000E-01      0.866654E-02
      0.600000E-01      0.791537E-02
      0.650000E-01      0.718669E-02
      0.700000E-01      0.649060E-02
      0.750000E-01      0.583498E-02
      0.800000E-01      0.522547E-02
      0.850000E-01      0.466554E-02
      0.900000E-01      0.415666E-02
      0.950000E-01      0.369855E-02
      0.100000          0.328949E-02
      0.105000          0.292666E-02
      0.110000          0.260644E-02
      0.115000          0.232475E-02
      0.120000          0.207733E-02
      0.125000          0.185995E-02
      0.130000          0.166864E-02
      0.135000          0.149980E-02
      0.140000          0.135025E-02
      0.145000          0.121730E-02
      0.150000          0.109873E-02
      0.155000          0.992754E-03
      0.160000          0.897935E-03
      0.165000          0.813156E-03
      0.170000          0.737523E-03
      0.175000          0.670307E-03
      0.180000          0.610881E-03
      0.185000          0.558678E-03
      0.190000          0.513154E-03
      0.195000          0.473769E-03
      0.200000          0.439973E-03
      0.205000          0.411211E-03
      0.210000          0.386921E-03
      0.215000          0.366548E-03
      0.220000          0.349550E-03
      0.225000          0.335409E-03
      0.230000          0.323639E-03
      0.235000          0.313794E-03
      0.240000          0.305470E-03
      0.245000          0.298308E-03
      0.250000          0.291993E-03
      0.255000          0.286255E-03
      0.260000          0.280866E-03
      0.265000          0.275636E-03
      0.270000          0.270417E-03
      0.275000          0.265092E-03
      0.280000          0.259581E-03
      0.285000          0.253832E-03
      0.290000          0.247822E-03
      0.295000          0.241554E-03
      0.300000          0.235050E-03
      0.305000          0.228352E-03
      0.310000          0.221512E-03
      0.315000          0.214592E-03
      0.320000          0.207659E-03
      0.325000          0.200779E-03
      0.330000          0.194014E-03
      0.335000          0.187420E-03
      0.340000          0.181046E-03
      0.345000          0.174928E-03
      0.350000          0.169095E-03
      0.355000          0.163564E-03
      0.360000          0.158345E-03
      0.365000          0.153439E-03
      0.370000          0.148840E-03
      0.375000          0.144539E-03
      0.380000          0.140522E-03
      0.385000          0.136773E-03
      0.390000          0.133273E-03
      0.395000          0.130004E-03
      0.400000          0.126946E-03
      0.405000          0.124082E-03
      0.410000          0.121391E-03
      0.415000          0.118857E-03
      0.420000          0.116462E-03
      0.425000          0.114193E-03
      0.430000          0.112035E-03
      0.435000          0.109978E-03
      0.440000          0.108014E-03
      0.445000          0.106136E-03
      0.450000          0.104341E-03
      0.455000          0.102627E-03
      0.460000          0.100994E-03
      0.465000          0.994421E-04
      0.470000          0.979722E-04
      0.475000          0.965852E-04
      0.480000          0.952808E-04
      0.485000          0.940577E-04
      0.490000          0.929135E-04
      0.495000          0.918446E-04
      0.500000          0.908466E-04
