 I_abs(s)[cm^-1]/c[mg/ml]
       0.00000          0.140935E-01
      0.500000E-02      0.140271E-01
      0.100000E-01      0.138299E-01
      0.150000E-01      0.135079E-01
      0.200000E-01      0.130707E-01
      0.250000E-01      0.125311E-01
      0.300000E-01      0.119045E-01
      0.350000E-01      0.112082E-01
      0.400000E-01      0.104608E-01
      0.450000E-01      0.968104E-02
      0.500000E-01      0.888740E-02
      0.550000E-01      0.809721E-02
      0.600000E-01      0.732607E-02
      0.650000E-01      0.658738E-02
      0.700000E-01      0.589202E-02
      0.750000E-01      0.524811E-02
      0.800000E-01      0.466104E-02
      0.850000E-01      0.413351E-02
      0.900000E-01      0.366579E-02
      0.950000E-01      0.325605E-02
      0.100000          0.290074E-02
      0.105000          0.259504E-02
      0.110000          0.233328E-02
      0.115000          0.210940E-02
      0.120000          0.191732E-02
      0.125000          0.175125E-02
      0.130000          0.160596E-02
      0.135000          0.147695E-02
      0.140000          0.136054E-02
      0.145000          0.125391E-02
      0.150000          0.115503E-02
      0.155000          0.106261E-02
      0.160000          0.975950E-03
      0.165000          0.894788E-03
      0.170000          0.819179E-03
      0.175000          0.749337E-03
      0.180000          0.685514E-03
      0.185000          0.627900E-03
      0.190000          0.576556E-03
      0.195000          0.531372E-03
      0.200000          0.492056E-03
      0.205000          0.458142E-03
      0.210000          0.429026E-03
      0.215000          0.404008E-03
      0.220000          0.382340E-03
      0.225000          0.363278E-03
      0.230000          0.346128E-03
      0.235000          0.330287E-03
      0.240000          0.315263E-03
      0.245000          0.300699E-03
      0.250000          0.286369E-03
      0.255000          0.272175E-03
      0.260000          0.258130E-03
      0.265000          0.244336E-03
      0.270000          0.230957E-03
      0.275000          0.218193E-03
      0.280000          0.206252E-03
      0.285000          0.195332E-03
      0.290000          0.185597E-03
      0.295000          0.177164E-03
      0.300000          0.170100E-03
      0.305000          0.164411E-03
      0.310000          0.160053E-03
      0.315000          0.156927E-03
      0.320000          0.154895E-03
      0.325000          0.153787E-03
      0.330000          0.153414E-03
      0.335000          0.153574E-03
      0.340000          0.154070E-03
      0.345000          0.154713E-03
      0.350000          0.155335E-03
      0.355000          0.155791E-03
      0.360000          0.155967E-03
      0.365000          0.155780E-03
      0.370000          0.155180E-03
      0.375000          0.154149E-03
      0.380000          0.152701E-03
      0.385000          0.150872E-03
      0.390000          0.148724E-03
      0.395000          0.146332E-03
      0.400000          0.143783E-03
      0.405000          0.141169E-03
      0.410000          0.138578E-03
      0.415000          0.136095E-03
      0.420000          0.133790E-03
      0.425000          0.131718E-03
      0.430000          0.129918E-03
      0.435000          0.128405E-03
      0.440000          0.127179E-03
      0.445000          0.126217E-03
      0.450000          0.125481E-03
      0.455000          0.124919E-03
      0.460000          0.124469E-03
      0.465000          0.124063E-03
      0.470000          0.123634E-03
      0.475000          0.123116E-03
      0.480000          0.122451E-03
      0.485000          0.121591E-03
      0.490000          0.120500E-03
      0.495000          0.119157E-03
      0.500000          0.117555E-03
