 I_abs(s)[cm^-1]/c[mg/ml]
       0.00000          0.139842E-01
      0.500000E-02      0.139208E-01
      0.100000E-01      0.137323E-01
      0.150000E-01      0.134243E-01
      0.200000E-01      0.130053E-01
      0.250000E-01      0.124871E-01
      0.300000E-01      0.118838E-01
      0.350000E-01      0.112114E-01
      0.400000E-01      0.104869E-01
      0.450000E-01      0.972783E-02
      0.500000E-01      0.895164E-02
      0.550000E-01      0.817480E-02
      0.600000E-01      0.741240E-02
      0.650000E-01      0.667766E-02
      0.700000E-01      0.598157E-02
      0.750000E-01      0.533270E-02
      0.800000E-01      0.473710E-02
      0.850000E-01      0.419835E-02
      0.900000E-01      0.371769E-02
      0.950000E-01      0.329432E-02
      0.100000          0.292565E-02
      0.105000          0.260771E-02
      0.110000          0.233553E-02
      0.115000          0.210353E-02
      0.120000          0.190588E-02
      0.125000          0.173683E-02
      0.130000          0.159097E-02
      0.135000          0.146344E-02
      0.140000          0.135008E-02
      0.145000          0.124748E-02
      0.150000          0.115301E-02
      0.155000          0.106481E-02
      0.160000          0.981640E-03
      0.165000          0.902853E-03
      0.170000          0.828221E-03
      0.175000          0.757827E-03
      0.180000          0.691938E-03
      0.185000          0.630896E-03
      0.190000          0.575024E-03
      0.195000          0.524562E-03
      0.200000          0.479622E-03
      0.205000          0.440162E-03
      0.210000          0.405987E-03
      0.215000          0.376764E-03
      0.220000          0.352043E-03
      0.225000          0.331298E-03
      0.230000          0.313958E-03
      0.235000          0.299443E-03
      0.240000          0.287198E-03
      0.245000          0.276715E-03
      0.250000          0.267555E-03
      0.255000          0.259354E-03
      0.260000          0.251830E-03
      0.265000          0.244778E-03
      0.270000          0.238059E-03
      0.275000          0.231597E-03
      0.280000          0.225357E-03
      0.285000          0.219337E-03
      0.290000          0.213556E-03
      0.295000          0.208040E-03
      0.300000          0.202818E-03
      0.305000          0.197910E-03
      0.310000          0.193331E-03
      0.315000          0.189084E-03
      0.320000          0.185162E-03
      0.325000          0.181547E-03
      0.330000          0.178216E-03
      0.335000          0.175139E-03
      0.340000          0.172283E-03
      0.345000          0.169613E-03
      0.350000          0.167093E-03
      0.355000          0.164689E-03
      0.360000          0.162367E-03
      0.365000          0.160095E-03
      0.370000          0.157845E-03
      0.375000          0.155589E-03
      0.380000          0.153304E-03
      0.385000          0.150972E-03
      0.390000          0.148576E-03
      0.395000          0.146109E-03
      0.400000          0.143566E-03
      0.405000          0.140950E-03
      0.410000          0.138271E-03
      0.415000          0.135545E-03
      0.420000          0.132792E-03
      0.425000          0.130038E-03
      0.430000          0.127312E-03
      0.435000          0.124643E-03
      0.440000          0.122060E-03
      0.445000          0.119591E-03
      0.450000          0.117256E-03
      0.455000          0.115073E-03
      0.460000          0.113051E-03
      0.465000          0.111192E-03
      0.470000          0.109489E-03
      0.475000          0.107928E-03
      0.480000          0.106489E-03
      0.485000          0.105146E-03
      0.490000          0.103869E-03
      0.495000          0.102627E-03
      0.500000          0.101386E-03
