 I_abs(s)[cm^-1]/c[mg/ml]
       0.00000          0.141404E-01
      0.500000E-02      0.140738E-01
      0.100000E-01      0.138759E-01
      0.150000E-01      0.135531E-01
      0.200000E-01      0.131155E-01
      0.250000E-01      0.125764E-01
      0.300000E-01      0.119518E-01
      0.350000E-01      0.112596E-01
      0.400000E-01      0.105184E-01
      0.450000E-01      0.974712E-02
      0.500000E-01      0.896387E-02
      0.550000E-01      0.818537E-02
      0.600000E-01      0.742631E-02
      0.650000E-01      0.669901E-02
      0.700000E-01      0.601312E-02
      0.750000E-01      0.537555E-02
      0.800000E-01      0.479059E-02
      0.850000E-01      0.426010E-02
      0.900000E-01      0.378382E-02
      0.950000E-01      0.335979E-02
      0.100000          0.298477E-02
      0.105000          0.265464E-02
      0.110000          0.236482E-02
      0.115000          0.211061E-02
      0.120000          0.188746E-02
      0.125000          0.169116E-02
      0.130000          0.151800E-02
      0.135000          0.136481E-02
      0.140000          0.122898E-02
      0.145000          0.110838E-02
      0.150000          0.100134E-02
      0.155000          0.906514E-03
      0.160000          0.822832E-03
      0.165000          0.749381E-03
      0.170000          0.685352E-03
      0.175000          0.629981E-03
      0.180000          0.582515E-03
      0.185000          0.542191E-03
      0.190000          0.508232E-03
      0.195000          0.479852E-03
      0.200000          0.456270E-03
      0.205000          0.436725E-03
      0.210000          0.420489E-03
      0.215000          0.406884E-03
      0.220000          0.395288E-03
      0.225000          0.385146E-03
      0.230000          0.375971E-03
      0.235000          0.367348E-03
      0.240000          0.358931E-03
      0.245000          0.350442E-03
      0.250000          0.341672E-03
      0.255000          0.332472E-03
      0.260000          0.322754E-03
      0.265000          0.312486E-03
      0.270000          0.301684E-03
      0.275000          0.290409E-03
      0.280000          0.278755E-03
      0.285000          0.266844E-03
      0.290000          0.254816E-03
      0.295000          0.242817E-03
      0.300000          0.230993E-03
      0.305000          0.219480E-03
      0.310000          0.208402E-03
      0.315000          0.197864E-03
      0.320000          0.187952E-03
      0.325000          0.178732E-03
      0.330000          0.170254E-03
      0.335000          0.162553E-03
      0.340000          0.155652E-03
      0.345000          0.149566E-03
      0.350000          0.144302E-03
      0.355000          0.139858E-03
      0.360000          0.136225E-03
      0.365000          0.133384E-03
      0.370000          0.131300E-03
      0.375000          0.129922E-03
      0.380000          0.129181E-03
      0.385000          0.128984E-03
      0.390000          0.129218E-03
      0.395000          0.129755E-03
      0.400000          0.130450E-03
      0.405000          0.131151E-03
      0.410000          0.131708E-03
      0.415000          0.131981E-03
      0.420000          0.131847E-03
      0.425000          0.131210E-03
      0.430000          0.130007E-03
      0.435000          0.128210E-03
      0.440000          0.125832E-03
      0.445000          0.122922E-03
      0.450000          0.119562E-03
      0.455000          0.115860E-03
      0.460000          0.111945E-03
      0.465000          0.107952E-03
      0.470000          0.104018E-03
      0.475000          0.100272E-03
      0.480000          0.968250E-04
      0.485000          0.937651E-04
      0.490000          0.911547E-04
      0.495000          0.890277E-04
      0.500000          0.873899E-04
