 I_abs(s)[cm^-1]/c[mg/ml]
       0.00000          0.137206E-01
      0.500000E-02      0.136363E-01
      0.100000E-01      0.133873E-01
      0.150000E-01      0.129845E-01
      0.200000E-01      0.124456E-01
      0.250000E-01      0.117932E-01
      0.300000E-01      0.110538E-01
      0.350000E-01      0.102560E-01
      0.400000E-01      0.942837E-02
      0.450000E-01      0.859788E-02
      0.500000E-01      0.778857E-02
      0.550000E-01      0.702027E-02
      0.600000E-01      0.630787E-02
      0.650000E-01      0.566103E-02
      0.700000E-01      0.508430E-02
      0.750000E-01      0.457762E-02
      0.800000E-01      0.413709E-02
      0.850000E-01      0.375596E-02
      0.900000E-01      0.342574E-02
      0.950000E-01      0.313717E-02
      0.100000          0.288122E-02
      0.105000          0.264984E-02
      0.110000          0.243643E-02
      0.115000          0.223617E-02
      0.120000          0.204605E-02
      0.125000          0.186469E-02
      0.130000          0.169206E-02
      0.135000          0.152903E-02
      0.140000          0.137699E-02
      0.145000          0.123740E-02
      0.150000          0.111146E-02
      0.155000          0.999870E-03
      0.160000          0.902701E-03
      0.165000          0.819367E-03
      0.170000          0.748701E-03
      0.175000          0.689100E-03
      0.180000          0.638706E-03
      0.185000          0.595602E-03
      0.190000          0.557988E-03
      0.195000          0.524318E-03
      0.200000          0.493387E-03
      0.205000          0.464368E-03
      0.210000          0.436794E-03
      0.215000          0.410497E-03
      0.220000          0.385531E-03
      0.225000          0.362074E-03
      0.230000          0.340337E-03
      0.235000          0.320497E-03
      0.240000          0.302639E-03
      0.245000          0.286738E-03
      0.250000          0.272663E-03
      0.255000          0.260196E-03
      0.260000          0.249073E-03
      0.265000          0.239024E-03
      0.270000          0.229811E-03
      0.275000          0.221258E-03
      0.280000          0.213268E-03
      0.285000          0.205822E-03
      0.290000          0.198965E-03
      0.295000          0.192784E-03
      0.300000          0.187379E-03
      0.305000          0.182830E-03
      0.310000          0.179173E-03
      0.315000          0.176383E-03
      0.320000          0.174364E-03
      0.325000          0.172959E-03
      0.330000          0.171958E-03
      0.335000          0.171122E-03
      0.340000          0.170210E-03
      0.345000          0.169005E-03
      0.350000          0.167333E-03
      0.355000          0.165085E-03
      0.360000          0.162221E-03
      0.365000          0.158772E-03
      0.370000          0.154831E-03
      0.375000          0.150537E-03
      0.380000          0.146060E-03
      0.385000          0.141573E-03
      0.390000          0.137241E-03
      0.395000          0.133199E-03
      0.400000          0.129541E-03
      0.405000          0.126320E-03
      0.410000          0.123539E-03
      0.415000          0.121167E-03
      0.420000          0.119138E-03
      0.425000          0.117369E-03
      0.430000          0.115772E-03
      0.435000          0.114259E-03
      0.440000          0.112756E-03
      0.445000          0.111209E-03
      0.450000          0.109581E-03
      0.455000          0.107861E-03
      0.460000          0.106052E-03
      0.465000          0.104172E-03
      0.470000          0.102248E-03
      0.475000          0.100311E-03
      0.480000          0.983921E-04
      0.485000          0.965175E-04
      0.490000          0.947093E-04
      0.495000          0.929838E-04
      0.500000          0.913516E-04
