 I_abs(s)[cm^-1]/c[mg/ml]
       0.00000          0.144396E-01
      0.500000E-02      0.143782E-01
      0.100000E-01      0.141958E-01
      0.150000E-01      0.138974E-01
      0.200000E-01      0.134917E-01
      0.250000E-01      0.129897E-01
      0.300000E-01      0.124049E-01
      0.350000E-01      0.117526E-01
      0.400000E-01      0.110488E-01
      0.450000E-01      0.103100E-01
      0.500000E-01      0.955255E-02
      0.550000E-01      0.879151E-02
      0.600000E-01      0.804077E-02
      0.650000E-01      0.731230E-02
      0.700000E-01      0.661601E-02
      0.750000E-01      0.595956E-02
      0.800000E-01      0.534837E-02
      0.850000E-01      0.478570E-02
      0.900000E-01      0.427285E-02
      0.950000E-01      0.380943E-02
      0.100000          0.339366E-02
      0.105000          0.302272E-02
      0.110000          0.269308E-02
      0.115000          0.240081E-02
      0.120000          0.214184E-02
      0.125000          0.191221E-02
      0.130000          0.170822E-02
      0.135000          0.152657E-02
      0.140000          0.136436E-02
      0.145000          0.121916E-02
      0.150000          0.108899E-02
      0.155000          0.972218E-03
      0.160000          0.867537E-03
      0.165000          0.773885E-03
      0.170000          0.690378E-03
      0.175000          0.616246E-03
      0.180000          0.550790E-03
      0.185000          0.493348E-03
      0.190000          0.443276E-03
      0.195000          0.399939E-03
      0.200000          0.362718E-03
      0.205000          0.331014E-03
      0.210000          0.304259E-03
      0.215000          0.281927E-03
      0.220000          0.263541E-03
      0.225000          0.248673E-03
      0.230000          0.236948E-03
      0.235000          0.228032E-03
      0.240000          0.221624E-03
      0.245000          0.217449E-03
      0.250000          0.215238E-03
      0.255000          0.214722E-03
      0.260000          0.215627E-03
      0.265000          0.217661E-03
      0.270000          0.220521E-03
      0.275000          0.223894E-03
      0.280000          0.227462E-03
      0.285000          0.230914E-03
      0.290000          0.233960E-03
      0.295000          0.236335E-03
      0.300000          0.237820E-03
      0.305000          0.238242E-03
      0.310000          0.237488E-03
      0.315000          0.235504E-03
      0.320000          0.232298E-03
      0.325000          0.227933E-03
      0.330000          0.222525E-03
      0.335000          0.216231E-03
      0.340000          0.209238E-03
      0.345000          0.201755E-03
      0.350000          0.193995E-03
      0.355000          0.186172E-03
      0.360000          0.178480E-03
      0.365000          0.171095E-03
      0.370000          0.164160E-03
      0.375000          0.157786E-03
      0.380000          0.152046E-03
      0.385000          0.146978E-03
      0.390000          0.142585E-03
      0.395000          0.138840E-03
      0.400000          0.135688E-03
      0.405000          0.133056E-03
      0.410000          0.130854E-03
      0.415000          0.128988E-03
      0.420000          0.127359E-03
      0.425000          0.125873E-03
      0.430000          0.124445E-03
      0.435000          0.123000E-03
      0.440000          0.121481E-03
      0.445000          0.119844E-03
      0.450000          0.118064E-03
      0.455000          0.116132E-03
      0.460000          0.114053E-03
      0.465000          0.111846E-03
      0.470000          0.109539E-03
      0.475000          0.107170E-03
      0.480000          0.104779E-03
      0.485000          0.102412E-03
      0.490000          0.100110E-03
      0.495000          0.979128E-04
      0.500000          0.958564E-04
