 I_abs(s)[cm^-1]/c[mg/ml]
       0.00000          0.136974E-01
      0.500000E-02      0.136146E-01
      0.100000E-01      0.133695E-01
      0.150000E-01      0.129714E-01
      0.200000E-01      0.124357E-01
      0.250000E-01      0.117824E-01
      0.300000E-01      0.110351E-01
      0.350000E-01      0.102199E-01
      0.400000E-01      0.936371E-02
      0.450000E-01      0.849314E-02
      0.500000E-01      0.763290E-02
      0.550000E-01      0.680486E-02
      0.600000E-01      0.602715E-02
      0.650000E-01      0.531362E-02
      0.700000E-01      0.467352E-02
      0.750000E-01      0.411162E-02
      0.800000E-01      0.362848E-02
      0.850000E-01      0.322099E-02
      0.900000E-01      0.288314E-02
      0.950000E-01      0.260676E-02
      0.100000          0.238244E-02
      0.105000          0.220026E-02
      0.110000          0.205057E-02
      0.115000          0.192455E-02
      0.120000          0.181463E-02
      0.125000          0.171475E-02
      0.130000          0.162048E-02
      0.135000          0.152892E-02
      0.140000          0.143856E-02
      0.145000          0.134902E-02
      0.150000          0.126073E-02
      0.155000          0.117465E-02
      0.160000          0.109194E-02
      0.165000          0.101375E-02
      0.170000          0.940985E-03
      0.175000          0.874238E-03
      0.180000          0.813693E-03
      0.185000          0.759159E-03
      0.190000          0.710120E-03
      0.195000          0.665823E-03
      0.200000          0.625389E-03
      0.205000          0.587917E-03
      0.210000          0.552580E-03
      0.215000          0.518703E-03
      0.220000          0.485803E-03
      0.225000          0.453616E-03
      0.230000          0.422083E-03
      0.235000          0.391323E-03
      0.240000          0.361588E-03
      0.245000          0.333211E-03
      0.250000          0.306547E-03
      0.255000          0.281933E-03
      0.260000          0.259641E-03
      0.265000          0.239856E-03
      0.270000          0.222662E-03
      0.275000          0.208040E-03
      0.280000          0.195877E-03
      0.285000          0.185987E-03
      0.290000          0.178125E-03
      0.295000          0.172016E-03
      0.300000          0.167374E-03
      0.305000          0.163916E-03
      0.310000          0.161379E-03
      0.315000          0.159528E-03
      0.320000          0.158157E-03
      0.325000          0.157094E-03
      0.330000          0.156196E-03
      0.335000          0.155345E-03
      0.340000          0.154451E-03
      0.345000          0.153443E-03
      0.350000          0.152268E-03
      0.355000          0.150895E-03
      0.360000          0.149307E-03
      0.365000          0.147507E-03
      0.370000          0.145515E-03
      0.375000          0.143362E-03
      0.380000          0.141095E-03
      0.385000          0.138769E-03
      0.390000          0.136441E-03
      0.395000          0.134167E-03
      0.400000          0.131998E-03
      0.405000          0.129970E-03
      0.410000          0.128108E-03
      0.415000          0.126416E-03
      0.420000          0.124884E-03
      0.425000          0.123485E-03
      0.430000          0.122180E-03
      0.435000          0.120925E-03
      0.440000          0.119672E-03
      0.445000          0.118379E-03
      0.450000          0.117010E-03
      0.455000          0.115543E-03
      0.460000          0.113970E-03
      0.465000          0.112299E-03
      0.470000          0.110549E-03
      0.475000          0.108751E-03
      0.480000          0.106942E-03
      0.485000          0.105161E-03
      0.490000          0.103442E-03
      0.495000          0.101814E-03
      0.500000          0.100296E-03
