 I_abs(s)[cm^-1]/c[mg/ml]
       0.00000          0.142818E-01
      0.500000E-02      0.142091E-01
      0.100000E-01      0.139941E-01
      0.150000E-01      0.136459E-01
      0.200000E-01      0.131788E-01
      0.250000E-01      0.126112E-01
      0.300000E-01      0.119644E-01
      0.350000E-01      0.112609E-01
      0.400000E-01      0.105231E-01
      0.450000E-01      0.977190E-02
      0.500000E-01      0.902554E-02
      0.550000E-01      0.829893E-02
      0.600000E-01      0.760327E-02
      0.650000E-01      0.694603E-02
      0.700000E-01      0.633125E-02
      0.750000E-01      0.576010E-02
      0.800000E-01      0.523160E-02
      0.850000E-01      0.474335E-02
      0.900000E-01      0.429224E-02
      0.950000E-01      0.387505E-02
      0.100000          0.348890E-02
      0.105000          0.313150E-02
      0.110000          0.280122E-02
      0.115000          0.249707E-02
      0.120000          0.221850E-02
      0.125000          0.196519E-02
      0.130000          0.173686E-02
      0.135000          0.153304E-02
      0.140000          0.135293E-02
      0.145000          0.119538E-02
      0.150000          0.105884E-02
      0.155000          0.941479E-03
      0.160000          0.841241E-03
      0.165000          0.755987E-03
      0.170000          0.683609E-03
      0.175000          0.622122E-03
      0.180000          0.569735E-03
      0.185000          0.524889E-03
      0.190000          0.486264E-03
      0.195000          0.452765E-03
      0.200000          0.423496E-03
      0.205000          0.397727E-03
      0.210000          0.374865E-03
      0.215000          0.354435E-03
      0.220000          0.336057E-03
      0.225000          0.319441E-03
      0.230000          0.304382E-03
      0.235000          0.290746E-03
      0.240000          0.278465E-03
      0.245000          0.267514E-03
      0.250000          0.257898E-03
      0.255000          0.249621E-03
      0.260000          0.242665E-03
      0.265000          0.236976E-03
      0.270000          0.232446E-03
      0.275000          0.228913E-03
      0.280000          0.226172E-03
      0.285000          0.223985E-03
      0.290000          0.222110E-03
      0.295000          0.220315E-03
      0.300000          0.218407E-03
      0.305000          0.216242E-03
      0.310000          0.213736E-03
      0.315000          0.210858E-03
      0.320000          0.207628E-03
      0.325000          0.204094E-03
      0.330000          0.200321E-03
      0.335000          0.196368E-03
      0.340000          0.192279E-03
      0.345000          0.188073E-03
      0.350000          0.183742E-03
      0.355000          0.179260E-03
      0.360000          0.174589E-03
      0.365000          0.169695E-03
      0.370000          0.164559E-03
      0.375000          0.159191E-03
      0.380000          0.153631E-03
      0.385000          0.147954E-03
      0.390000          0.142262E-03
      0.395000          0.136674E-03
      0.400000          0.131314E-03
      0.405000          0.126296E-03
      0.410000          0.121716E-03
      0.415000          0.117634E-03
      0.420000          0.114076E-03
      0.425000          0.111034E-03
      0.430000          0.108463E-03
      0.435000          0.106300E-03
      0.440000          0.104464E-03
      0.445000          0.102873E-03
      0.450000          0.101452E-03
      0.455000          0.100141E-03
      0.460000          0.988969E-04
      0.465000          0.976995E-04
      0.470000          0.965458E-04
      0.475000          0.954474E-04
      0.480000          0.944251E-04
      0.485000          0.935029E-04
      0.490000          0.927025E-04
      0.495000          0.920389E-04
      0.500000          0.915179E-04
