 I_abs(s)[cm^-1]/c[mg/ml]
       0.00000          0.136974E-01
      0.500000E-02      0.136217E-01
      0.100000E-01      0.133972E-01
      0.150000E-01      0.130322E-01
      0.200000E-01      0.125400E-01
      0.250000E-01      0.119378E-01
      0.300000E-01      0.112464E-01
      0.350000E-01      0.104886E-01
      0.400000E-01      0.968818E-02
      0.450000E-01      0.886867E-02
      0.500000E-01      0.805228E-02
      0.550000E-01      0.725888E-02
      0.600000E-01      0.650528E-02
      0.650000E-01      0.580469E-02
      0.700000E-01      0.516644E-02
      0.750000E-01      0.459596E-02
      0.800000E-01      0.409501E-02
      0.850000E-01      0.366206E-02
      0.900000E-01      0.329291E-02
      0.950000E-01      0.298128E-02
      0.100000          0.271954E-02
      0.105000          0.249942E-02
      0.110000          0.231257E-02
      0.115000          0.215118E-02
      0.120000          0.200828E-02
      0.125000          0.187812E-02
      0.130000          0.175622E-02
      0.135000          0.163947E-02
      0.140000          0.152594E-02
      0.145000          0.141481E-02
      0.150000          0.130607E-02
      0.155000          0.120032E-02
      0.160000          0.109851E-02
      0.165000          0.100171E-02
      0.170000          0.910938E-03
      0.175000          0.827016E-03
      0.180000          0.750494E-03
      0.185000          0.681606E-03
      0.190000          0.620277E-03
      0.195000          0.566168E-03
      0.200000          0.518727E-03
      0.205000          0.477271E-03
      0.210000          0.441053E-03
      0.215000          0.409324E-03
      0.220000          0.381394E-03
      0.225000          0.356659E-03
      0.230000          0.334622E-03
      0.235000          0.314898E-03
      0.240000          0.297202E-03
      0.245000          0.281331E-03
      0.250000          0.267141E-03
      0.255000          0.254525E-03
      0.260000          0.243386E-03
      0.265000          0.233628E-03
      0.270000          0.225138E-03
      0.275000          0.217784E-03
      0.280000          0.211416E-03
      0.285000          0.205870E-03
      0.290000          0.200976E-03
      0.295000          0.196568E-03
      0.300000          0.192491E-03
      0.305000          0.188609E-03
      0.310000          0.184810E-03
      0.315000          0.181012E-03
      0.320000          0.177156E-03
      0.325000          0.173213E-03
      0.330000          0.169174E-03
      0.335000          0.165047E-03
      0.340000          0.160855E-03
      0.345000          0.156628E-03
      0.350000          0.152400E-03
      0.355000          0.148208E-03
      0.360000          0.144085E-03
      0.365000          0.140063E-03
      0.370000          0.136170E-03
      0.375000          0.132431E-03
      0.380000          0.128865E-03
      0.385000          0.125490E-03
      0.390000          0.122320E-03
      0.395000          0.119369E-03
      0.400000          0.116644E-03
      0.405000          0.114154E-03
      0.410000          0.111903E-03
      0.415000          0.109893E-03
      0.420000          0.108124E-03
      0.425000          0.106589E-03
      0.430000          0.105282E-03
      0.435000          0.104188E-03
      0.440000          0.103290E-03
      0.445000          0.102565E-03
      0.450000          0.101986E-03
      0.455000          0.101521E-03
      0.460000          0.101133E-03
      0.465000          0.100785E-03
      0.470000          0.100435E-03
      0.475000          0.100044E-03
      0.480000          0.995747E-04
      0.485000          0.989922E-04
      0.490000          0.982696E-04
      0.495000          0.973878E-04
      0.500000          0.963374E-04
