 I_abs(s)[cm^-1]/c[mg/ml]
       0.00000          0.143606E-01
      0.500000E-02      0.142971E-01
      0.100000E-01      0.141085E-01
      0.150000E-01      0.138008E-01
      0.200000E-01      0.133831E-01
      0.250000E-01      0.128681E-01
      0.300000E-01      0.122706E-01
      0.350000E-01      0.116070E-01
      0.400000E-01      0.108949E-01
      0.450000E-01      0.101519E-01
      0.500000E-01      0.939496E-02
      0.550000E-01      0.863966E-02
      0.600000E-01      0.789987E-02
      0.650000E-01      0.718722E-02
      0.700000E-01      0.651088E-02
      0.750000E-01      0.587752E-02
      0.800000E-01      0.529136E-02
      0.850000E-01      0.475440E-02
      0.900000E-01      0.426669E-02
      0.950000E-01      0.382670E-02
      0.100000          0.343175E-02
      0.105000          0.307835E-02
      0.110000          0.276261E-02
      0.115000          0.248054E-02
      0.120000          0.222830E-02
      0.125000          0.200240E-02
      0.130000          0.179978E-02
      0.135000          0.161789E-02
      0.140000          0.145463E-02
      0.145000          0.130834E-02
      0.150000          0.117766E-02
      0.155000          0.106149E-02
      0.160000          0.958844E-03
      0.165000          0.868812E-03
      0.170000          0.790452E-03
      0.175000          0.722771E-03
      0.180000          0.664701E-03
      0.185000          0.615102E-03
      0.190000          0.572786E-03
      0.195000          0.536554E-03
      0.200000          0.505235E-03
      0.205000          0.477728E-03
      0.210000          0.453045E-03
      0.215000          0.430338E-03
      0.220000          0.408923E-03
      0.225000          0.388281E-03
      0.230000          0.368065E-03
      0.235000          0.348078E-03
      0.240000          0.328258E-03
      0.245000          0.308647E-03
      0.250000          0.289367E-03
      0.255000          0.270588E-03
      0.260000          0.252500E-03
      0.265000          0.235295E-03
      0.270000          0.219141E-03
      0.275000          0.204177E-03
      0.280000          0.190499E-03
      0.285000          0.178160E-03
      0.290000          0.167170E-03
      0.295000          0.157501E-03
      0.300000          0.149092E-03
      0.305000          0.141860E-03
      0.310000          0.135705E-03
      0.315000          0.130521E-03
      0.320000          0.126198E-03
      0.325000          0.122634E-03
      0.330000          0.119736E-03
      0.335000          0.117422E-03
      0.340000          0.115621E-03
      0.345000          0.114276E-03
      0.350000          0.113340E-03
      0.355000          0.112774E-03
      0.360000          0.112541E-03
      0.365000          0.112608E-03
      0.370000          0.112940E-03
      0.375000          0.113495E-03
      0.380000          0.114228E-03
      0.385000          0.115086E-03
      0.390000          0.116009E-03
      0.395000          0.116931E-03
      0.400000          0.117784E-03
      0.405000          0.118499E-03
      0.410000          0.119010E-03
      0.415000          0.119257E-03
      0.420000          0.119191E-03
      0.425000          0.118776E-03
      0.430000          0.117992E-03
      0.435000          0.116836E-03
      0.440000          0.115324E-03
      0.445000          0.113488E-03
      0.450000          0.111378E-03
      0.455000          0.109059E-03
      0.460000          0.106602E-03
      0.465000          0.104090E-03
      0.470000          0.101605E-03
      0.475000          0.992282E-04
      0.480000          0.970332E-04
      0.485000          0.950841E-04
      0.490000          0.934313E-04
      0.495000          0.921089E-04
      0.500000          0.911336E-04
