 I_abs(s)[cm^-1]/c[mg/ml]
       0.00000          0.145904E-01
      0.500000E-02      0.145303E-01
      0.100000E-01      0.143514E-01
      0.150000E-01      0.140589E-01
      0.200000E-01      0.136607E-01
      0.250000E-01      0.131676E-01
      0.300000E-01      0.125927E-01
      0.350000E-01      0.119503E-01
      0.400000E-01      0.112562E-01
      0.450000E-01      0.105263E-01
      0.500000E-01      0.977618E-02
      0.550000E-01      0.902070E-02
      0.600000E-01      0.827332E-02
      0.650000E-01      0.754580E-02
      0.700000E-01      0.684789E-02
      0.750000E-01      0.618722E-02
      0.800000E-01      0.556923E-02
      0.850000E-01      0.499729E-02
      0.900000E-01      0.447288E-02
      0.950000E-01      0.399582E-02
      0.100000          0.356461E-02
      0.105000          0.317673E-02
      0.110000          0.282898E-02
      0.115000          0.251779E-02
      0.120000          0.223949E-02
      0.125000          0.199053E-02
      0.130000          0.176764E-02
      0.135000          0.156796E-02
      0.140000          0.138905E-02
      0.145000          0.122889E-02
      0.150000          0.108589E-02
      0.155000          0.958733E-03
      0.160000          0.846374E-03
      0.165000          0.747895E-03
      0.170000          0.662440E-03
      0.175000          0.589146E-03
      0.180000          0.527091E-03
      0.185000          0.475266E-03
      0.190000          0.432574E-03
      0.195000          0.397844E-03
      0.200000          0.369860E-03
      0.205000          0.347406E-03
      0.210000          0.329313E-03
      0.215000          0.314501E-03
      0.220000          0.302019E-03
      0.225000          0.291078E-03
      0.230000          0.281062E-03
      0.235000          0.271535E-03
      0.240000          0.262234E-03
      0.245000          0.253044E-03
      0.250000          0.243972E-03
      0.255000          0.235114E-03
      0.260000          0.226617E-03
      0.265000          0.218648E-03
      0.270000          0.211363E-03
      0.275000          0.204882E-03
      0.280000          0.199277E-03
      0.285000          0.194561E-03
      0.290000          0.190689E-03
      0.295000          0.187565E-03
      0.300000          0.185052E-03
      0.305000          0.182987E-03
      0.310000          0.181199E-03
      0.315000          0.179521E-03
      0.320000          0.177802E-03
      0.325000          0.175925E-03
      0.330000          0.173802E-03
      0.335000          0.171386E-03
      0.340000          0.168666E-03
      0.345000          0.165662E-03
      0.350000          0.162418E-03
      0.355000          0.159000E-03
      0.360000          0.155478E-03
      0.365000          0.151928E-03
      0.370000          0.148419E-03
      0.375000          0.145011E-03
      0.380000          0.141750E-03
      0.385000          0.138670E-03
      0.390000          0.135788E-03
      0.395000          0.133111E-03
      0.400000          0.130635E-03
      0.405000          0.128351E-03
      0.410000          0.126245E-03
      0.415000          0.124299E-03
      0.420000          0.122500E-03
      0.425000          0.120833E-03
      0.430000          0.119287E-03
      0.435000          0.117850E-03
      0.440000          0.116512E-03
      0.445000          0.115261E-03
      0.450000          0.114085E-03
      0.455000          0.112967E-03
      0.460000          0.111887E-03
      0.465000          0.110821E-03
      0.470000          0.109742E-03
      0.475000          0.108621E-03
      0.480000          0.107431E-03
      0.485000          0.106144E-03
      0.490000          0.104739E-03
      0.495000          0.103199E-03
      0.500000          0.101517E-03
