 I_abs(s)[cm^-1]/c[mg/ml]
       0.00000          0.133071E-01
      0.500000E-02      0.132219E-01
      0.100000E-01      0.129703E-01
      0.150000E-01      0.125636E-01
      0.200000E-01      0.120199E-01
      0.250000E-01      0.113626E-01
      0.300000E-01      0.106189E-01
      0.350000E-01      0.981803E-02
      0.400000E-01      0.898908E-02
      0.450000E-01      0.815959E-02
      0.500000E-01      0.735389E-02
      0.550000E-01      0.659203E-02
      0.600000E-01      0.588907E-02
      0.650000E-01      0.525480E-02
      0.700000E-01      0.469395E-02
      0.750000E-01      0.420663E-02
      0.800000E-01      0.378921E-02
      0.850000E-01      0.343519E-02
      0.900000E-01      0.313625E-02
      0.950000E-01      0.288321E-02
      0.100000          0.266689E-02
      0.105000          0.247876E-02
      0.110000          0.231146E-02
      0.115000          0.215906E-02
      0.120000          0.201709E-02
      0.125000          0.188254E-02
      0.130000          0.175362E-02
      0.135000          0.162950E-02
      0.140000          0.151007E-02
      0.145000          0.139565E-02
      0.150000          0.128675E-02
      0.155000          0.118390E-02
      0.160000          0.108753E-02
      0.165000          0.997879E-03
      0.170000          0.915021E-03
      0.175000          0.838829E-03
      0.180000          0.769030E-03
      0.185000          0.705250E-03
      0.190000          0.647059E-03
      0.195000          0.594012E-03
      0.200000          0.545689E-03
      0.205000          0.501713E-03
      0.210000          0.461767E-03
      0.215000          0.425597E-03
      0.220000          0.393005E-03
      0.225000          0.363839E-03
      0.230000          0.337973E-03
      0.235000          0.315287E-03
      0.240000          0.295647E-03
      0.245000          0.278881E-03
      0.250000          0.264771E-03
      0.255000          0.253040E-03
      0.260000          0.243352E-03
      0.265000          0.235325E-03
      0.270000          0.228544E-03
      0.275000          0.222590E-03
      0.280000          0.217065E-03
      0.285000          0.211620E-03
      0.290000          0.205984E-03
      0.295000          0.199979E-03
      0.300000          0.193529E-03
      0.305000          0.186660E-03
      0.310000          0.179485E-03
      0.315000          0.172185E-03
      0.320000          0.164977E-03
      0.325000          0.158093E-03
      0.330000          0.151743E-03
      0.335000          0.146100E-03
      0.340000          0.141279E-03
      0.345000          0.137332E-03
      0.350000          0.134251E-03
      0.355000          0.131978E-03
      0.360000          0.130416E-03
      0.365000          0.129446E-03
      0.370000          0.128945E-03
      0.375000          0.128793E-03
      0.380000          0.128889E-03
      0.385000          0.129143E-03
      0.390000          0.129487E-03
      0.395000          0.129858E-03
      0.400000          0.130202E-03
      0.405000          0.130463E-03
      0.410000          0.130579E-03
      0.415000          0.130483E-03
      0.420000          0.130108E-03
      0.425000          0.129385E-03
      0.430000          0.128258E-03
      0.435000          0.126688E-03
      0.440000          0.124657E-03
      0.445000          0.122178E-03
      0.450000          0.119294E-03
      0.455000          0.116072E-03
      0.460000          0.112601E-03
      0.465000          0.108985E-03
      0.470000          0.105329E-03
      0.475000          0.101734E-03
      0.480000          0.982857E-04
      0.485000          0.950512E-04
      0.490000          0.920738E-04
      0.495000          0.893735E-04
      0.500000          0.869487E-04
