 I_abs(s)[cm^-1]/c[mg/ml]
       0.00000          0.136820E-01
      0.500000E-02      0.136137E-01
      0.100000E-01      0.134109E-01
      0.150000E-01      0.130805E-01
      0.200000E-01      0.126337E-01
      0.250000E-01      0.120849E-01
      0.300000E-01      0.114519E-01
      0.350000E-01      0.107539E-01
      0.400000E-01      0.100114E-01
      0.450000E-01      0.924499E-02
      0.500000E-01      0.847425E-02
      0.550000E-01      0.771715E-02
      0.600000E-01      0.698925E-02
      0.650000E-01      0.630328E-02
      0.700000E-01      0.566881E-02
      0.750000E-01      0.509212E-02
      0.800000E-01      0.457632E-02
      0.850000E-01      0.412162E-02
      0.900000E-01      0.372566E-02
      0.950000E-01      0.338406E-02
      0.100000          0.309094E-02
      0.105000          0.283952E-02
      0.110000          0.262260E-02
      0.115000          0.243312E-02
      0.120000          0.226453E-02
      0.125000          0.211108E-02
      0.130000          0.196809E-02
      0.135000          0.183199E-02
      0.140000          0.170032E-02
      0.145000          0.157172E-02
      0.150000          0.144570E-02
      0.155000          0.132251E-02
      0.160000          0.120290E-02
      0.165000          0.108796E-02
      0.170000          0.978862E-03
      0.175000          0.876740E-03
      0.180000          0.782544E-03
      0.185000          0.696954E-03
      0.190000          0.620333E-03
      0.195000          0.552718E-03
      0.200000          0.493838E-03
      0.205000          0.443166E-03
      0.210000          0.399978E-03
      0.215000          0.363420E-03
      0.220000          0.332579E-03
      0.225000          0.306544E-03
      0.230000          0.284458E-03
      0.235000          0.265557E-03
      0.240000          0.249193E-03
      0.245000          0.234843E-03
      0.250000          0.222110E-03
      0.255000          0.210708E-03
      0.260000          0.200445E-03
      0.265000          0.191202E-03
      0.270000          0.182909E-03
      0.275000          0.175523E-03
      0.280000          0.169014E-03
      0.285000          0.163345E-03
      0.290000          0.158466E-03
      0.295000          0.154309E-03
      0.300000          0.150789E-03
      0.305000          0.147805E-03
      0.310000          0.145244E-03
      0.315000          0.142992E-03
      0.320000          0.140940E-03
      0.325000          0.138988E-03
      0.330000          0.137054E-03
      0.335000          0.135077E-03
      0.340000          0.133018E-03
      0.345000          0.130863E-03
      0.350000          0.128621E-03
      0.355000          0.126319E-03
      0.360000          0.124001E-03
      0.365000          0.121722E-03
      0.370000          0.119540E-03
      0.375000          0.117514E-03
      0.380000          0.115700E-03
      0.385000          0.114141E-03
      0.390000          0.112868E-03
      0.395000          0.111896E-03
      0.400000          0.111224E-03
      0.405000          0.110831E-03
      0.410000          0.110683E-03
      0.415000          0.110730E-03
      0.420000          0.110911E-03
      0.425000          0.111160E-03
      0.430000          0.111406E-03
      0.435000          0.111578E-03
      0.440000          0.111612E-03
      0.445000          0.111452E-03
      0.450000          0.111054E-03
      0.455000          0.110386E-03
      0.460000          0.109434E-03
      0.465000          0.108197E-03
      0.470000          0.106692E-03
      0.475000          0.104948E-03
      0.480000          0.103005E-03
      0.485000          0.100912E-03
      0.490000          0.987230E-04
      0.495000          0.964954E-04
      0.500000          0.942838E-04
