 I_abs(s)[cm^-1]/c[mg/ml]
       0.00000          0.144396E-01
      0.500000E-02      0.143719E-01
      0.100000E-01      0.141710E-01
      0.150000E-01      0.138435E-01
      0.200000E-01      0.134004E-01
      0.250000E-01      0.128557E-01
      0.300000E-01      0.122263E-01
      0.350000E-01      0.115307E-01
      0.400000E-01      0.107880E-01
      0.450000E-01      0.100172E-01
      0.500000E-01      0.923625E-02
      0.550000E-01      0.846126E-02
      0.600000E-01      0.770598E-02
      0.650000E-01      0.698149E-02
      0.700000E-01      0.629610E-02
      0.750000E-01      0.565538E-02
      0.800000E-01      0.506241E-02
      0.850000E-01      0.451813E-02
      0.900000E-01      0.402178E-02
      0.950000E-01      0.357139E-02
      0.100000          0.316418E-02
      0.105000          0.279705E-02
      0.110000          0.246683E-02
      0.115000          0.217056E-02
      0.120000          0.190562E-02
      0.125000          0.166976E-02
      0.130000          0.146109E-02
      0.135000          0.127801E-02
      0.140000          0.111903E-02
      0.145000          0.982747E-03
      0.150000          0.867638E-03
      0.155000          0.772043E-03
      0.160000          0.694103E-03
      0.165000          0.631760E-03
      0.170000          0.582799E-03
      0.175000          0.544919E-03
      0.180000          0.515824E-03
      0.185000          0.493324E-03
      0.190000          0.475425E-03
      0.195000          0.460408E-03
      0.200000          0.446886E-03
      0.205000          0.433823E-03
      0.210000          0.420538E-03
      0.215000          0.406670E-03
      0.220000          0.392130E-03
      0.225000          0.377033E-03
      0.230000          0.361632E-03
      0.235000          0.346247E-03
      0.240000          0.331203E-03
      0.245000          0.316785E-03
      0.250000          0.303202E-03
      0.255000          0.290574E-03
      0.260000          0.278931E-03
      0.265000          0.268220E-03
      0.270000          0.258329E-03
      0.275000          0.249108E-03
      0.280000          0.240397E-03
      0.285000          0.232045E-03
      0.290000          0.223929E-03
      0.295000          0.215967E-03
      0.300000          0.208117E-03
      0.305000          0.200383E-03
      0.310000          0.192802E-03
      0.315000          0.185440E-03
      0.320000          0.178374E-03
      0.325000          0.171687E-03
      0.330000          0.165455E-03
      0.335000          0.159738E-03
      0.340000          0.154578E-03
      0.345000          0.149994E-03
      0.350000          0.145984E-03
      0.355000          0.142526E-03
      0.360000          0.139581E-03
      0.365000          0.137099E-03
      0.370000          0.135023E-03
      0.375000          0.133292E-03
      0.380000          0.131846E-03
      0.385000          0.130626E-03
      0.390000          0.129580E-03
      0.395000          0.128660E-03
      0.400000          0.127823E-03
      0.405000          0.127035E-03
      0.410000          0.126265E-03
      0.415000          0.125489E-03
      0.420000          0.124686E-03
      0.425000          0.123840E-03
      0.430000          0.122941E-03
      0.435000          0.121980E-03
      0.440000          0.120955E-03
      0.445000          0.119865E-03
      0.450000          0.118717E-03
      0.455000          0.117517E-03
      0.460000          0.116280E-03
      0.465000          0.115020E-03
      0.470000          0.113755E-03
      0.475000          0.112507E-03
      0.480000          0.111295E-03
      0.485000          0.110139E-03
      0.490000          0.109056E-03
      0.495000          0.108060E-03
      0.500000          0.107156E-03
