 I_abs(s)[cm^-1]/c[mg/ml]
       0.00000          0.143843E-01
      0.500000E-02      0.143322E-01
      0.100000E-01      0.141771E-01
      0.150000E-01      0.139224E-01
      0.200000E-01      0.135737E-01
      0.250000E-01      0.131386E-01
      0.300000E-01      0.126264E-01
      0.350000E-01      0.120477E-01
      0.400000E-01      0.114143E-01
      0.450000E-01      0.107384E-01
      0.500000E-01      0.100326E-01
      0.550000E-01      0.930938E-02
      0.600000E-01      0.858073E-02
      0.650000E-01      0.785782E-02
      0.700000E-01      0.715075E-02
      0.750000E-01      0.646836E-02
      0.800000E-01      0.581804E-02
      0.850000E-01      0.520567E-02
      0.900000E-01      0.463562E-02
      0.950000E-01      0.411073E-02
      0.100000          0.363244E-02
      0.105000          0.320090E-02
      0.110000          0.281516E-02
      0.115000          0.247333E-02
      0.120000          0.217278E-02
      0.125000          0.191038E-02
      0.130000          0.168262E-02
      0.135000          0.148588E-02
      0.140000          0.131649E-02
      0.145000          0.117095E-02
      0.150000          0.104593E-02
      0.155000          0.938458E-03
      0.160000          0.845851E-03
      0.165000          0.765811E-03
      0.170000          0.696386E-03
      0.175000          0.635957E-03
      0.180000          0.583203E-03
      0.185000          0.537060E-03
      0.190000          0.496669E-03
      0.195000          0.461336E-03
      0.200000          0.430484E-03
      0.205000          0.403618E-03
      0.210000          0.380294E-03
      0.215000          0.360093E-03
      0.220000          0.342612E-03
      0.225000          0.327452E-03
      0.230000          0.314222E-03
      0.235000          0.302538E-03
      0.240000          0.292031E-03
      0.245000          0.282362E-03
      0.250000          0.273225E-03
      0.255000          0.264357E-03
      0.260000          0.255547E-03
      0.265000          0.246640E-03
      0.270000          0.237535E-03
      0.275000          0.228189E-03
      0.280000          0.218607E-03
      0.285000          0.208840E-03
      0.290000          0.198975E-03
      0.295000          0.189126E-03
      0.300000          0.179423E-03
      0.305000          0.170005E-03
      0.310000          0.161010E-03
      0.315000          0.152564E-03
      0.320000          0.144781E-03
      0.325000          0.137752E-03
      0.330000          0.131544E-03
      0.335000          0.126200E-03
      0.340000          0.121737E-03
      0.345000          0.118145E-03
      0.350000          0.115392E-03
      0.355000          0.113427E-03
      0.360000          0.112180E-03
      0.365000          0.111570E-03
      0.370000          0.111502E-03
      0.375000          0.111880E-03
      0.380000          0.112601E-03
      0.385000          0.113566E-03
      0.390000          0.114678E-03
      0.395000          0.115846E-03
      0.400000          0.116988E-03
      0.405000          0.118033E-03
      0.410000          0.118920E-03
      0.415000          0.119601E-03
      0.420000          0.120041E-03
      0.425000          0.120219E-03
      0.430000          0.120125E-03
      0.435000          0.119762E-03
      0.440000          0.119143E-03
      0.445000          0.118292E-03
      0.450000          0.117240E-03
      0.455000          0.116021E-03
      0.460000          0.114677E-03
      0.465000          0.113249E-03
      0.470000          0.111778E-03
      0.475000          0.110303E-03
      0.480000          0.108860E-03
      0.485000          0.107477E-03
      0.490000          0.106179E-03
      0.495000          0.104980E-03
      0.500000          0.103889E-03
