 I_abs(s)[cm^-1]/c[mg/ml]
       0.00000          0.143290E-01
      0.500000E-02      0.142623E-01
      0.100000E-01      0.140642E-01
      0.150000E-01      0.137407E-01
      0.200000E-01      0.133014E-01
      0.250000E-01      0.127592E-01
      0.300000E-01      0.121296E-01
      0.350000E-01      0.114300E-01
      0.400000E-01      0.106790E-01
      0.450000E-01      0.989561E-02
      0.500000E-01      0.909826E-02
      0.550000E-01      0.830443E-02
      0.600000E-01      0.752979E-02
      0.650000E-01      0.678783E-02
      0.700000E-01      0.608941E-02
      0.750000E-01      0.544268E-02
      0.800000E-01      0.485293E-02
      0.850000E-01      0.432278E-02
      0.900000E-01      0.385235E-02
      0.950000E-01      0.343961E-02
      0.100000          0.308080E-02
      0.105000          0.277085E-02
      0.110000          0.250387E-02
      0.115000          0.227356E-02
      0.120000          0.207363E-02
      0.125000          0.189816E-02
      0.130000          0.174183E-02
      0.135000          0.160013E-02
      0.140000          0.146946E-02
      0.145000          0.134716E-02
      0.150000          0.123147E-02
      0.155000          0.112140E-02
      0.160000          0.101666E-02
      0.165000          0.917420E-03
      0.170000          0.824208E-03
      0.175000          0.737712E-03
      0.180000          0.658641E-03
      0.185000          0.587606E-03
      0.190000          0.525030E-03
      0.195000          0.471090E-03
      0.200000          0.425695E-03
      0.205000          0.388487E-03
      0.210000          0.358869E-03
      0.215000          0.336056E-03
      0.220000          0.319121E-03
      0.225000          0.307066E-03
      0.230000          0.298874E-03
      0.235000          0.293564E-03
      0.240000          0.290238E-03
      0.245000          0.288106E-03
      0.250000          0.286514E-03
      0.255000          0.284946E-03
      0.260000          0.283029E-03
      0.265000          0.280515E-03
      0.270000          0.277272E-03
      0.275000          0.273261E-03
      0.280000          0.268516E-03
      0.285000          0.263123E-03
      0.290000          0.257203E-03
      0.295000          0.250891E-03
      0.300000          0.244330E-03
      0.305000          0.237656E-03
      0.310000          0.230990E-03
      0.315000          0.224438E-03
      0.320000          0.218082E-03
      0.325000          0.211985E-03
      0.330000          0.206185E-03
      0.335000          0.200699E-03
      0.340000          0.195523E-03
      0.345000          0.190634E-03
      0.350000          0.185991E-03
      0.355000          0.181540E-03
      0.360000          0.177219E-03
      0.365000          0.172956E-03
      0.370000          0.168684E-03
      0.375000          0.164337E-03
      0.380000          0.159860E-03
      0.385000          0.155213E-03
      0.390000          0.150378E-03
      0.395000          0.145355E-03
      0.400000          0.140170E-03
      0.405000          0.134872E-03
      0.410000          0.129531E-03
      0.415000          0.124234E-03
      0.420000          0.119081E-03
      0.425000          0.114177E-03
      0.430000          0.109625E-03
      0.435000          0.105523E-03
      0.440000          0.101949E-03
      0.445000          0.989644E-04
      0.450000          0.966035E-04
      0.455000          0.948744E-04
      0.460000          0.937568E-04
      0.465000          0.932041E-04
      0.470000          0.931461E-04
      0.475000          0.934938E-04
      0.480000          0.941453E-04
      0.485000          0.949915E-04
      0.490000          0.959230E-04
      0.495000          0.968359E-04
      0.500000          0.976373E-04
