 I_abs(s)[cm^-1]/c[mg/ml]
       0.00000          0.139142E-01
      0.500000E-02      0.138537E-01
      0.100000E-01      0.136740E-01
      0.150000E-01      0.133796E-01
      0.200000E-01      0.129777E-01
      0.250000E-01      0.124785E-01
      0.300000E-01      0.118940E-01
      0.350000E-01      0.112381E-01
      0.400000E-01      0.105259E-01
      0.450000E-01      0.977337E-02
      0.500000E-01      0.899640E-02
      0.550000E-01      0.821068E-02
      0.600000E-01      0.743103E-02
      0.650000E-01      0.667099E-02
      0.700000E-01      0.594249E-02
      0.750000E-01      0.525557E-02
      0.800000E-01      0.461819E-02
      0.850000E-01      0.403615E-02
      0.900000E-01      0.351310E-02
      0.950000E-01      0.305063E-02
      0.100000          0.264840E-02
      0.105000          0.230442E-02
      0.110000          0.201527E-02
      0.115000          0.177642E-02
      0.120000          0.158250E-02
      0.125000          0.142770E-02
      0.130000          0.130593E-02
      0.135000          0.121121E-02
      0.140000          0.113781E-02
      0.145000          0.108048E-02
      0.150000          0.103454E-02
      0.155000          0.996050E-03
      0.160000          0.961758E-03
      0.165000          0.929175E-03
      0.170000          0.896511E-03
      0.175000          0.862619E-03
      0.180000          0.826915E-03
      0.185000          0.789279E-03
      0.190000          0.749952E-03
      0.195000          0.709430E-03
      0.200000          0.668371E-03
      0.205000          0.627504E-03
      0.210000          0.587554E-03
      0.215000          0.549182E-03
      0.220000          0.512945E-03
      0.225000          0.479265E-03
      0.230000          0.448416E-03
      0.235000          0.420526E-03
      0.240000          0.395587E-03
      0.245000          0.373469E-03
      0.250000          0.353949E-03
      0.255000          0.336734E-03
      0.260000          0.321490E-03
      0.265000          0.307867E-03
      0.270000          0.295518E-03
      0.275000          0.284126E-03
      0.280000          0.273412E-03
      0.285000          0.263146E-03
      0.290000          0.253154E-03
      0.295000          0.243317E-03
      0.300000          0.233567E-03
      0.305000          0.223885E-03
      0.310000          0.214290E-03
      0.315000          0.204831E-03
      0.320000          0.195575E-03
      0.325000          0.186601E-03
      0.330000          0.177990E-03
      0.335000          0.169818E-03
      0.340000          0.162146E-03
      0.345000          0.155023E-03
      0.350000          0.148478E-03
      0.355000          0.142519E-03
      0.360000          0.137139E-03
      0.365000          0.132311E-03
      0.370000          0.127997E-03
      0.375000          0.124146E-03
      0.380000          0.120702E-03
      0.385000          0.117606E-03
      0.390000          0.114798E-03
      0.395000          0.112223E-03
      0.400000          0.109835E-03
      0.405000          0.107593E-03
      0.410000          0.105466E-03
      0.415000          0.103434E-03
      0.420000          0.101488E-03
      0.425000          0.996238E-04
      0.430000          0.978483E-04
      0.435000          0.961725E-04
      0.440000          0.946115E-04
      0.445000          0.931817E-04
      0.450000          0.918996E-04
      0.455000          0.907794E-04
      0.460000          0.898314E-04
      0.465000          0.890612E-04
      0.470000          0.884685E-04
      0.475000          0.880468E-04
      0.480000          0.877833E-04
      0.485000          0.876595E-04
      0.490000          0.876515E-04
      0.495000          0.877313E-04
      0.500000          0.878680E-04
