 I_abs(s)[cm^-1]/c[mg/ml]
       0.00000          0.136666E-01
      0.500000E-02      0.135901E-01
      0.100000E-01      0.133635E-01
      0.150000E-01      0.129958E-01
      0.200000E-01      0.125013E-01
      0.250000E-01      0.118986E-01
      0.300000E-01      0.112097E-01
      0.350000E-01      0.104587E-01
      0.400000E-01      0.967048E-02
      0.450000E-01      0.886900E-02
      0.500000E-01      0.807653E-02
      0.550000E-01      0.731242E-02
      0.600000E-01      0.659235E-02
      0.650000E-01      0.592794E-02
      0.700000E-01      0.532654E-02
      0.750000E-01      0.479139E-02
      0.800000E-01      0.432203E-02
      0.850000E-01      0.391489E-02
      0.900000E-01      0.356403E-02
      0.950000E-01      0.326193E-02
      0.100000          0.300032E-02
      0.105000          0.277090E-02
      0.110000          0.256596E-02
      0.115000          0.237886E-02
      0.120000          0.220432E-02
      0.125000          0.203855E-02
      0.130000          0.187927E-02
      0.135000          0.172547E-02
      0.140000          0.157727E-02
      0.145000          0.143552E-02
      0.150000          0.130153E-02
      0.155000          0.117673E-02
      0.160000          0.106244E-02
      0.165000          0.959599E-03
      0.170000          0.868701E-03
      0.175000          0.789697E-03
      0.180000          0.722024E-03
      0.185000          0.664669E-03
      0.190000          0.616281E-03
      0.195000          0.575308E-03
      0.200000          0.540132E-03
      0.205000          0.509203E-03
      0.210000          0.481144E-03
      0.215000          0.454832E-03
      0.220000          0.429440E-03
      0.225000          0.404450E-03
      0.230000          0.379635E-03
      0.235000          0.355016E-03
      0.240000          0.330808E-03
      0.245000          0.307351E-03
      0.250000          0.285047E-03
      0.255000          0.264299E-03
      0.260000          0.245463E-03
      0.265000          0.228808E-03
      0.270000          0.214497E-03
      0.275000          0.202577E-03
      0.280000          0.192982E-03
      0.285000          0.185547E-03
      0.290000          0.180026E-03
      0.295000          0.176115E-03
      0.300000          0.173479E-03
      0.305000          0.171771E-03
      0.310000          0.170655E-03
      0.315000          0.169823E-03
      0.320000          0.169007E-03
      0.325000          0.167988E-03
      0.330000          0.166602E-03
      0.335000          0.164738E-03
      0.340000          0.162339E-03
      0.345000          0.159397E-03
      0.350000          0.155947E-03
      0.355000          0.152059E-03
      0.360000          0.147830E-03
      0.365000          0.143375E-03
      0.370000          0.138816E-03
      0.375000          0.134277E-03
      0.380000          0.129872E-03
      0.385000          0.125700E-03
      0.390000          0.121839E-03
      0.395000          0.118341E-03
      0.400000          0.115233E-03
      0.405000          0.112516E-03
      0.410000          0.110166E-03
      0.415000          0.108137E-03
      0.420000          0.106371E-03
      0.425000          0.104800E-03
      0.430000          0.103355E-03
      0.435000          0.101968E-03
      0.440000          0.100582E-03
      0.445000          0.991562E-04
      0.450000          0.976626E-04
      0.455000          0.960930E-04
      0.460000          0.944560E-04
      0.465000          0.927750E-04
      0.470000          0.910851E-04
      0.475000          0.894290E-04
      0.480000          0.878517E-04
      0.485000          0.863963E-04
      0.490000          0.850996E-04
      0.495000          0.839890E-04
      0.500000          0.830798E-04
