 I_abs(s)[cm^-1]/c[mg/ml]
       0.00000          0.145030E-01
      0.500000E-02      0.144389E-01
      0.100000E-01      0.142485E-01
      0.150000E-01      0.139380E-01
      0.200000E-01      0.135172E-01
      0.250000E-01      0.129990E-01
      0.300000E-01      0.123988E-01
      0.350000E-01      0.117331E-01
      0.400000E-01      0.110196E-01
      0.450000E-01      0.102755E-01
      0.500000E-01      0.951710E-02
      0.550000E-01      0.875934E-02
      0.600000E-01      0.801514E-02
      0.650000E-01      0.729525E-02
      0.700000E-01      0.660810E-02
      0.750000E-01      0.595994E-02
      0.800000E-01      0.535490E-02
      0.850000E-01      0.479533E-02
      0.900000E-01      0.428201E-02
      0.950000E-01      0.381452E-02
      0.100000          0.339147E-02
      0.105000          0.301078E-02
      0.110000          0.266993E-02
      0.115000          0.236606E-02
      0.120000          0.209620E-02
      0.125000          0.185732E-02
      0.130000          0.164642E-02
      0.135000          0.146063E-02
      0.140000          0.129723E-02
      0.145000          0.115371E-02
      0.150000          0.102777E-02
      0.155000          0.917379E-03
      0.160000          0.820768E-03
      0.165000          0.736400E-03
      0.170000          0.662966E-03
      0.175000          0.599347E-03
      0.180000          0.544569E-03
      0.185000          0.497766E-03
      0.190000          0.458132E-03
      0.195000          0.424891E-03
      0.200000          0.397270E-03
      0.205000          0.374495E-03
      0.210000          0.355787E-03
      0.215000          0.340382E-03
      0.220000          0.327545E-03
      0.225000          0.316602E-03
      0.230000          0.306961E-03
      0.235000          0.298131E-03
      0.240000          0.289734E-03
      0.245000          0.281511E-03
      0.250000          0.273311E-03
      0.255000          0.265083E-03
      0.260000          0.256848E-03
      0.265000          0.248684E-03
      0.270000          0.240693E-03
      0.275000          0.232986E-03
      0.280000          0.225658E-03
      0.285000          0.218782E-03
      0.290000          0.212390E-03
      0.295000          0.206484E-03
      0.300000          0.201026E-03
      0.305000          0.195951E-03
      0.310000          0.191172E-03
      0.315000          0.186594E-03
      0.320000          0.182117E-03
      0.325000          0.177652E-03
      0.330000          0.173123E-03
      0.335000          0.168477E-03
      0.340000          0.163685E-03
      0.345000          0.158745E-03
      0.350000          0.153679E-03
      0.355000          0.148534E-03
      0.360000          0.143371E-03
      0.365000          0.138266E-03
      0.370000          0.133299E-03
      0.375000          0.128548E-03
      0.380000          0.124082E-03
      0.385000          0.119959E-03
      0.390000          0.116219E-03
      0.395000          0.112879E-03
      0.400000          0.109941E-03
      0.405000          0.107386E-03
      0.410000          0.105179E-03
      0.415000          0.103276E-03
      0.420000          0.101627E-03
      0.425000          0.100181E-03
      0.430000          0.988890E-04
      0.435000          0.977129E-04
      0.440000          0.966229E-04
      0.445000          0.956013E-04
      0.450000          0.946421E-04
      0.455000          0.937492E-04
      0.460000          0.929344E-04
      0.465000          0.922144E-04
      0.470000          0.916075E-04
      0.475000          0.911305E-04
      0.480000          0.907955E-04
      0.485000          0.906084E-04
      0.490000          0.905670E-04
      0.495000          0.906603E-04
      0.500000          0.908697E-04
