 I_abs(s)[cm^-1]/c[mg/ml]
       0.00000          0.134442E-01
      0.500000E-02      0.133797E-01
      0.100000E-01      0.131881E-01
      0.150000E-01      0.128757E-01
      0.200000E-01      0.124524E-01
      0.250000E-01      0.119314E-01
      0.300000E-01      0.113284E-01
      0.350000E-01      0.106611E-01
      0.400000E-01      0.994794E-02
      0.450000E-01      0.920769E-02
      0.500000E-01      0.845837E-02
      0.550000E-01      0.771663E-02
      0.600000E-01      0.699715E-02
      0.650000E-01      0.631220E-02
      0.700000E-01      0.567135E-02
      0.750000E-01      0.508141E-02
      0.800000E-01      0.454643E-02
      0.850000E-01      0.406791E-02
      0.900000E-01      0.364512E-02
      0.950000E-01      0.327549E-02
      0.100000          0.295499E-02
      0.105000          0.267866E-02
      0.110000          0.244095E-02
      0.115000          0.223619E-02
      0.120000          0.205885E-02
      0.125000          0.190384E-02
      0.130000          0.176667E-02
      0.135000          0.164356E-02
      0.140000          0.153147E-02
      0.145000          0.142806E-02
      0.150000          0.133168E-02
      0.155000          0.124118E-02
      0.160000          0.115589E-02
      0.165000          0.107546E-02
      0.170000          0.999735E-03
      0.175000          0.928685E-03
      0.180000          0.862320E-03
      0.185000          0.800634E-03
      0.190000          0.743564E-03
      0.195000          0.690979E-03
      0.200000          0.642673E-03
      0.205000          0.598377E-03
      0.210000          0.557776E-03
      0.215000          0.520527E-03
      0.220000          0.486284E-03
      0.225000          0.454710E-03
      0.230000          0.425500E-03
      0.235000          0.398386E-03
      0.240000          0.373142E-03
      0.245000          0.349590E-03
      0.250000          0.327593E-03
      0.255000          0.307052E-03
      0.260000          0.287895E-03
      0.265000          0.270073E-03
      0.270000          0.253551E-03
      0.275000          0.238296E-03
      0.280000          0.224276E-03
      0.285000          0.211453E-03
      0.290000          0.199780E-03
      0.295000          0.189197E-03
      0.300000          0.179638E-03
      0.305000          0.171026E-03
      0.310000          0.163279E-03
      0.315000          0.156310E-03
      0.320000          0.150037E-03
      0.325000          0.144379E-03
      0.330000          0.139264E-03
      0.335000          0.134627E-03
      0.340000          0.130417E-03
      0.345000          0.126591E-03
      0.350000          0.123121E-03
      0.355000          0.119984E-03
      0.360000          0.117169E-03
      0.365000          0.114666E-03
      0.370000          0.112472E-03
      0.375000          0.110580E-03
      0.380000          0.108982E-03
      0.385000          0.107667E-03
      0.390000          0.106617E-03
      0.395000          0.105808E-03
      0.400000          0.105211E-03
      0.405000          0.104790E-03
      0.410000          0.104506E-03
      0.415000          0.104317E-03
      0.420000          0.104180E-03
      0.425000          0.104052E-03
      0.430000          0.103896E-03
      0.435000          0.103676E-03
      0.440000          0.103363E-03
      0.445000          0.102935E-03
      0.450000          0.102379E-03
      0.455000          0.101686E-03
      0.460000          0.100857E-03
      0.465000          0.999001E-04
      0.470000          0.988270E-04
      0.475000          0.976556E-04
      0.480000          0.964066E-04
      0.485000          0.951028E-04
      0.490000          0.937670E-04
      0.495000          0.924215E-04
      0.500000          0.910860E-04
