 I_abs(s)[cm^-1]/c[mg/ml]
       0.00000          0.145189E-01
      0.500000E-02      0.144649E-01
      0.100000E-01      0.143040E-01
      0.150000E-01      0.140401E-01
      0.200000E-01      0.136794E-01
      0.250000E-01      0.132302E-01
      0.300000E-01      0.127027E-01
      0.350000E-01      0.121085E-01
      0.400000E-01      0.114601E-01
      0.450000E-01      0.107709E-01
      0.500000E-01      0.100542E-01
      0.550000E-01      0.932300E-02
      0.600000E-01      0.858968E-02
      0.650000E-01      0.786557E-02
      0.700000E-01      0.716073E-02
      0.750000E-01      0.648368E-02
      0.800000E-01      0.584132E-02
      0.850000E-01      0.523887E-02
      0.900000E-01      0.467991E-02
      0.950000E-01      0.416644E-02
      0.100000          0.369904E-02
      0.105000          0.327705E-02
      0.110000          0.289879E-02
      0.115000          0.256179E-02
      0.120000          0.226299E-02
      0.125000          0.199903E-02
      0.130000          0.176637E-02
      0.135000          0.156149E-02
      0.140000          0.138106E-02
      0.145000          0.122202E-02
      0.150000          0.108162E-02
      0.155000          0.957503E-03
      0.160000          0.847682E-03
      0.165000          0.750528E-03
      0.170000          0.664727E-03
      0.175000          0.589230E-03
      0.180000          0.523196E-03
      0.185000          0.465931E-03
      0.190000          0.416834E-03
      0.195000          0.375343E-03
      0.200000          0.340905E-03
      0.205000          0.312940E-03
      0.210000          0.290831E-03
      0.215000          0.273916E-03
      0.220000          0.261493E-03
      0.225000          0.252834E-03
      0.230000          0.247202E-03
      0.235000          0.243872E-03
      0.240000          0.242152E-03
      0.245000          0.241407E-03
      0.250000          0.241073E-03
      0.255000          0.240674E-03
      0.260000          0.239831E-03
      0.265000          0.238264E-03
      0.270000          0.235793E-03
      0.275000          0.232331E-03
      0.280000          0.227877E-03
      0.285000          0.222500E-03
      0.290000          0.216326E-03
      0.295000          0.209523E-03
      0.300000          0.202285E-03
      0.305000          0.194815E-03
      0.310000          0.187315E-03
      0.315000          0.179971E-03
      0.320000          0.172947E-03
      0.325000          0.166378E-03
      0.330000          0.160364E-03
      0.335000          0.154971E-03
      0.340000          0.150229E-03
      0.345000          0.146139E-03
      0.350000          0.142672E-03
      0.355000          0.139779E-03
      0.360000          0.137393E-03
      0.365000          0.135434E-03
      0.370000          0.133820E-03
      0.375000          0.132466E-03
      0.380000          0.131293E-03
      0.385000          0.130230E-03
      0.390000          0.129215E-03
      0.395000          0.128199E-03
      0.400000          0.127146E-03
      0.405000          0.126031E-03
      0.410000          0.124842E-03
      0.415000          0.123577E-03
      0.420000          0.122239E-03
      0.425000          0.120841E-03
      0.430000          0.119396E-03
      0.435000          0.117920E-03
      0.440000          0.116428E-03
      0.445000          0.114932E-03
      0.450000          0.113443E-03
      0.455000          0.111965E-03
      0.460000          0.110502E-03
      0.465000          0.109050E-03
      0.470000          0.107605E-03
      0.475000          0.106160E-03
      0.480000          0.104705E-03
      0.485000          0.103233E-03
      0.490000          0.101735E-03
      0.495000          0.100206E-03
      0.500000          0.986457E-04
