 I_abs(s)[cm^-1]/c[mg/ml]
       0.00000          0.134137E-01
      0.500000E-02      0.133228E-01
      0.100000E-01      0.130545E-01
      0.150000E-01      0.126217E-01
      0.200000E-01      0.120447E-01
      0.250000E-01      0.113498E-01
      0.300000E-01      0.105675E-01
      0.350000E-01      0.973024E-02
      0.400000E-01      0.887030E-02
      0.450000E-01      0.801781E-02
      0.500000E-01      0.719898E-02
      0.550000E-01      0.643484E-02
      0.600000E-01      0.574045E-02
      0.650000E-01      0.512466E-02
      0.700000E-01      0.459039E-02
      0.750000E-01      0.413529E-02
      0.800000E-01      0.375281E-02
      0.850000E-01      0.343342E-02
      0.900000E-01      0.316590E-02
      0.950000E-01      0.293859E-02
      0.100000          0.274046E-02
      0.105000          0.256189E-02
      0.110000          0.239529E-02
      0.115000          0.223526E-02
      0.120000          0.207858E-02
      0.125000          0.192399E-02
      0.130000          0.177177E-02
      0.135000          0.162322E-02
      0.140000          0.148021E-02
      0.145000          0.134474E-02
      0.150000          0.121851E-02
      0.155000          0.110277E-02
      0.160000          0.998141E-03
      0.165000          0.904652E-03
      0.170000          0.821789E-03
      0.175000          0.748656E-03
      0.180000          0.684133E-03
      0.185000          0.627040E-03
      0.190000          0.576269E-03
      0.195000          0.530875E-03
      0.200000          0.490121E-03
      0.205000          0.453474E-03
      0.210000          0.420573E-03
      0.215000          0.391170E-03
      0.220000          0.365071E-03
      0.225000          0.342076E-03
      0.230000          0.321944E-03
      0.235000          0.304371E-03
      0.240000          0.288998E-03
      0.245000          0.275435E-03
      0.250000          0.263292E-03
      0.255000          0.252218E-03
      0.260000          0.241938E-03
      0.265000          0.232272E-03
      0.270000          0.223147E-03
      0.275000          0.214587E-03
      0.280000          0.206689E-03
      0.285000          0.199599E-03
      0.290000          0.193466E-03
      0.295000          0.188414E-03
      0.300000          0.184509E-03
      0.305000          0.181741E-03
      0.310000          0.180020E-03
      0.315000          0.179177E-03
      0.320000          0.178985E-03
      0.325000          0.179178E-03
      0.330000          0.179481E-03
      0.335000          0.179638E-03
      0.340000          0.179431E-03
      0.345000          0.178697E-03
      0.350000          0.177339E-03
      0.355000          0.175325E-03
      0.360000          0.172682E-03
      0.365000          0.169483E-03
      0.370000          0.165836E-03
      0.375000          0.161869E-03
      0.380000          0.157713E-03
      0.385000          0.153495E-03
      0.390000          0.149329E-03
      0.395000          0.145309E-03
      0.400000          0.141510E-03
      0.405000          0.137989E-03
      0.410000          0.134783E-03
      0.415000          0.131915E-03
      0.420000          0.129393E-03
      0.425000          0.127213E-03
      0.430000          0.125358E-03
      0.435000          0.123802E-03
      0.440000          0.122508E-03
      0.445000          0.121431E-03
      0.450000          0.120519E-03
      0.455000          0.119716E-03
      0.460000          0.118967E-03
      0.465000          0.118217E-03
      0.470000          0.117422E-03
      0.475000          0.116546E-03
      0.480000          0.115564E-03
      0.485000          0.114465E-03
      0.490000          0.113248E-03
      0.495000          0.111923E-03
      0.500000          0.110504E-03
