 I_abs(s)[cm^-1]/c[mg/ml]
       0.00000          0.147020E-01
      0.500000E-02      0.146498E-01
      0.100000E-01      0.144943E-01
      0.150000E-01      0.142390E-01
      0.200000E-01      0.138894E-01
      0.250000E-01      0.134530E-01
      0.300000E-01      0.129390E-01
      0.350000E-01      0.123580E-01
      0.400000E-01      0.117214E-01
      0.450000E-01      0.110414E-01
      0.500000E-01      0.103304E-01
      0.550000E-01      0.960049E-02
      0.600000E-01      0.886341E-02
      0.650000E-01      0.813007E-02
      0.700000E-01      0.741032E-02
      0.750000E-01      0.671280E-02
      0.800000E-01      0.604477E-02
      0.850000E-01      0.541207E-02
      0.900000E-01      0.481911E-02
      0.950000E-01      0.426892E-02
      0.100000          0.376324E-02
      0.105000          0.330264E-02
      0.110000          0.288670E-02
      0.115000          0.251416E-02
      0.120000          0.218309E-02
      0.125000          0.189107E-02
      0.130000          0.163533E-02
      0.135000          0.141293E-02
      0.140000          0.122082E-02
      0.145000          0.105597E-02
      0.150000          0.915474E-03
      0.155000          0.796526E-03
      0.160000          0.696520E-03
      0.165000          0.613038E-03
      0.170000          0.543859E-03
      0.175000          0.486962E-03
      0.180000          0.440513E-03
      0.185000          0.402857E-03
      0.190000          0.372507E-03
      0.195000          0.348136E-03
      0.200000          0.328569E-03
      0.205000          0.312777E-03
      0.210000          0.299876E-03
      0.215000          0.289117E-03
      0.220000          0.279890E-03
      0.225000          0.271714E-03
      0.230000          0.264230E-03
      0.235000          0.257192E-03
      0.240000          0.250455E-03
      0.245000          0.243956E-03
      0.250000          0.237700E-03
      0.255000          0.231740E-03
      0.260000          0.226157E-03
      0.265000          0.221043E-03
      0.270000          0.216482E-03
      0.275000          0.212541E-03
      0.280000          0.209255E-03
      0.285000          0.206624E-03
      0.290000          0.204609E-03
      0.295000          0.203135E-03
      0.300000          0.202098E-03
      0.305000          0.201369E-03
      0.310000          0.200806E-03
      0.315000          0.200265E-03
      0.320000          0.199609E-03
      0.325000          0.198720E-03
      0.330000          0.197504E-03
      0.335000          0.195898E-03
      0.340000          0.193871E-03
      0.345000          0.191425E-03
      0.350000          0.188596E-03
      0.355000          0.185441E-03
      0.360000          0.182040E-03
      0.365000          0.178485E-03
      0.370000          0.174871E-03
      0.375000          0.171291E-03
      0.380000          0.167828E-03
      0.385000          0.164549E-03
      0.390000          0.161504E-03
      0.395000          0.158719E-03
      0.400000          0.156200E-03
      0.405000          0.153933E-03
      0.410000          0.151889E-03
      0.415000          0.150021E-03
      0.420000          0.148278E-03
      0.425000          0.146604E-03
      0.430000          0.144942E-03
      0.435000          0.143243E-03
      0.440000          0.141466E-03
      0.445000          0.139580E-03
      0.450000          0.137568E-03
      0.455000          0.135424E-03
      0.460000          0.133156E-03
      0.465000          0.130781E-03
      0.470000          0.128324E-03
      0.475000          0.125818E-03
      0.480000          0.123294E-03
      0.485000          0.120785E-03
      0.490000          0.118323E-03
      0.495000          0.115932E-03
      0.500000          0.113630E-03
