 I_abs(s)[cm^-1]/c[mg/ml]
       0.00000          0.143290E-01
      0.500000E-02      0.142737E-01
      0.100000E-01      0.141092E-01
      0.150000E-01      0.138396E-01
      0.200000E-01      0.134718E-01
      0.250000E-01      0.130148E-01
      0.300000E-01      0.124796E-01
      0.350000E-01      0.118789E-01
      0.400000E-01      0.112262E-01
      0.450000E-01      0.105356E-01
      0.500000E-01      0.982120E-02
      0.550000E-01      0.909659E-02
      0.600000E-01      0.837452E-02
      0.650000E-01      0.766645E-02
      0.700000E-01      0.698229E-02
      0.750000E-01      0.633022E-02
      0.800000E-01      0.571657E-02
      0.850000E-01      0.514580E-02
      0.900000E-01      0.462061E-02
      0.950000E-01      0.414202E-02
      0.100000          0.370962E-02
      0.105000          0.332178E-02
      0.110000          0.297591E-02
      0.115000          0.266873E-02
      0.120000          0.239654E-02
      0.125000          0.215546E-02
      0.130000          0.194161E-02
      0.135000          0.175134E-02
      0.140000          0.158129E-02
      0.145000          0.142850E-02
      0.150000          0.129049E-02
      0.155000          0.116521E-02
      0.160000          0.105107E-02
      0.165000          0.946832E-03
      0.170000          0.851625E-03
      0.175000          0.764811E-03
      0.180000          0.685942E-03
      0.185000          0.614686E-03
      0.190000          0.550768E-03
      0.195000          0.493922E-03
      0.200000          0.443854E-03
      0.205000          0.400222E-03
      0.210000          0.362623E-03
      0.215000          0.330596E-03
      0.220000          0.303632E-03
      0.225000          0.281183E-03
      0.230000          0.262687E-03
      0.235000          0.247580E-03
      0.240000          0.235320E-03
      0.245000          0.225397E-03
      0.250000          0.217348E-03
      0.255000          0.210763E-03
      0.260000          0.205292E-03
      0.265000          0.200639E-03
      0.270000          0.196569E-03
      0.275000          0.192894E-03
      0.280000          0.189471E-03
      0.285000          0.186198E-03
      0.290000          0.183002E-03
      0.295000          0.179835E-03
      0.300000          0.176668E-03
      0.305000          0.173486E-03
      0.310000          0.170286E-03
      0.315000          0.167072E-03
      0.320000          0.163853E-03
      0.325000          0.160640E-03
      0.330000          0.157449E-03
      0.335000          0.154294E-03
      0.340000          0.151190E-03
      0.345000          0.148148E-03
      0.350000          0.145178E-03
      0.355000          0.142286E-03
      0.360000          0.139474E-03
      0.365000          0.136738E-03
      0.370000          0.134070E-03
      0.375000          0.131457E-03
      0.380000          0.128885E-03
      0.385000          0.126336E-03
      0.390000          0.123791E-03
      0.395000          0.121234E-03
      0.400000          0.118652E-03
      0.405000          0.116036E-03
      0.410000          0.113383E-03
      0.415000          0.110697E-03
      0.420000          0.107991E-03
      0.425000          0.105282E-03
      0.430000          0.102595E-03
      0.435000          0.999607E-04
      0.440000          0.974116E-04
      0.445000          0.949824E-04
      0.450000          0.927067E-04
      0.455000          0.906152E-04
      0.460000          0.887336E-04
      0.465000          0.870811E-04
      0.470000          0.856691E-04
      0.475000          0.845005E-04
      0.480000          0.835699E-04
      0.485000          0.828636E-04
      0.490000          0.823606E-04
      0.495000          0.820342E-04
      0.500000          0.818535E-04
