 I_abs(s)[cm^-1]/c[mg/ml]
       0.00000          0.139608E-01
      0.500000E-02      0.138862E-01
      0.100000E-01      0.136652E-01
      0.150000E-01      0.133063E-01
      0.200000E-01      0.128232E-01
      0.250000E-01      0.122336E-01
      0.300000E-01      0.115585E-01
      0.350000E-01      0.108206E-01
      0.400000E-01      0.100431E-01
      0.450000E-01      0.924875E-02
      0.500000E-01      0.845812E-02
      0.550000E-01      0.768919E-02
      0.600000E-01      0.695653E-02
      0.650000E-01      0.627095E-02
      0.700000E-01      0.563948E-02
      0.750000E-01      0.506559E-02
      0.800000E-01      0.454960E-02
      0.850000E-01      0.408927E-02
      0.900000E-01      0.368053E-02
      0.950000E-01      0.331810E-02
      0.100000          0.299621E-02
      0.105000          0.270916E-02
      0.110000          0.245170E-02
      0.115000          0.221937E-02
      0.120000          0.200861E-02
      0.125000          0.181679E-02
      0.130000          0.164207E-02
      0.135000          0.148329E-02
      0.140000          0.133970E-02
      0.145000          0.121079E-02
      0.150000          0.109607E-02
      0.155000          0.994938E-03
      0.160000          0.906589E-03
      0.165000          0.829984E-03
      0.170000          0.763868E-03
      0.175000          0.706827E-03
      0.180000          0.657379E-03
      0.185000          0.614066E-03
      0.190000          0.575542E-03
      0.195000          0.540648E-03
      0.200000          0.508454E-03
      0.205000          0.478282E-03
      0.210000          0.449691E-03
      0.215000          0.422452E-03
      0.220000          0.396496E-03
      0.225000          0.371863E-03
      0.230000          0.348648E-03
      0.235000          0.326953E-03
      0.240000          0.306858E-03
      0.245000          0.288394E-03
      0.250000          0.271541E-03
      0.255000          0.256232E-03
      0.260000          0.242365E-03
      0.265000          0.229820E-03
      0.270000          0.218477E-03
      0.275000          0.208231E-03
      0.280000          0.198999E-03
      0.285000          0.190724E-03
      0.290000          0.183370E-03
      0.295000          0.176914E-03
      0.300000          0.171337E-03
      0.305000          0.166609E-03
      0.310000          0.162684E-03
      0.315000          0.159490E-03
      0.320000          0.156928E-03
      0.325000          0.154877E-03
      0.330000          0.153198E-03
      0.335000          0.151747E-03
      0.340000          0.150385E-03
      0.345000          0.148988E-03
      0.350000          0.147460E-03
      0.355000          0.145737E-03
      0.360000          0.143792E-03
      0.365000          0.141635E-03
      0.370000          0.139305E-03
      0.375000          0.136867E-03
      0.380000          0.134401E-03
      0.385000          0.131991E-03
      0.390000          0.129717E-03
      0.395000          0.127644E-03
      0.400000          0.125818E-03
      0.405000          0.124261E-03
      0.410000          0.122969E-03
      0.415000          0.121912E-03
      0.420000          0.121041E-03
      0.425000          0.120290E-03
      0.430000          0.119585E-03
      0.435000          0.118846E-03
      0.440000          0.118000E-03
      0.445000          0.116981E-03
      0.450000          0.115740E-03
      0.455000          0.114244E-03
      0.460000          0.112482E-03
      0.465000          0.110462E-03
      0.470000          0.108212E-03
      0.475000          0.105776E-03
      0.480000          0.103213E-03
      0.485000          0.100588E-03
      0.490000          0.979714E-04
      0.495000          0.954327E-04
      0.500000          0.930347E-04
