 I_abs(s)[cm^-1]/c[mg/ml]
       0.00000          0.141561E-01
      0.500000E-02      0.140915E-01
      0.100000E-01      0.138997E-01
      0.150000E-01      0.135867E-01
      0.200000E-01      0.131622E-01
      0.250000E-01      0.126390E-01
      0.300000E-01      0.120324E-01
      0.350000E-01      0.113595E-01
      0.400000E-01      0.106387E-01
      0.450000E-01      0.988811E-02
      0.500000E-01      0.912558E-02
      0.550000E-01      0.836753E-02
      0.600000E-01      0.762850E-02
      0.650000E-01      0.692071E-02
      0.700000E-01      0.625372E-02
      0.750000E-01      0.563436E-02
      0.800000E-01      0.506676E-02
      0.850000E-01      0.455251E-02
      0.900000E-01      0.409099E-02
      0.950000E-01      0.367975E-02
      0.100000          0.331496E-02
      0.105000          0.299187E-02
      0.110000          0.270526E-02
      0.115000          0.244988E-02
      0.120000          0.222074E-02
      0.125000          0.201342E-02
      0.130000          0.182423E-02
      0.135000          0.165028E-02
      0.140000          0.148951E-02
      0.145000          0.134060E-02
      0.150000          0.120287E-02
      0.155000          0.107609E-02
      0.160000          0.960351E-03
      0.165000          0.855861E-03
      0.170000          0.762805E-03
      0.175000          0.681224E-03
      0.180000          0.610923E-03
      0.185000          0.551430E-03
      0.190000          0.501985E-03
      0.195000          0.461575E-03
      0.200000          0.428985E-03
      0.205000          0.402878E-03
      0.210000          0.381875E-03
      0.215000          0.364642E-03
      0.220000          0.349963E-03
      0.225000          0.336805E-03
      0.230000          0.324349E-03
      0.235000          0.312020E-03
      0.240000          0.299476E-03
      0.245000          0.286592E-03
      0.250000          0.273424E-03
      0.255000          0.260161E-03
      0.260000          0.247077E-03
      0.265000          0.234483E-03
      0.270000          0.222679E-03
      0.275000          0.211920E-03
      0.280000          0.202390E-03
      0.285000          0.194188E-03
      0.290000          0.187323E-03
      0.295000          0.181727E-03
      0.300000          0.177262E-03
      0.305000          0.173747E-03
      0.310000          0.170973E-03
      0.315000          0.168731E-03
      0.320000          0.166825E-03
      0.325000          0.165090E-03
      0.330000          0.163400E-03
      0.335000          0.161673E-03
      0.340000          0.159867E-03
      0.345000          0.157975E-03
      0.350000          0.156018E-03
      0.355000          0.154030E-03
      0.360000          0.152053E-03
      0.365000          0.150123E-03
      0.370000          0.148263E-03
      0.375000          0.146481E-03
      0.380000          0.144767E-03
      0.385000          0.143092E-03
      0.390000          0.141415E-03
      0.395000          0.139686E-03
      0.400000          0.137857E-03
      0.405000          0.135880E-03
      0.410000          0.133723E-03
      0.415000          0.131367E-03
      0.420000          0.128813E-03
      0.425000          0.126078E-03
      0.430000          0.123201E-03
      0.435000          0.120232E-03
      0.440000          0.117233E-03
      0.445000          0.114270E-03
      0.450000          0.111410E-03
      0.455000          0.108712E-03
      0.460000          0.106224E-03
      0.465000          0.103983E-03
      0.470000          0.102008E-03
      0.475000          0.100302E-03
      0.480000          0.988548E-04
      0.485000          0.976418E-04
      0.490000          0.966292E-04
      0.495000          0.957772E-04
      0.500000          0.950441E-04
