 I_abs(s)[cm^-1]/c[mg/ml]
       0.00000          0.142503E-01
      0.500000E-02      0.141783E-01
      0.100000E-01      0.139651E-01
      0.150000E-01      0.136187E-01
      0.200000E-01      0.131520E-01
      0.250000E-01      0.125818E-01
      0.300000E-01      0.119277E-01
      0.350000E-01      0.112110E-01
      0.400000E-01      0.104535E-01
      0.450000E-01      0.967616E-02
      0.500000E-01      0.889813E-02
      0.550000E-01      0.813602E-02
      0.600000E-01      0.740330E-02
      0.650000E-01      0.671006E-02
      0.700000E-01      0.606304E-02
      0.750000E-01      0.546585E-02
      0.800000E-01      0.491947E-02
      0.850000E-01      0.442272E-02
      0.900000E-01      0.397294E-02
      0.950000E-01      0.356652E-02
      0.100000          0.319949E-02
      0.105000          0.286787E-02
      0.110000          0.256802E-02
      0.115000          0.229679E-02
      0.120000          0.205160E-02
      0.125000          0.183036E-02
      0.130000          0.163140E-02
      0.135000          0.145333E-02
      0.140000          0.129491E-02
      0.145000          0.115490E-02
      0.150000          0.103200E-02
      0.155000          0.924794E-03
      0.160000          0.831775E-03
      0.165000          0.751346E-03
      0.170000          0.681897E-03
      0.175000          0.621867E-03
      0.180000          0.569811E-03
      0.185000          0.524452E-03
      0.190000          0.484712E-03
      0.195000          0.449720E-03
      0.200000          0.418807E-03
      0.205000          0.391468E-03
      0.210000          0.367333E-03
      0.215000          0.346115E-03
      0.220000          0.327573E-03
      0.225000          0.311480E-03
      0.230000          0.297601E-03
      0.235000          0.285682E-03
      0.240000          0.275448E-03
      0.245000          0.266619E-03
      0.250000          0.258915E-03
      0.255000          0.252079E-03
      0.260000          0.245883E-03
      0.265000          0.240143E-03
      0.270000          0.234719E-03
      0.275000          0.229512E-03
      0.280000          0.224463E-03
      0.285000          0.219540E-03
      0.290000          0.214727E-03
      0.295000          0.210017E-03
      0.300000          0.205401E-03
      0.305000          0.200867E-03
      0.310000          0.196393E-03
      0.315000          0.191950E-03
      0.320000          0.187506E-03
      0.325000          0.183030E-03
      0.330000          0.178491E-03
      0.335000          0.173873E-03
      0.340000          0.169167E-03
      0.345000          0.164379E-03
      0.350000          0.159529E-03
      0.355000          0.154650E-03
      0.360000          0.149786E-03
      0.365000          0.144989E-03
      0.370000          0.140319E-03
      0.375000          0.135837E-03
      0.380000          0.131605E-03
      0.385000          0.127681E-03
      0.390000          0.124120E-03
      0.395000          0.120965E-03
      0.400000          0.118250E-03
      0.405000          0.115994E-03
      0.410000          0.114201E-03
      0.415000          0.112857E-03
      0.420000          0.111929E-03
      0.425000          0.111368E-03
      0.430000          0.111106E-03
      0.435000          0.111066E-03
      0.440000          0.111159E-03
      0.445000          0.111296E-03
      0.450000          0.111386E-03
      0.455000          0.111349E-03
      0.460000          0.111117E-03
      0.465000          0.110637E-03
      0.470000          0.109878E-03
      0.475000          0.108829E-03
      0.480000          0.107499E-03
      0.485000          0.105916E-03
      0.490000          0.104126E-03
      0.495000          0.102184E-03
      0.500000          0.100155E-03
