 I_abs(s)[cm^-1]/c[mg/ml]
       0.00000          0.137515E-01
      0.500000E-02      0.136732E-01
      0.100000E-01      0.134415E-01
      0.150000E-01      0.130650E-01
      0.200000E-01      0.125579E-01
      0.250000E-01      0.119387E-01
      0.300000E-01      0.112293E-01
      0.350000E-01      0.104541E-01
      0.400000E-01      0.963821E-02
      0.450000E-01      0.880657E-02
      0.500000E-01      0.798253E-02
      0.550000E-01      0.718685E-02
      0.600000E-01      0.643691E-02
      0.650000E-01      0.574609E-02
      0.700000E-01      0.512353E-02
      0.750000E-01      0.457408E-02
      0.800000E-01      0.409857E-02
      0.850000E-01      0.369427E-02
      0.900000E-01      0.335556E-02
      0.950000E-01      0.307463E-02
      0.100000          0.284236E-02
      0.105000          0.264902E-02
      0.110000          0.248505E-02
      0.115000          0.234165E-02
      0.120000          0.221124E-02
      0.125000          0.208778E-02
      0.130000          0.196687E-02
      0.135000          0.184581E-02
      0.140000          0.172341E-02
      0.145000          0.159976E-02
      0.150000          0.147593E-02
      0.155000          0.135364E-02
      0.160000          0.123494E-02
      0.165000          0.112186E-02
      0.170000          0.101621E-02
      0.175000          0.919390E-03
      0.180000          0.832255E-03
      0.185000          0.755111E-03
      0.190000          0.687728E-03
      0.195000          0.629424E-03
      0.200000          0.579179E-03
      0.205000          0.535767E-03
      0.210000          0.497888E-03
      0.215000          0.464295E-03
      0.220000          0.433888E-03
      0.225000          0.405783E-03
      0.230000          0.379351E-03
      0.235000          0.354215E-03
      0.240000          0.330232E-03
      0.245000          0.307443E-03
      0.250000          0.286018E-03
      0.255000          0.266188E-03
      0.260000          0.248190E-03
      0.265000          0.232212E-03
      0.270000          0.218355E-03
      0.275000          0.206613E-03
      0.280000          0.196865E-03
      0.285000          0.188890E-03
      0.290000          0.182385E-03
      0.295000          0.176997E-03
      0.300000          0.172357E-03
      0.305000          0.168114E-03
      0.310000          0.163965E-03
      0.315000          0.159680E-03
      0.320000          0.155113E-03
      0.325000          0.150207E-03
      0.330000          0.144991E-03
      0.335000          0.139568E-03
      0.340000          0.134093E-03
      0.345000          0.128753E-03
      0.350000          0.123745E-03
      0.355000          0.119253E-03
      0.360000          0.115428E-03
      0.365000          0.112377E-03
      0.370000          0.110152E-03
      0.375000          0.108749E-03
      0.380000          0.108112E-03
      0.385000          0.108137E-03
      0.390000          0.108687E-03
      0.395000          0.109604E-03
      0.400000          0.110719E-03
      0.405000          0.111871E-03
      0.410000          0.112915E-03
      0.415000          0.113731E-03
      0.420000          0.114233E-03
      0.425000          0.114365E-03
      0.430000          0.114108E-03
      0.435000          0.113471E-03
      0.440000          0.112490E-03
      0.445000          0.111219E-03
      0.450000          0.109722E-03
      0.455000          0.108070E-03
      0.460000          0.106330E-03
      0.465000          0.104563E-03
      0.470000          0.102818E-03
      0.475000          0.101130E-03
      0.480000          0.995230E-04
      0.485000          0.980052E-04
      0.490000          0.965748E-04
      0.495000          0.952213E-04
      0.500000          0.939293E-04
