 I_abs(s)[cm^-1]/c[mg/ml]
       0.00000          0.134671E-01
      0.500000E-02      0.133747E-01
      0.100000E-01      0.131015E-01
      0.150000E-01      0.126601E-01
      0.200000E-01      0.120705E-01
      0.250000E-01      0.113584E-01
      0.300000E-01      0.105541E-01
      0.350000E-01      0.968981E-02
      0.400000E-01      0.879815E-02
      0.450000E-01      0.790985E-02
      0.500000E-01      0.705220E-02
      0.550000E-01      0.624767E-02
      0.600000E-01      0.551302E-02
      0.650000E-01      0.485894E-02
      0.700000E-01      0.429012E-02
      0.750000E-01      0.380577E-02
      0.800000E-01      0.340056E-02
      0.850000E-01      0.306568E-02
      0.900000E-01      0.279007E-02
      0.950000E-01      0.256174E-02
      0.100000          0.236880E-02
      0.105000          0.220047E-02
      0.110000          0.204773E-02
      0.115000          0.190372E-02
      0.120000          0.176388E-02
      0.125000          0.162584E-02
      0.130000          0.148911E-02
      0.135000          0.135460E-02
      0.140000          0.122420E-02
      0.145000          0.110017E-02
      0.150000          0.984779E-03
      0.155000          0.879906E-03
      0.160000          0.786819E-03
      0.165000          0.706059E-03
      0.170000          0.637448E-03
      0.175000          0.580179E-03
      0.180000          0.532982E-03
      0.185000          0.494314E-03
      0.190000          0.462559E-03
      0.195000          0.436193E-03
      0.200000          0.413918E-03
      0.205000          0.394740E-03
      0.210000          0.377986E-03
      0.215000          0.363287E-03
      0.220000          0.350512E-03
      0.225000          0.339682E-03
      0.230000          0.330889E-03
      0.235000          0.324202E-03
      0.240000          0.319607E-03
      0.245000          0.316966E-03
      0.250000          0.316003E-03
      0.255000          0.316314E-03
      0.260000          0.317403E-03
      0.265000          0.318725E-03
      0.270000          0.319741E-03
      0.275000          0.319967E-03
      0.280000          0.319015E-03
      0.285000          0.316622E-03
      0.290000          0.312666E-03
      0.295000          0.307157E-03
      0.300000          0.300228E-03
      0.305000          0.292106E-03
      0.310000          0.283081E-03
      0.315000          0.273468E-03
      0.320000          0.263580E-03
      0.325000          0.253700E-03
      0.330000          0.244059E-03
      0.335000          0.234826E-03
      0.340000          0.226106E-03
      0.345000          0.217940E-03
      0.350000          0.210320E-03
      0.355000          0.203195E-03
      0.360000          0.196491E-03
      0.365000          0.190123E-03
      0.370000          0.184009E-03
      0.375000          0.178079E-03
      0.380000          0.172281E-03
      0.385000          0.166589E-03
      0.390000          0.160998E-03
      0.395000          0.155526E-03
      0.400000          0.150208E-03
      0.405000          0.145092E-03
      0.410000          0.140230E-03
      0.415000          0.135674E-03
      0.420000          0.131470E-03
      0.425000          0.127654E-03
      0.430000          0.124244E-03
      0.435000          0.121245E-03
      0.440000          0.118643E-03
      0.445000          0.116407E-03
      0.450000          0.114493E-03
      0.455000          0.112848E-03
      0.460000          0.111411E-03
      0.465000          0.110119E-03
      0.470000          0.108913E-03
      0.475000          0.107741E-03
      0.480000          0.106563E-03
      0.485000          0.105349E-03
      0.490000          0.104085E-03
      0.495000          0.102770E-03
      0.500000          0.101416E-03
