 I_abs(s)[cm^-1]/c[mg/ml]
       0.00000          0.141483E-01
      0.500000E-02      0.140853E-01
      0.100000E-01      0.138981E-01
      0.150000E-01      0.135920E-01
      0.200000E-01      0.131755E-01
      0.250000E-01      0.126599E-01
      0.300000E-01      0.120590E-01
      0.350000E-01      0.113882E-01
      0.400000E-01      0.106643E-01
      0.450000E-01      0.990443E-02
      0.500000E-01      0.912545E-02
      0.550000E-01      0.834355E-02
      0.600000E-01      0.757356E-02
      0.650000E-01      0.682855E-02
      0.700000E-01      0.611947E-02
      0.750000E-01      0.545501E-02
      0.800000E-01      0.484147E-02
      0.850000E-01      0.428280E-02
      0.900000E-01      0.378079E-02
      0.950000E-01      0.333526E-02
      0.100000          0.294434E-02
      0.105000          0.260485E-02
      0.110000          0.231260E-02
      0.115000          0.206278E-02
      0.120000          0.185025E-02
      0.125000          0.166986E-02
      0.130000          0.151663E-02
      0.135000          0.138598E-02
      0.140000          0.127384E-02
      0.145000          0.117668E-02
      0.150000          0.109159E-02
      0.155000          0.101620E-02
      0.160000          0.948649E-03
      0.165000          0.887516E-03
      0.170000          0.831732E-03
      0.175000          0.780493E-03
      0.180000          0.733189E-03
      0.185000          0.689330E-03
      0.190000          0.648507E-03
      0.195000          0.610347E-03
      0.200000          0.574503E-03
      0.205000          0.540646E-03
      0.210000          0.508468E-03
      0.215000          0.477700E-03
      0.220000          0.448119E-03
      0.225000          0.419564E-03
      0.230000          0.391949E-03
      0.235000          0.365261E-03
      0.240000          0.339560E-03
      0.245000          0.314972E-03
      0.250000          0.291669E-03
      0.255000          0.269851E-03
      0.260000          0.249728E-03
      0.265000          0.231489E-03
      0.270000          0.215291E-03
      0.275000          0.201235E-03
      0.280000          0.189355E-03
      0.285000          0.179617E-03
      0.290000          0.171909E-03
      0.295000          0.166057E-03
      0.300000          0.161829E-03
      0.305000          0.158952E-03
      0.310000          0.157129E-03
      0.315000          0.156056E-03
      0.320000          0.155443E-03
      0.325000          0.155025E-03
      0.330000          0.154577E-03
      0.335000          0.153923E-03
      0.340000          0.152939E-03
      0.345000          0.151558E-03
      0.350000          0.149761E-03
      0.355000          0.147572E-03
      0.360000          0.145054E-03
      0.365000          0.142290E-03
      0.370000          0.139381E-03
      0.375000          0.136429E-03
      0.380000          0.133530E-03
      0.385000          0.130768E-03
      0.390000          0.128207E-03
      0.395000          0.125890E-03
      0.400000          0.123836E-03
      0.405000          0.122044E-03
      0.410000          0.120495E-03
      0.415000          0.119156E-03
      0.420000          0.117984E-03
      0.425000          0.116935E-03
      0.430000          0.115963E-03
      0.435000          0.115029E-03
      0.440000          0.114102E-03
      0.445000          0.113160E-03
      0.450000          0.112192E-03
      0.455000          0.111197E-03
      0.460000          0.110182E-03
      0.465000          0.109159E-03
      0.470000          0.108147E-03
      0.475000          0.107162E-03
      0.480000          0.106220E-03
      0.485000          0.105333E-03
      0.490000          0.104506E-03
      0.495000          0.103739E-03
      0.500000          0.103025E-03
