 I_abs(s)[cm^-1]/c[mg/ml]
       0.00000          0.134901E-01
      0.500000E-02      0.134065E-01
      0.100000E-01      0.131595E-01
      0.150000E-01      0.127592E-01
      0.200000E-01      0.122222E-01
      0.250000E-01      0.115701E-01
      0.300000E-01      0.108282E-01
      0.350000E-01      0.100238E-01
      0.400000E-01      0.918516E-02
      0.450000E-01      0.833915E-02
      0.500000E-01      0.751039E-02
      0.550000E-01      0.671990E-02
      0.600000E-01      0.598430E-02
      0.650000E-01      0.531538E-02
      0.700000E-01      0.472002E-02
      0.750000E-01      0.420043E-02
      0.800000E-01      0.375473E-02
      0.850000E-01      0.337769E-02
      0.900000E-01      0.306167E-02
      0.950000E-01      0.279753E-02
      0.100000          0.257557E-02
      0.105000          0.238633E-02
      0.110000          0.222123E-02
      0.115000          0.207304E-02
      0.120000          0.193615E-02
      0.125000          0.180659E-02
      0.130000          0.168199E-02
      0.135000          0.156134E-02
      0.140000          0.144465E-02
      0.145000          0.133264E-02
      0.150000          0.122640E-02
      0.155000          0.112706E-02
      0.160000          0.103558E-02
      0.165000          0.952543E-03
      0.170000          0.878141E-03
      0.175000          0.812104E-03
      0.180000          0.753786E-03
      0.185000          0.702251E-03
      0.190000          0.656393E-03
      0.195000          0.615063E-03
      0.200000          0.577176E-03
      0.205000          0.541804E-03
      0.210000          0.508232E-03
      0.215000          0.475984E-03
      0.220000          0.444819E-03
      0.225000          0.414697E-03
      0.230000          0.385739E-03
      0.235000          0.358159E-03
      0.240000          0.332218E-03
      0.245000          0.308165E-03
      0.250000          0.286196E-03
      0.255000          0.266430E-03
      0.260000          0.248894E-03
      0.265000          0.233522E-03
      0.270000          0.220170E-03
      0.275000          0.208630E-03
      0.280000          0.198659E-03
      0.285000          0.189997E-03
      0.290000          0.182394E-03
      0.295000          0.175627E-03
      0.300000          0.169508E-03
      0.305000          0.163898E-03
      0.310000          0.158702E-03
      0.315000          0.153867E-03
      0.320000          0.149378E-03
      0.325000          0.145245E-03
      0.330000          0.141493E-03
      0.335000          0.138152E-03
      0.340000          0.135251E-03
      0.345000          0.132807E-03
      0.350000          0.130820E-03
      0.355000          0.129273E-03
      0.360000          0.128129E-03
      0.365000          0.127334E-03
      0.370000          0.126820E-03
      0.375000          0.126508E-03
      0.380000          0.126317E-03
      0.385000          0.126166E-03
      0.390000          0.125983E-03
      0.395000          0.125705E-03
      0.400000          0.125285E-03
      0.405000          0.124696E-03
      0.410000          0.123926E-03
      0.415000          0.122984E-03
      0.420000          0.121893E-03
      0.425000          0.120691E-03
      0.430000          0.119421E-03
      0.435000          0.118134E-03
      0.440000          0.116878E-03
      0.445000          0.115696E-03
      0.450000          0.114623E-03
      0.455000          0.113684E-03
      0.460000          0.112887E-03
      0.465000          0.112231E-03
      0.470000          0.111700E-03
      0.475000          0.111269E-03
      0.480000          0.110904E-03
      0.485000          0.110566E-03
      0.490000          0.110217E-03
      0.495000          0.109820E-03
      0.500000          0.109341E-03
