 I_abs(s)[cm^-1]/c[mg/ml]
       0.00000          0.144476E-01
      0.500000E-02      0.143849E-01
      0.100000E-01      0.141986E-01
      0.150000E-01      0.138936E-01
      0.200000E-01      0.134781E-01
      0.250000E-01      0.129629E-01
      0.300000E-01      0.123611E-01
      0.350000E-01      0.116878E-01
      0.400000E-01      0.109591E-01
      0.450000E-01      0.101917E-01
      0.500000E-01      0.940220E-02
      0.550000E-01      0.860675E-02
      0.600000E-01      0.782020E-02
      0.650000E-01      0.705586E-02
      0.700000E-01      0.632513E-02
      0.750000E-01      0.563721E-02
      0.800000E-01      0.499905E-02
      0.850000E-01      0.441530E-02
      0.900000E-01      0.388839E-02
      0.950000E-01      0.341876E-02
      0.100000          0.300505E-02
      0.105000          0.264447E-02
      0.110000          0.233304E-02
      0.115000          0.206603E-02
      0.120000          0.183822E-02
      0.125000          0.164424E-02
      0.130000          0.147884E-02
      0.135000          0.133709E-02
      0.140000          0.121453E-02
      0.145000          0.110734E-02
      0.150000          0.101233E-02
      0.155000          0.926980E-03
      0.160000          0.849417E-03
      0.165000          0.778315E-03
      0.170000          0.712834E-03
      0.175000          0.652510E-03
      0.180000          0.597152E-03
      0.185000          0.546743E-03
      0.190000          0.501348E-03
      0.195000          0.461039E-03
      0.200000          0.425842E-03
      0.205000          0.395691E-03
      0.210000          0.370413E-03
      0.215000          0.349719E-03
      0.220000          0.333216E-03
      0.225000          0.320424E-03
      0.230000          0.310803E-03
      0.235000          0.303781E-03
      0.240000          0.298782E-03
      0.245000          0.295257E-03
      0.250000          0.292702E-03
      0.255000          0.290677E-03
      0.260000          0.288819E-03
      0.265000          0.286844E-03
      0.270000          0.284550E-03
      0.275000          0.281806E-03
      0.280000          0.278549E-03
      0.285000          0.274768E-03
      0.290000          0.270494E-03
      0.295000          0.265783E-03
      0.300000          0.260710E-03
      0.305000          0.255350E-03
      0.310000          0.249777E-03
      0.315000          0.244051E-03
      0.320000          0.238221E-03
      0.325000          0.232314E-03
      0.330000          0.226345E-03
      0.335000          0.220312E-03
      0.340000          0.214205E-03
      0.345000          0.208004E-03
      0.350000          0.201688E-03
      0.355000          0.195241E-03
      0.360000          0.188651E-03
      0.365000          0.181916E-03
      0.370000          0.175049E-03
      0.375000          0.168076E-03
      0.380000          0.161036E-03
      0.385000          0.153985E-03
      0.390000          0.146986E-03
      0.395000          0.140114E-03
      0.400000          0.133450E-03
      0.405000          0.127073E-03
      0.410000          0.121063E-03
      0.415000          0.115492E-03
      0.420000          0.110421E-03
      0.425000          0.105899E-03
      0.430000          0.101961E-03
      0.435000          0.986214E-04
      0.440000          0.958804E-04
      0.445000          0.937193E-04
      0.450000          0.921041E-04
      0.455000          0.909865E-04
      0.460000          0.903071E-04
      0.465000          0.899980E-04
      0.470000          0.899866E-04
      0.475000          0.901988E-04
      0.480000          0.905620E-04
      0.485000          0.910086E-04
      0.490000          0.914785E-04
      0.495000          0.919205E-04
      0.500000          0.922945E-04
