 I_abs(s)[cm^-1]/c[mg/ml]
       0.00000          0.134213E-01
      0.500000E-02      0.133367E-01
      0.100000E-01      0.130869E-01
      0.150000E-01      0.126832E-01
      0.200000E-01      0.121439E-01
      0.250000E-01      0.114923E-01
      0.300000E-01      0.107557E-01
      0.350000E-01      0.996344E-02
      0.400000E-01      0.914460E-02
      0.450000E-01      0.832666E-02
      0.500000E-01      0.753380E-02
      0.550000E-01      0.678575E-02
      0.600000E-01      0.609711E-02
      0.650000E-01      0.547706E-02
      0.700000E-01      0.492953E-02
      0.750000E-01      0.445378E-02
      0.800000E-01      0.404527E-02
      0.850000E-01      0.369665E-02
      0.900000E-01      0.339889E-02
      0.950000E-01      0.314236E-02
      0.100000          0.291774E-02
      0.105000          0.271675E-02
      0.110000          0.253265E-02
      0.115000          0.236047E-02
      0.120000          0.219702E-02
      0.125000          0.204070E-02
      0.130000          0.189119E-02
      0.135000          0.174903E-02
      0.140000          0.161523E-02
      0.145000          0.149088E-02
      0.150000          0.137683E-02
      0.155000          0.127353E-02
      0.160000          0.118090E-02
      0.165000          0.109835E-02
      0.170000          0.102482E-02
      0.175000          0.958970E-03
      0.180000          0.899307E-03
      0.185000          0.844347E-03
      0.190000          0.792764E-03
      0.195000          0.743481E-03
      0.200000          0.695729E-03
      0.205000          0.649060E-03
      0.210000          0.603315E-03
      0.215000          0.558575E-03
      0.220000          0.515088E-03
      0.225000          0.473199E-03
      0.230000          0.433281E-03
      0.235000          0.395685E-03
      0.240000          0.360705E-03
      0.245000          0.328558E-03
      0.250000          0.299386E-03
      0.255000          0.273256E-03
      0.260000          0.250173E-03
      0.265000          0.230094E-03
      0.270000          0.212936E-03
      0.275000          0.198576E-03
      0.280000          0.186856E-03
      0.285000          0.177577E-03
      0.290000          0.170496E-03
      0.295000          0.165323E-03
      0.300000          0.161728E-03
      0.305000          0.159350E-03
      0.310000          0.157807E-03
      0.315000          0.156726E-03
      0.320000          0.155758E-03
      0.325000          0.154608E-03
      0.330000          0.153049E-03
      0.335000          0.150940E-03
      0.340000          0.148227E-03
      0.345000          0.144944E-03
      0.350000          0.141196E-03
      0.355000          0.137142E-03
      0.360000          0.132967E-03
      0.365000          0.128861E-03
      0.370000          0.124991E-03
      0.375000          0.121481E-03
      0.380000          0.118403E-03
      0.385000          0.115773E-03
      0.390000          0.113552E-03
      0.395000          0.111657E-03
      0.400000          0.109982E-03
      0.405000          0.108410E-03
      0.410000          0.106838E-03
      0.415000          0.105185E-03
      0.420000          0.103412E-03
      0.425000          0.101516E-03
      0.430000          0.995365E-04
      0.435000          0.975449E-04
      0.440000          0.956311E-04
      0.445000          0.938906E-04
      0.450000          0.924090E-04
      0.455000          0.912486E-04
      0.460000          0.904394E-04
      0.465000          0.899737E-04
      0.470000          0.898064E-04
      0.475000          0.898612E-04
      0.480000          0.900390E-04
      0.485000          0.902309E-04
      0.490000          0.903310E-04
      0.495000          0.902488E-04
      0.500000          0.899192E-04
