 I_abs(s)[cm^-1]/c[mg/ml]
       0.00000          0.133451E-01
      0.500000E-02      0.132587E-01
      0.100000E-01      0.130037E-01
      0.150000E-01      0.125923E-01
      0.200000E-01      0.120436E-01
      0.250000E-01      0.113826E-01
      0.300000E-01      0.106380E-01
      0.350000E-01      0.984031E-02
      0.400000E-01      0.901996E-02
      0.450000E-01      0.820509E-02
      0.500000E-01      0.742016E-02
      0.550000E-01      0.668472E-02
      0.600000E-01      0.601269E-02
      0.650000E-01      0.541223E-02
      0.700000E-01      0.488601E-02
      0.750000E-01      0.443196E-02
      0.800000E-01      0.404420E-02
      0.850000E-01      0.371431E-02
      0.900000E-01      0.343246E-02
      0.950000E-01      0.318855E-02
      0.100000          0.297320E-02
      0.105000          0.277838E-02
      0.110000          0.259786E-02
      0.115000          0.242736E-02
      0.120000          0.226439E-02
      0.125000          0.210802E-02
      0.130000          0.195843E-02
      0.135000          0.181645E-02
      0.140000          0.168314E-02
      0.145000          0.155942E-02
      0.150000          0.144580E-02
      0.155000          0.134226E-02
      0.160000          0.124822E-02
      0.165000          0.116264E-02
      0.170000          0.108418E-02
      0.175000          0.101136E-02
      0.180000          0.942787E-03
      0.185000          0.877299E-03
      0.190000          0.814068E-03
      0.195000          0.752657E-03
      0.200000          0.693010E-03
      0.205000          0.635390E-03
      0.210000          0.580279E-03
      0.215000          0.528265E-03
      0.220000          0.479926E-03
      0.225000          0.435738E-03
      0.230000          0.396008E-03
      0.235000          0.360835E-03
      0.240000          0.330116E-03
      0.245000          0.303573E-03
      0.250000          0.280798E-03
      0.255000          0.261317E-03
      0.260000          0.244641E-03
      0.265000          0.230314E-03
      0.270000          0.217948E-03
      0.275000          0.207238E-03
      0.280000          0.197959E-03
      0.285000          0.189951E-03
      0.290000          0.183100E-03
      0.295000          0.177311E-03
      0.300000          0.172485E-03
      0.305000          0.168507E-03
      0.310000          0.165237E-03
      0.315000          0.162516E-03
      0.320000          0.160173E-03
      0.325000          0.158043E-03
      0.330000          0.155985E-03
      0.335000          0.153898E-03
      0.340000          0.151728E-03
      0.345000          0.149475E-03
      0.350000          0.147187E-03
      0.355000          0.144950E-03
      0.360000          0.142874E-03
      0.365000          0.141072E-03
      0.370000          0.139640E-03
      0.375000          0.138646E-03
      0.380000          0.138112E-03
      0.385000          0.138016E-03
      0.390000          0.138286E-03
      0.395000          0.138810E-03
      0.400000          0.139449E-03
      0.405000          0.140050E-03
      0.410000          0.140458E-03
      0.415000          0.140537E-03
      0.420000          0.140177E-03
      0.425000          0.139302E-03
      0.430000          0.137877E-03
      0.435000          0.135905E-03
      0.440000          0.133424E-03
      0.445000          0.130498E-03
      0.450000          0.127212E-03
      0.455000          0.123661E-03
      0.460000          0.119944E-03
      0.465000          0.116154E-03
      0.470000          0.112374E-03
      0.475000          0.108676E-03
      0.480000          0.105119E-03
      0.485000          0.101746E-03
      0.490000          0.985921E-04
      0.495000          0.956799E-04
      0.500000          0.930250E-04
