 I_abs(s)[cm^-1]/c[mg/ml]
       0.00000          0.144872E-01
      0.500000E-02      0.144222E-01
      0.100000E-01      0.142294E-01
      0.150000E-01      0.139146E-01
      0.200000E-01      0.134875E-01
      0.250000E-01      0.129608E-01
      0.300000E-01      0.123496E-01
      0.350000E-01      0.116710E-01
      0.400000E-01      0.109428E-01
      0.450000E-01      0.101832E-01
      0.500000E-01      0.940962E-02
      0.550000E-01      0.863822E-02
      0.600000E-01      0.788331E-02
      0.650000E-01      0.715692E-02
      0.700000E-01      0.646857E-02
      0.750000E-01      0.582516E-02
      0.800000E-01      0.523105E-02
      0.850000E-01      0.468824E-02
      0.900000E-01      0.419667E-02
      0.950000E-01      0.375461E-02
      0.100000          0.335905E-02
      0.105000          0.300614E-02
      0.110000          0.269156E-02
      0.115000          0.241089E-02
      0.120000          0.215988E-02
      0.125000          0.193466E-02
      0.130000          0.173186E-02
      0.135000          0.154870E-02
      0.140000          0.138296E-02
      0.145000          0.123291E-02
      0.150000          0.109727E-02
      0.155000          0.975055E-03
      0.160000          0.865511E-03
      0.165000          0.767974E-03
      0.170000          0.681817E-03
      0.175000          0.606375E-03
      0.180000          0.540923E-03
      0.185000          0.484660E-03
      0.190000          0.436721E-03
      0.195000          0.396202E-03
      0.200000          0.362194E-03
      0.205000          0.333816E-03
      0.210000          0.310244E-03
      0.215000          0.290742E-03
      0.220000          0.274664E-03
      0.225000          0.261470E-03
      0.230000          0.250707E-03
      0.235000          0.242006E-03
      0.240000          0.235056E-03
      0.245000          0.229587E-03
      0.250000          0.225354E-03
      0.255000          0.222116E-03
      0.260000          0.219637E-03
      0.265000          0.217676E-03
      0.270000          0.215995E-03
      0.275000          0.214367E-03
      0.280000          0.212587E-03
      0.285000          0.210483E-03
      0.290000          0.207934E-03
      0.295000          0.204869E-03
      0.300000          0.201280E-03
      0.305000          0.197214E-03
      0.310000          0.192771E-03
      0.315000          0.188089E-03
      0.320000          0.183332E-03
      0.325000          0.178673E-03
      0.330000          0.174275E-03
      0.335000          0.170278E-03
      0.340000          0.166784E-03
      0.345000          0.163850E-03
      0.350000          0.161483E-03
      0.355000          0.159644E-03
      0.360000          0.158247E-03
      0.365000          0.157177E-03
      0.370000          0.156294E-03
      0.375000          0.155450E-03
      0.380000          0.154502E-03
      0.385000          0.153322E-03
      0.390000          0.151809E-03
      0.395000          0.149892E-03
      0.400000          0.147536E-03
      0.405000          0.144743E-03
      0.410000          0.141545E-03
      0.415000          0.138000E-03
      0.420000          0.134189E-03
      0.425000          0.130201E-03
      0.430000          0.126133E-03
      0.435000          0.122075E-03
      0.440000          0.118110E-03
      0.445000          0.114306E-03
      0.450000          0.110716E-03
      0.455000          0.107375E-03
      0.460000          0.104304E-03
      0.465000          0.101507E-03
      0.470000          0.989768E-04
      0.475000          0.966995E-04
      0.480000          0.946544E-04
      0.485000          0.928189E-04
      0.490000          0.911699E-04
      0.495000          0.896856E-04
      0.500000          0.883465E-04
