 I_abs(s)[cm^-1]/c[mg/ml]
       0.00000          0.137979E-01
      0.500000E-02      0.137132E-01
      0.100000E-01      0.134632E-01
      0.150000E-01      0.130590E-01
      0.200000E-01      0.125183E-01
      0.250000E-01      0.118643E-01
      0.300000E-01      0.111238E-01
      0.350000E-01      0.103252E-01
      0.400000E-01      0.949737E-02
      0.450000E-01      0.866706E-02
      0.500000E-01      0.785804E-02
      0.550000E-01      0.708977E-02
      0.600000E-01      0.637676E-02
      0.650000E-01      0.572833E-02
      0.700000E-01      0.514884E-02
      0.750000E-01      0.463824E-02
      0.800000E-01      0.419288E-02
      0.850000E-01      0.380650E-02
      0.900000E-01      0.347127E-02
      0.950000E-01      0.317874E-02
      0.100000          0.292070E-02
      0.105000          0.268979E-02
      0.110000          0.247995E-02
      0.115000          0.228655E-02
      0.120000          0.210645E-02
      0.125000          0.193775E-02
      0.130000          0.177957E-02
      0.135000          0.163167E-02
      0.140000          0.149419E-02
      0.145000          0.136732E-02
      0.150000          0.125113E-02
      0.155000          0.114542E-02
      0.160000          0.104968E-02
      0.165000          0.963177E-03
      0.170000          0.884945E-03
      0.175000          0.813961E-03
      0.180000          0.749222E-03
      0.185000          0.689839E-03
      0.190000          0.635099E-03
      0.195000          0.584489E-03
      0.200000          0.537685E-03
      0.205000          0.494520E-03
      0.210000          0.454927E-03
      0.215000          0.418882E-03
      0.220000          0.386351E-03
      0.225000          0.357247E-03
      0.230000          0.331410E-03
      0.235000          0.308604E-03
      0.240000          0.288528E-03
      0.245000          0.270843E-03
      0.250000          0.255202E-03
      0.255000          0.241280E-03
      0.260000          0.228797E-03
      0.265000          0.217534E-03
      0.270000          0.207332E-03
      0.275000          0.198090E-03
      0.280000          0.189748E-03
      0.285000          0.182269E-03
      0.290000          0.175619E-03
      0.295000          0.169752E-03
      0.300000          0.164601E-03
      0.305000          0.160073E-03
      0.310000          0.156056E-03
      0.315000          0.152425E-03
      0.320000          0.149059E-03
      0.325000          0.145853E-03
      0.330000          0.142728E-03
      0.335000          0.139642E-03
      0.340000          0.136593E-03
      0.345000          0.133612E-03
      0.350000          0.130759E-03
      0.355000          0.128112E-03
      0.360000          0.125750E-03
      0.365000          0.123742E-03
      0.370000          0.122138E-03
      0.375000          0.120954E-03
      0.380000          0.120178E-03
      0.385000          0.119760E-03
      0.390000          0.119628E-03
      0.395000          0.119685E-03
      0.400000          0.119826E-03
      0.405000          0.119945E-03
      0.410000          0.119945E-03
      0.415000          0.119746E-03
      0.420000          0.119291E-03
      0.425000          0.118548E-03
      0.430000          0.117509E-03
      0.435000          0.116190E-03
      0.440000          0.114627E-03
      0.445000          0.112869E-03
      0.450000          0.110977E-03
      0.455000          0.109012E-03
      0.460000          0.107037E-03
      0.465000          0.105111E-03
      0.470000          0.103285E-03
      0.475000          0.101598E-03
      0.480000          0.100082E-03
      0.485000          0.987536E-04
      0.490000          0.976191E-04
      0.495000          0.966728E-04
      0.500000          0.958978E-04
