 I_abs(s)[cm^-1]/c[mg/ml]
       0.00000          0.145745E-01
      0.500000E-02      0.145096E-01
      0.100000E-01      0.143170E-01
      0.150000E-01      0.140026E-01
      0.200000E-01      0.135762E-01
      0.250000E-01      0.130504E-01
      0.300000E-01      0.124404E-01
      0.350000E-01      0.117629E-01
      0.400000E-01      0.110354E-01
      0.450000E-01      0.102753E-01
      0.500000E-01      0.949934E-02
      0.550000E-01      0.872273E-02
      0.600000E-01      0.795891E-02
      0.650000E-01      0.721917E-02
      0.700000E-01      0.651248E-02
      0.750000E-01      0.584556E-02
      0.800000E-01      0.522300E-02
      0.850000E-01      0.464748E-02
      0.900000E-01      0.412005E-02
      0.950000E-01      0.364049E-02
      0.100000          0.320756E-02
      0.105000          0.281928E-02
      0.110000          0.247320E-02
      0.115000          0.216657E-02
      0.120000          0.189648E-02
      0.125000          0.165993E-02
      0.130000          0.145396E-02
      0.135000          0.127563E-02
      0.140000          0.112209E-02
      0.145000          0.990603E-03
      0.150000          0.878542E-03
      0.155000          0.783455E-03
      0.160000          0.703071E-03
      0.165000          0.635327E-03
      0.170000          0.578384E-03
      0.175000          0.530638E-03
      0.180000          0.490717E-03
      0.185000          0.457460E-03
      0.190000          0.429902E-03
      0.195000          0.407232E-03
      0.200000          0.388762E-03
      0.205000          0.373892E-03
      0.210000          0.362077E-03
      0.215000          0.352805E-03
      0.220000          0.345582E-03
      0.225000          0.339929E-03
      0.230000          0.335386E-03
      0.235000          0.331520E-03
      0.240000          0.327938E-03
      0.245000          0.324301E-03
      0.250000          0.320333E-03
      0.255000          0.315828E-03
      0.260000          0.310649E-03
      0.265000          0.304727E-03
      0.270000          0.298047E-03
      0.275000          0.290642E-03
      0.280000          0.282576E-03
      0.285000          0.273935E-03
      0.290000          0.264817E-03
      0.295000          0.255323E-03
      0.300000          0.245559E-03
      0.305000          0.235626E-03
      0.310000          0.225630E-03
      0.315000          0.215675E-03
      0.320000          0.205870E-03
      0.325000          0.196326E-03
      0.330000          0.187153E-03
      0.335000          0.178458E-03
      0.340000          0.170338E-03
      0.345000          0.162877E-03
      0.350000          0.156135E-03
      0.355000          0.150148E-03
      0.360000          0.144923E-03
      0.365000          0.140439E-03
      0.370000          0.136647E-03
      0.375000          0.133474E-03
      0.380000          0.130832E-03
      0.385000          0.128625E-03
      0.390000          0.126753E-03
      0.395000          0.125121E-03
      0.400000          0.123648E-03
      0.405000          0.122265E-03
      0.410000          0.120922E-03
      0.415000          0.119585E-03
      0.420000          0.118237E-03
      0.425000          0.116875E-03
      0.430000          0.115506E-03
      0.435000          0.114144E-03
      0.440000          0.112805E-03
      0.445000          0.111508E-03
      0.450000          0.110271E-03
      0.455000          0.109106E-03
      0.460000          0.108023E-03
      0.465000          0.107030E-03
      0.470000          0.106127E-03
      0.475000          0.105313E-03
      0.480000          0.104580E-03
      0.485000          0.103918E-03
      0.490000          0.103314E-03
      0.495000          0.102751E-03
      0.500000          0.102209E-03
