 I_abs(s)[cm^-1]/c[mg/ml]
       0.00000          0.138288E-01
      0.500000E-02      0.137657E-01
      0.100000E-01      0.135782E-01
      0.150000E-01      0.132714E-01
      0.200000E-01      0.128536E-01
      0.250000E-01      0.123360E-01
      0.300000E-01      0.117322E-01
      0.350000E-01      0.110577E-01
      0.400000E-01      0.103290E-01
      0.450000E-01      0.956334E-02
      0.500000E-01      0.877792E-02
      0.550000E-01      0.798925E-02
      0.600000E-01      0.721269E-02
      0.650000E-01      0.646193E-02
      0.700000E-01      0.574867E-02
      0.750000E-01      0.508237E-02
      0.800000E-01      0.447011E-02
      0.850000E-01      0.391657E-02
      0.900000E-01      0.342413E-02
      0.950000E-01      0.299299E-02
      0.100000          0.262152E-02
      0.105000          0.230644E-02
      0.110000          0.204326E-02
      0.115000          0.182655E-02
      0.120000          0.165036E-02
      0.125000          0.150845E-02
      0.130000          0.139468E-02
      0.135000          0.130317E-02
      0.140000          0.122854E-02
      0.145000          0.116603E-02
      0.150000          0.111161E-02
      0.155000          0.106199E-02
      0.160000          0.101464E-02
      0.165000          0.967730E-03
      0.170000          0.920097E-03
      0.175000          0.871127E-03
      0.180000          0.820673E-03
      0.185000          0.768951E-03
      0.190000          0.716442E-03
      0.195000          0.663797E-03
      0.200000          0.611759E-03
      0.205000          0.561090E-03
      0.210000          0.512517E-03
      0.215000          0.466687E-03
      0.220000          0.424142E-03
      0.225000          0.385299E-03
      0.230000          0.350440E-03
      0.235000          0.319718E-03
      0.240000          0.293159E-03
      0.245000          0.270677E-03
      0.250000          0.252087E-03
      0.255000          0.237123E-03
      0.260000          0.225452E-03
      0.265000          0.216696E-03
      0.270000          0.210445E-03
      0.275000          0.206274E-03
      0.280000          0.203758E-03
      0.285000          0.202481E-03
      0.290000          0.202053E-03
      0.295000          0.202113E-03
      0.300000          0.202341E-03
      0.305000          0.202462E-03
      0.310000          0.202247E-03
      0.315000          0.201520E-03
      0.320000          0.200156E-03
      0.325000          0.198078E-03
      0.330000          0.195258E-03
      0.335000          0.191708E-03
      0.340000          0.187478E-03
      0.345000          0.182650E-03
      0.350000          0.177330E-03
      0.355000          0.171639E-03
      0.360000          0.165713E-03
      0.365000          0.159686E-03
      0.370000          0.153694E-03
      0.375000          0.147861E-03
      0.380000          0.142301E-03
      0.385000          0.137109E-03
      0.390000          0.132362E-03
      0.395000          0.128116E-03
      0.400000          0.124406E-03
      0.405000          0.121242E-03
      0.410000          0.118620E-03
      0.415000          0.116512E-03
      0.420000          0.114878E-03
      0.425000          0.113664E-03
      0.430000          0.112806E-03
      0.435000          0.112235E-03
      0.440000          0.111877E-03
      0.445000          0.111660E-03
      0.450000          0.111513E-03
      0.455000          0.111373E-03
      0.460000          0.111184E-03
      0.465000          0.110898E-03
      0.470000          0.110479E-03
      0.475000          0.109902E-03
      0.480000          0.109151E-03
      0.485000          0.108222E-03
      0.490000          0.107121E-03
      0.495000          0.105859E-03
      0.500000          0.104456E-03
