 I_abs(s)[cm^-1]/c[mg/ml]
       0.00000          0.143527E-01
      0.500000E-02      0.142632E-01
      0.100000E-01      0.139991E-01
      0.150000E-01      0.135733E-01
      0.200000E-01      0.130062E-01
      0.250000E-01      0.123234E-01
      0.300000E-01      0.115543E-01
      0.350000E-01      0.107290E-01
      0.400000E-01      0.987664E-02
      0.450000E-01      0.902336E-02
      0.500000E-01      0.819088E-02
      0.550000E-01      0.739582E-02
      0.600000E-01      0.664949E-02
      0.650000E-01      0.595830E-02
      0.700000E-01      0.532450E-02
      0.750000E-01      0.474721E-02
      0.800000E-01      0.422345E-02
      0.850000E-01      0.374923E-02
      0.900000E-01      0.332030E-02
      0.950000E-01      0.293275E-02
      0.100000          0.258333E-02
      0.105000          0.226953E-02
      0.110000          0.198946E-02
      0.115000          0.174165E-02
      0.120000          0.152479E-02
      0.125000          0.133749E-02
      0.130000          0.117816E-02
      0.135000          0.104483E-02
      0.140000          0.935197E-03
      0.145000          0.846652E-03
      0.150000          0.776375E-03
      0.155000          0.721450E-03
      0.160000          0.678981E-03
      0.165000          0.646196E-03
      0.170000          0.620537E-03
      0.175000          0.599719E-03
      0.180000          0.581782E-03
      0.185000          0.565117E-03
      0.190000          0.548483E-03
      0.195000          0.531008E-03
      0.200000          0.512177E-03
      0.205000          0.491806E-03
      0.210000          0.469998E-03
      0.215000          0.447088E-03
      0.220000          0.423576E-03
      0.225000          0.400052E-03
      0.230000          0.377124E-03
      0.235000          0.355355E-03
      0.240000          0.335207E-03
      0.245000          0.317011E-03
      0.250000          0.300950E-03
      0.255000          0.287061E-03
      0.260000          0.275254E-03
      0.265000          0.265341E-03
      0.270000          0.257066E-03
      0.275000          0.250142E-03
      0.280000          0.244278E-03
      0.285000          0.239205E-03
      0.290000          0.234687E-03
      0.295000          0.230535E-03
      0.300000          0.226601E-03
      0.305000          0.222784E-03
      0.310000          0.219017E-03
      0.315000          0.215258E-03
      0.320000          0.211491E-03
      0.325000          0.207707E-03
      0.330000          0.203908E-03
      0.335000          0.200101E-03
      0.340000          0.196294E-03
      0.345000          0.192497E-03
      0.350000          0.188723E-03
      0.355000          0.184989E-03
      0.360000          0.181314E-03
      0.365000          0.177718E-03
      0.370000          0.174224E-03
      0.375000          0.170850E-03
      0.380000          0.167610E-03
      0.385000          0.164506E-03
      0.390000          0.161533E-03
      0.395000          0.158672E-03
      0.400000          0.155894E-03
      0.405000          0.153163E-03
      0.410000          0.150440E-03
      0.415000          0.147686E-03
      0.420000          0.144869E-03
      0.425000          0.141964E-03
      0.430000          0.138956E-03
      0.435000          0.135842E-03
      0.440000          0.132626E-03
      0.445000          0.129321E-03
      0.450000          0.125946E-03
      0.455000          0.122525E-03
      0.460000          0.119088E-03
      0.465000          0.115668E-03
      0.470000          0.112308E-03
      0.475000          0.109053E-03
      0.480000          0.105957E-03
      0.485000          0.103077E-03
      0.490000          0.100472E-03
      0.495000          0.981959E-04
      0.500000          0.962956E-04
