 I_abs(s)[cm^-1]/c[mg/ml]
       0.00000          0.142110E-01
      0.500000E-02      0.141450E-01
      0.100000E-01      0.139489E-01
      0.150000E-01      0.136279E-01
      0.200000E-01      0.131903E-01
      0.250000E-01      0.126475E-01
      0.300000E-01      0.120132E-01
      0.350000E-01      0.113031E-01
      0.400000E-01      0.105340E-01
      0.450000E-01      0.972339E-02
      0.500000E-01      0.888890E-02
      0.550000E-01      0.804747E-02
      0.600000E-01      0.721496E-02
      0.650000E-01      0.640570E-02
      0.700000E-01      0.563207E-02
      0.750000E-01      0.490434E-02
      0.800000E-01      0.423048E-02
      0.850000E-01      0.361613E-02
      0.900000E-01      0.306473E-02
      0.950000E-01      0.257759E-02
      0.100000          0.215418E-02
      0.105000          0.179237E-02
      0.110000          0.148872E-02
      0.115000          0.123880E-02
      0.120000          0.103752E-02
      0.125000          0.879364E-03
      0.130000          0.758661E-03
      0.135000          0.669816E-03
      0.140000          0.607463E-03
      0.145000          0.566598E-03
      0.150000          0.542672E-03
      0.155000          0.531637E-03
      0.160000          0.529968E-03
      0.165000          0.534662E-03
      0.170000          0.543208E-03
      0.175000          0.553557E-03
      0.180000          0.564077E-03
      0.185000          0.573508E-03
      0.190000          0.580911E-03
      0.195000          0.585635E-03
      0.200000          0.587266E-03
      0.205000          0.585599E-03
      0.210000          0.580599E-03
      0.215000          0.572377E-03
      0.220000          0.561159E-03
      0.225000          0.547264E-03
      0.230000          0.531074E-03
      0.235000          0.513019E-03
      0.240000          0.493548E-03
      0.245000          0.473116E-03
      0.250000          0.452160E-03
      0.255000          0.431086E-03
      0.260000          0.410259E-03
      0.265000          0.389990E-03
      0.270000          0.370533E-03
      0.275000          0.352084E-03
      0.280000          0.334781E-03
      0.285000          0.318710E-03
      0.290000          0.303908E-03
      0.295000          0.290378E-03
      0.300000          0.278089E-03
      0.305000          0.266992E-03
      0.310000          0.257023E-03
      0.315000          0.248112E-03
      0.320000          0.240187E-03
      0.325000          0.233175E-03
      0.330000          0.227007E-03
      0.335000          0.221616E-03
      0.340000          0.216936E-03
      0.345000          0.212898E-03
      0.350000          0.209432E-03
      0.355000          0.206463E-03
      0.360000          0.203908E-03
      0.365000          0.201678E-03
      0.370000          0.199680E-03
      0.375000          0.197814E-03
      0.380000          0.195980E-03
      0.385000          0.194080E-03
      0.390000          0.192022E-03
      0.395000          0.189726E-03
      0.400000          0.187123E-03
      0.405000          0.184166E-03
      0.410000          0.180826E-03
      0.415000          0.177096E-03
      0.420000          0.172992E-03
      0.425000          0.168551E-03
      0.430000          0.163828E-03
      0.435000          0.158894E-03
      0.440000          0.153831E-03
      0.445000          0.148728E-03
      0.450000          0.143675E-03
      0.455000          0.138756E-03
      0.460000          0.134051E-03
      0.465000          0.129623E-03
      0.470000          0.125524E-03
      0.475000          0.121787E-03
      0.480000          0.118428E-03
      0.485000          0.115444E-03
      0.490000          0.112818E-03
      0.495000          0.110518E-03
      0.500000          0.108504E-03
