 I_abs(s)[cm^-1]/c[mg/ml]
       0.00000          0.140856E-01
      0.500000E-02      0.140184E-01
      0.100000E-01      0.138189E-01
      0.150000E-01      0.134942E-01
      0.200000E-01      0.130556E-01
      0.250000E-01      0.125177E-01
      0.300000E-01      0.118981E-01
      0.350000E-01      0.112160E-01
      0.400000E-01      0.104913E-01
      0.450000E-01      0.974380E-02
      0.500000E-01      0.899198E-02
      0.550000E-01      0.825235E-02
      0.600000E-01      0.753886E-02
      0.650000E-01      0.686247E-02
      0.700000E-01      0.623105E-02
      0.750000E-01      0.564935E-02
      0.800000E-01      0.511930E-02
      0.850000E-01      0.464038E-02
      0.900000E-01      0.421008E-02
      0.950000E-01      0.382452E-02
      0.100000          0.347892E-02
      0.105000          0.316818E-02
      0.110000          0.288728E-02
      0.115000          0.263166E-02
      0.120000          0.239739E-02
      0.125000          0.218139E-02
      0.130000          0.198136E-02
      0.135000          0.179574E-02
      0.140000          0.162360E-02
      0.145000          0.146447E-02
      0.150000          0.131813E-02
      0.155000          0.118450E-02
      0.160000          0.106344E-02
      0.165000          0.954683E-03
      0.170000          0.857785E-03
      0.175000          0.772081E-03
      0.180000          0.696723E-03
      0.185000          0.630727E-03
      0.190000          0.573030E-03
      0.195000          0.522566E-03
      0.200000          0.478323E-03
      0.205000          0.439396E-03
      0.210000          0.405018E-03
      0.215000          0.374570E-03
      0.220000          0.347572E-03
      0.225000          0.323666E-03
      0.230000          0.302578E-03
      0.235000          0.284088E-03
      0.240000          0.267990E-03
      0.245000          0.254072E-03
      0.250000          0.242091E-03
      0.255000          0.231774E-03
      0.260000          0.222821E-03
      0.265000          0.214915E-03
      0.270000          0.207750E-03
      0.275000          0.201048E-03
      0.280000          0.194578E-03
      0.285000          0.188180E-03
      0.290000          0.181767E-03
      0.295000          0.175329E-03
      0.300000          0.168921E-03
      0.305000          0.162656E-03
      0.310000          0.156677E-03
      0.315000          0.151137E-03
      0.320000          0.146176E-03
      0.325000          0.141903E-03
      0.330000          0.138379E-03
      0.335000          0.135609E-03
      0.340000          0.133545E-03
      0.345000          0.132083E-03
      0.350000          0.131086E-03
      0.355000          0.130388E-03
      0.360000          0.129821E-03
      0.365000          0.129224E-03
      0.370000          0.128466E-03
      0.375000          0.127449E-03
      0.380000          0.126123E-03
      0.385000          0.124479E-03
      0.390000          0.122553E-03
      0.395000          0.120415E-03
      0.400000          0.118156E-03
      0.405000          0.115881E-03
      0.410000          0.113691E-03
      0.415000          0.111677E-03
      0.420000          0.109908E-03
      0.425000          0.108425E-03
      0.430000          0.107239E-03
      0.435000          0.106333E-03
      0.440000          0.105666E-03
      0.445000          0.105176E-03
      0.450000          0.104792E-03
      0.455000          0.104438E-03
      0.460000          0.104042E-03
      0.465000          0.103544E-03
      0.470000          0.102898E-03
      0.475000          0.102074E-03
      0.480000          0.101063E-03
      0.485000          0.998706E-04
      0.490000          0.985160E-04
      0.495000          0.970292E-04
      0.500000          0.954456E-04
