 I_abs(s)[cm^-1]/c[mg/ml]
       0.00000          0.137360E-01
      0.500000E-02      0.136658E-01
      0.100000E-01      0.134574E-01
      0.150000E-01      0.131177E-01
      0.200000E-01      0.126580E-01
      0.250000E-01      0.120930E-01
      0.300000E-01      0.114406E-01
      0.350000E-01      0.107204E-01
      0.400000E-01      0.995367E-02
      0.450000E-01      0.916138E-02
      0.500000E-01      0.836402E-02
      0.550000E-01      0.758042E-02
      0.600000E-01      0.682710E-02
      0.650000E-01      0.611776E-02
      0.700000E-01      0.546287E-02
      0.750000E-01      0.486952E-02
      0.800000E-01      0.434147E-02
      0.850000E-01      0.387931E-02
      0.900000E-01      0.348084E-02
      0.950000E-01      0.314154E-02
      0.100000          0.285515E-02
      0.105000          0.261422E-02
      0.110000          0.241073E-02
      0.115000          0.223664E-02
      0.120000          0.208437E-02
      0.125000          0.194719E-02
      0.130000          0.181952E-02
      0.135000          0.169706E-02
      0.140000          0.157688E-02
      0.145000          0.145736E-02
      0.150000          0.133803E-02
      0.155000          0.121941E-02
      0.160000          0.110276E-02
      0.165000          0.989772E-03
      0.170000          0.882369E-03
      0.175000          0.782432E-03
      0.180000          0.691607E-03
      0.185000          0.611158E-03
      0.190000          0.541864E-03
      0.195000          0.483977E-03
      0.200000          0.437230E-03
      0.205000          0.400887E-03
      0.210000          0.373826E-03
      0.215000          0.354648E-03
      0.220000          0.341790E-03
      0.225000          0.333647E-03
      0.230000          0.328676E-03
      0.235000          0.325483E-03
      0.240000          0.322893E-03
      0.245000          0.319992E-03
      0.250000          0.316138E-03
      0.255000          0.310959E-03
      0.260000          0.304327E-03
      0.265000          0.296314E-03
      0.270000          0.287143E-03
      0.275000          0.277137E-03
      0.280000          0.266662E-03
      0.285000          0.256087E-03
      0.290000          0.245738E-03
      0.295000          0.235879E-03
      0.300000          0.226689E-03
      0.305000          0.218262E-03
      0.310000          0.210607E-03
      0.315000          0.203665E-03
      0.320000          0.197323E-03
      0.325000          0.191436E-03
      0.330000          0.185848E-03
      0.335000          0.180409E-03
      0.340000          0.174993E-03
      0.345000          0.169510E-03
      0.350000          0.163908E-03
      0.355000          0.158181E-03
      0.360000          0.152360E-03
      0.365000          0.146510E-03
      0.370000          0.140720E-03
      0.375000          0.135092E-03
      0.380000          0.129730E-03
      0.385000          0.124732E-03
      0.390000          0.120179E-03
      0.395000          0.116128E-03
      0.400000          0.112611E-03
      0.405000          0.109635E-03
      0.410000          0.107176E-03
      0.415000          0.105190E-03
      0.420000          0.103615E-03
      0.425000          0.102376E-03
      0.430000          0.101392E-03
      0.435000          0.100584E-03
      0.440000          0.998774E-04
      0.445000          0.992096E-04
      0.450000          0.985320E-04
      0.455000          0.978122E-04
      0.460000          0.970345E-04
      0.465000          0.961998E-04
      0.470000          0.953229E-04
      0.475000          0.944304E-04
      0.480000          0.935569E-04
      0.485000          0.927416E-04
      0.490000          0.920244E-04
      0.495000          0.914424E-04
      0.500000          0.910271E-04
