 I_abs(s)[cm^-1]/c[mg/ml]
       0.00000          0.135437E-01
      0.500000E-02      0.134755E-01
      0.100000E-01      0.132731E-01
      0.150000E-01      0.129428E-01
      0.200000E-01      0.124951E-01
      0.250000E-01      0.119437E-01
      0.300000E-01      0.113051E-01
      0.350000E-01      0.105981E-01
      0.400000E-01      0.984226E-02
      0.450000E-01      0.905780E-02
      0.500000E-01      0.826430E-02
      0.550000E-01      0.748007E-02
      0.600000E-01      0.672149E-02
      0.650000E-01      0.600245E-02
      0.700000E-01      0.533401E-02
      0.750000E-01      0.472419E-02
      0.800000E-01      0.417795E-02
      0.850000E-01      0.369729E-02
      0.900000E-01      0.328153E-02
      0.950000E-01      0.292768E-02
      0.100000          0.263088E-02
      0.105000          0.238492E-02
      0.110000          0.218269E-02
      0.115000          0.201675E-02
      0.120000          0.187969E-02
      0.125000          0.176456E-02
      0.130000          0.166516E-02
      0.135000          0.157620E-02
      0.140000          0.149346E-02
      0.145000          0.141381E-02
      0.150000          0.133516E-02
      0.155000          0.125637E-02
      0.160000          0.117709E-02
      0.165000          0.109758E-02
      0.170000          0.101858E-02
      0.175000          0.941045E-03
      0.180000          0.866062E-03
      0.185000          0.794664E-03
      0.190000          0.727746E-03
      0.195000          0.665983E-03
      0.200000          0.609799E-03
      0.205000          0.559349E-03
      0.210000          0.514544E-03
      0.215000          0.475078E-03
      0.220000          0.440482E-03
      0.225000          0.410175E-03
      0.230000          0.383519E-03
      0.235000          0.359872E-03
      0.240000          0.338624E-03
      0.245000          0.319237E-03
      0.250000          0.301261E-03
      0.255000          0.284347E-03
      0.260000          0.268248E-03
      0.265000          0.252813E-03
      0.270000          0.237970E-03
      0.275000          0.223715E-03
      0.280000          0.210090E-03
      0.285000          0.197164E-03
      0.290000          0.185021E-03
      0.295000          0.173742E-03
      0.300000          0.163396E-03
      0.305000          0.154031E-03
      0.310000          0.145673E-03
      0.315000          0.138322E-03
      0.320000          0.131952E-03
      0.325000          0.126516E-03
      0.330000          0.121950E-03
      0.335000          0.118175E-03
      0.340000          0.115103E-03
      0.345000          0.112642E-03
      0.350000          0.110697E-03
      0.355000          0.109176E-03
      0.360000          0.107994E-03
      0.365000          0.107069E-03
      0.370000          0.106332E-03
      0.375000          0.105720E-03
      0.380000          0.105181E-03
      0.385000          0.104675E-03
      0.390000          0.104171E-03
      0.395000          0.103645E-03
      0.400000          0.103086E-03
      0.405000          0.102487E-03
      0.410000          0.101847E-03
      0.415000          0.101173E-03
      0.420000          0.100471E-03
      0.425000          0.997513E-04
      0.430000          0.990217E-04
      0.435000          0.982903E-04
      0.440000          0.975622E-04
      0.445000          0.968395E-04
      0.450000          0.961209E-04
      0.455000          0.954016E-04
      0.460000          0.946738E-04
      0.465000          0.939275E-04
      0.470000          0.931516E-04
      0.475000          0.923349E-04
      0.480000          0.914675E-04
      0.485000          0.905420E-04
      0.490000          0.895547E-04
      0.495000          0.885065E-04
      0.500000          0.874030E-04
