 I_abs(s)[cm^-1]/c[mg/ml]
       0.00000          0.144951E-01
      0.500000E-02      0.144370E-01
      0.100000E-01      0.142645E-01
      0.150000E-01      0.139820E-01
      0.200000E-01      0.135974E-01
      0.250000E-01      0.131206E-01
      0.300000E-01      0.125639E-01
      0.350000E-01      0.119410E-01
      0.400000E-01      0.112665E-01
      0.450000E-01      0.105554E-01
      0.500000E-01      0.982246E-02
      0.550000E-01      0.908152E-02
      0.600000E-01      0.834534E-02
      0.650000E-01      0.762506E-02
      0.700000E-01      0.693003E-02
      0.750000E-01      0.626769E-02
      0.800000E-01      0.564355E-02
      0.850000E-01      0.506127E-02
      0.900000E-01      0.452284E-02
      0.950000E-01      0.402880E-02
      0.100000          0.357852E-02
      0.105000          0.317043E-02
      0.110000          0.280233E-02
      0.115000          0.247164E-02
      0.120000          0.217556E-02
      0.125000          0.191131E-02
      0.130000          0.167618E-02
      0.135000          0.146764E-02
      0.140000          0.128339E-02
      0.145000          0.112133E-02
      0.150000          0.979554E-03
      0.155000          0.856300E-03
      0.160000          0.749936E-03
      0.165000          0.658898E-03
      0.170000          0.581673E-03
      0.175000          0.516775E-03
      0.180000          0.462745E-03
      0.185000          0.418154E-03
      0.190000          0.381624E-03
      0.195000          0.351849E-03
      0.200000          0.327624E-03
      0.205000          0.307867E-03
      0.210000          0.291643E-03
      0.215000          0.278169E-03
      0.220000          0.266826E-03
      0.225000          0.257146E-03
      0.230000          0.248803E-03
      0.235000          0.241587E-03
      0.240000          0.235384E-03
      0.245000          0.230142E-03
      0.250000          0.225847E-03
      0.255000          0.222498E-03
      0.260000          0.220083E-03
      0.265000          0.218570E-03
      0.270000          0.217891E-03
      0.275000          0.217945E-03
      0.280000          0.218593E-03
      0.285000          0.219674E-03
      0.290000          0.221003E-03
      0.295000          0.222391E-03
      0.300000          0.223650E-03
      0.305000          0.224605E-03
      0.310000          0.225104E-03
      0.315000          0.225020E-03
      0.320000          0.224259E-03
      0.325000          0.222758E-03
      0.330000          0.220487E-03
      0.335000          0.217446E-03
      0.340000          0.213661E-03
      0.345000          0.209180E-03
      0.350000          0.204072E-03
      0.355000          0.198416E-03
      0.360000          0.192304E-03
      0.365000          0.185835E-03
      0.370000          0.179110E-03
      0.375000          0.172231E-03
      0.380000          0.165300E-03
      0.385000          0.158414E-03
      0.390000          0.151663E-03
      0.395000          0.145130E-03
      0.400000          0.138889E-03
      0.405000          0.133000E-03
      0.410000          0.127512E-03
      0.415000          0.122461E-03
      0.420000          0.117868E-03
      0.425000          0.113740E-03
      0.430000          0.110072E-03
      0.435000          0.106847E-03
      0.440000          0.104040E-03
      0.445000          0.101617E-03
      0.450000          0.995388E-04
      0.455000          0.977645E-04
      0.460000          0.962524E-04
      0.465000          0.949627E-04
      0.470000          0.938582E-04
      0.475000          0.929063E-04
      0.480000          0.920788E-04
      0.485000          0.913524E-04
      0.490000          0.907081E-04
      0.495000          0.901310E-04
      0.500000          0.896093E-04
