 I_abs(s)[cm^-1]/c[mg/ml]
       0.00000          0.138288E-01
      0.500000E-02      0.137484E-01
      0.100000E-01      0.135105E-01
      0.150000E-01      0.131250E-01
      0.200000E-01      0.126077E-01
      0.250000E-01      0.119792E-01
      0.300000E-01      0.112636E-01
      0.350000E-01      0.104872E-01
      0.400000E-01      0.967666E-02
      0.450000E-01      0.885779E-02
      0.500000E-01      0.805392E-02
      0.550000E-01      0.728498E-02
      0.600000E-01      0.656664E-02
      0.650000E-01      0.590993E-02
      0.700000E-01      0.532111E-02
      0.750000E-01      0.480204E-02
      0.800000E-01      0.435061E-02
      0.850000E-01      0.396162E-02
      0.900000E-01      0.362759E-02
      0.950000E-01      0.333979E-02
      0.100000          0.308905E-02
      0.105000          0.286662E-02
      0.110000          0.266479E-02
      0.115000          0.247730E-02
      0.120000          0.229961E-02
      0.125000          0.212888E-02
      0.130000          0.196386E-02
      0.135000          0.180461E-02
      0.140000          0.165213E-02
      0.145000          0.150796E-02
      0.150000          0.137381E-02
      0.155000          0.125118E-02
      0.160000          0.114117E-02
      0.165000          0.104424E-02
      0.170000          0.960175E-03
      0.175000          0.888131E-03
      0.180000          0.826702E-03
      0.185000          0.774096E-03
      0.190000          0.728320E-03
      0.195000          0.687366E-03
      0.200000          0.649396E-03
      0.205000          0.612871E-03
      0.210000          0.576655E-03
      0.215000          0.540052E-03
      0.220000          0.502808E-03
      0.225000          0.465056E-03
      0.230000          0.427242E-03
      0.235000          0.390024E-03
      0.240000          0.354163E-03
      0.245000          0.320421E-03
      0.250000          0.289476E-03
      0.255000          0.261856E-03
      0.260000          0.237892E-03
      0.265000          0.217711E-03
      0.270000          0.201234E-03
      0.275000          0.188208E-03
      0.280000          0.178246E-03
      0.285000          0.170865E-03
      0.290000          0.165544E-03
      0.295000          0.161761E-03
      0.300000          0.159029E-03
      0.305000          0.156929E-03
      0.310000          0.155118E-03
      0.315000          0.153342E-03
      0.320000          0.151429E-03
      0.325000          0.149282E-03
      0.330000          0.146863E-03
      0.335000          0.144180E-03
      0.340000          0.141272E-03
      0.345000          0.138190E-03
      0.350000          0.134993E-03
      0.355000          0.131737E-03
      0.360000          0.128469E-03
      0.365000          0.125229E-03
      0.370000          0.122049E-03
      0.375000          0.118954E-03
      0.380000          0.115968E-03
      0.385000          0.113113E-03
      0.390000          0.110412E-03
      0.395000          0.107890E-03
      0.400000          0.105575E-03
      0.405000          0.103493E-03
      0.410000          0.101670E-03
      0.415000          0.100124E-03
      0.420000          0.988685E-04
      0.425000          0.979040E-04
      0.430000          0.972193E-04
      0.435000          0.967895E-04
      0.440000          0.965763E-04
      0.445000          0.965291E-04
      0.450000          0.965876E-04
      0.455000          0.966848E-04
      0.460000          0.967510E-04
      0.465000          0.967186E-04
      0.470000          0.965260E-04
      0.475000          0.961220E-04
      0.480000          0.954692E-04
      0.485000          0.945466E-04
      0.490000          0.933510E-04
      0.495000          0.918970E-04
      0.500000          0.902159E-04
