 I_abs(s)[cm^-1]/c[mg/ml]
       0.00000          0.140856E-01
      0.500000E-02      0.140156E-01
      0.100000E-01      0.138079E-01
      0.150000E-01      0.134693E-01
      0.200000E-01      0.130110E-01
      0.250000E-01      0.124476E-01
      0.300000E-01      0.117966E-01
      0.350000E-01      0.110772E-01
      0.400000E-01      0.103098E-01
      0.450000E-01      0.951435E-02
      0.500000E-01      0.871028E-02
      0.550000E-01      0.791511E-02
      0.600000E-01      0.714411E-02
      0.650000E-01      0.640983E-02
      0.700000E-01      0.572193E-02
      0.750000E-01      0.508709E-02
      0.800000E-01      0.450918E-02
      0.850000E-01      0.398957E-02
      0.900000E-01      0.352743E-02
      0.950000E-01      0.312027E-02
      0.100000          0.276429E-02
      0.105000          0.245492E-02
      0.110000          0.218713E-02
      0.115000          0.195583E-02
      0.120000          0.175609E-02
      0.125000          0.158331E-02
      0.130000          0.143336E-02
      0.135000          0.130262E-02
      0.140000          0.118797E-02
      0.145000          0.108676E-02
      0.150000          0.996785E-03
      0.155000          0.916206E-03
      0.160000          0.843511E-03
      0.165000          0.777472E-03
      0.170000          0.717107E-03
      0.175000          0.661656E-03
      0.180000          0.610557E-03
      0.185000          0.563427E-03
      0.190000          0.520038E-03
      0.195000          0.480290E-03
      0.200000          0.444178E-03
      0.205000          0.411752E-03
      0.210000          0.383080E-03
      0.215000          0.358204E-03
      0.220000          0.337112E-03
      0.225000          0.319702E-03
      0.230000          0.305775E-03
      0.235000          0.295027E-03
      0.240000          0.287060E-03
      0.245000          0.281405E-03
      0.250000          0.277550E-03
      0.255000          0.274976E-03
      0.260000          0.273191E-03
      0.265000          0.271765E-03
      0.270000          0.270353E-03
      0.275000          0.268709E-03
      0.280000          0.266695E-03
      0.285000          0.264270E-03
      0.290000          0.261479E-03
      0.295000          0.258426E-03
      0.300000          0.255250E-03
      0.305000          0.252097E-03
      0.310000          0.249094E-03
      0.315000          0.246332E-03
      0.320000          0.243852E-03
      0.325000          0.241640E-03
      0.330000          0.239630E-03
      0.335000          0.237715E-03
      0.340000          0.235759E-03
      0.345000          0.233618E-03
      0.350000          0.231154E-03
      0.355000          0.228254E-03
      0.360000          0.224840E-03
      0.365000          0.220879E-03
      0.370000          0.216384E-03
      0.375000          0.211412E-03
      0.380000          0.206056E-03
      0.385000          0.200435E-03
      0.390000          0.194680E-03
      0.395000          0.188927E-03
      0.400000          0.183295E-03
      0.405000          0.177888E-03
      0.410000          0.172781E-03
      0.415000          0.168019E-03
      0.420000          0.163617E-03
      0.425000          0.159565E-03
      0.430000          0.155832E-03
      0.435000          0.152374E-03
      0.440000          0.149138E-03
      0.445000          0.146075E-03
      0.450000          0.143140E-03
      0.455000          0.140299E-03
      0.460000          0.137530E-03
      0.465000          0.134825E-03
      0.470000          0.132186E-03
      0.475000          0.129625E-03
      0.480000          0.127157E-03
      0.485000          0.124799E-03
      0.490000          0.122565E-03
      0.495000          0.120464E-03
      0.500000          0.118497E-03
