 I_abs(s)[cm^-1]/c[mg/ml]
       0.00000          0.141326E-01
      0.500000E-02      0.140699E-01
      0.100000E-01      0.138839E-01
      0.150000E-01      0.135800E-01
      0.200000E-01      0.131673E-01
      0.250000E-01      0.126576E-01
      0.300000E-01      0.120654E-01
      0.350000E-01      0.114068E-01
      0.400000E-01      0.106988E-01
      0.450000E-01      0.995888E-02
      0.500000E-01      0.920410E-02
      0.550000E-01      0.845035E-02
      0.600000E-01      0.771192E-02
      0.650000E-01      0.700107E-02
      0.700000E-01      0.632769E-02
      0.750000E-01      0.569918E-02
      0.800000E-01      0.512045E-02
      0.850000E-01      0.459401E-02
      0.900000E-01      0.412026E-02
      0.950000E-01      0.369771E-02
      0.100000          0.332345E-02
      0.105000          0.299347E-02
      0.110000          0.270309E-02
      0.115000          0.244733E-02
      0.120000          0.222122E-02
      0.125000          0.202006E-02
      0.130000          0.183964E-02
      0.135000          0.167638E-02
      0.140000          0.152734E-02
      0.145000          0.139025E-02
      0.150000          0.126348E-02
      0.155000          0.114594E-02
      0.160000          0.103697E-02
      0.165000          0.936211E-03
      0.170000          0.843540E-03
      0.175000          0.758915E-03
      0.180000          0.682313E-03
      0.185000          0.613661E-03
      0.190000          0.552792E-03
      0.195000          0.499427E-03
      0.200000          0.453168E-03
      0.205000          0.413515E-03
      0.210000          0.379885E-03
      0.215000          0.351643E-03
      0.220000          0.328129E-03
      0.225000          0.308689E-03
      0.230000          0.292696E-03
      0.235000          0.279570E-03
      0.240000          0.268787E-03
      0.245000          0.259888E-03
      0.250000          0.252476E-03
      0.255000          0.246216E-03
      0.260000          0.240828E-03
      0.265000          0.236081E-03
      0.270000          0.231785E-03
      0.275000          0.227788E-03
      0.280000          0.223965E-03
      0.285000          0.220223E-03
      0.290000          0.216490E-03
      0.295000          0.212716E-03
      0.300000          0.208873E-03
      0.305000          0.204948E-03
      0.310000          0.200948E-03
      0.315000          0.196888E-03
      0.320000          0.192793E-03
      0.325000          0.188696E-03
      0.330000          0.184627E-03
      0.335000          0.180616E-03
      0.340000          0.176686E-03
      0.345000          0.172853E-03
      0.350000          0.169123E-03
      0.355000          0.165496E-03
      0.360000          0.161962E-03
      0.365000          0.158506E-03
      0.370000          0.155113E-03
      0.375000          0.151766E-03
      0.380000          0.148452E-03
      0.385000          0.145165E-03
      0.390000          0.141905E-03
      0.395000          0.138681E-03
      0.400000          0.135509E-03
      0.405000          0.132412E-03
      0.410000          0.129417E-03
      0.415000          0.126550E-03
      0.420000          0.123839E-03
      0.425000          0.121304E-03
      0.430000          0.118961E-03
      0.435000          0.116816E-03
      0.440000          0.114864E-03
      0.445000          0.113091E-03
      0.450000          0.111476E-03
      0.455000          0.109987E-03
      0.460000          0.108589E-03
      0.465000          0.107246E-03
      0.470000          0.105920E-03
      0.475000          0.104577E-03
      0.480000          0.103191E-03
      0.485000          0.101740E-03
      0.490000          0.100213E-03
      0.495000          0.986090E-04
      0.500000          0.969337E-04
