 I_abs(s)[cm^-1]/c[mg/ml]
       0.00000          0.144872E-01
      0.500000E-02      0.144335E-01
      0.100000E-01      0.142738E-01
      0.150000E-01      0.140117E-01
      0.200000E-01      0.136528E-01
      0.250000E-01      0.132052E-01
      0.300000E-01      0.126783E-01
      0.350000E-01      0.120834E-01
      0.400000E-01      0.114324E-01
      0.450000E-01      0.107382E-01
      0.500000E-01      0.100139E-01
      0.550000E-01      0.927225E-02
      0.600000E-01      0.852581E-02
      0.650000E-01      0.778613E-02
      0.700000E-01      0.706370E-02
      0.750000E-01      0.636765E-02
      0.800000E-01      0.570567E-02
      0.850000E-01      0.508385E-02
      0.900000E-01      0.450668E-02
      0.950000E-01      0.397708E-02
      0.100000          0.349652E-02
      0.105000          0.306508E-02
      0.110000          0.268170E-02
      0.115000          0.234433E-02
      0.120000          0.205011E-02
      0.125000          0.179563E-02
      0.130000          0.157710E-02
      0.135000          0.139054E-02
      0.140000          0.123194E-02
      0.145000          0.109740E-02
      0.150000          0.983250E-03
      0.155000          0.886135E-03
      0.160000          0.803056E-03
      0.165000          0.731412E-03
      0.170000          0.669004E-03
      0.175000          0.614024E-03
      0.180000          0.565030E-03
      0.185000          0.520908E-03
      0.190000          0.480831E-03
      0.195000          0.444212E-03
      0.200000          0.410658E-03
      0.205000          0.379925E-03
      0.210000          0.351878E-03
      0.215000          0.326457E-03
      0.220000          0.303644E-03
      0.225000          0.283440E-03
      0.230000          0.265846E-03
      0.235000          0.250849E-03
      0.240000          0.238410E-03
      0.245000          0.228458E-03
      0.250000          0.220884E-03
      0.255000          0.215545E-03
      0.260000          0.212260E-03
      0.265000          0.210811E-03
      0.270000          0.210952E-03
      0.275000          0.212411E-03
      0.280000          0.214896E-03
      0.285000          0.218102E-03
      0.290000          0.221720E-03
      0.295000          0.225447E-03
      0.300000          0.228992E-03
      0.305000          0.232084E-03
      0.310000          0.234484E-03
      0.315000          0.235992E-03
      0.320000          0.236447E-03
      0.325000          0.235741E-03
      0.330000          0.233812E-03
      0.335000          0.230652E-03
      0.340000          0.226301E-03
      0.345000          0.220845E-03
      0.350000          0.214409E-03
      0.355000          0.207152E-03
      0.360000          0.199256E-03
      0.365000          0.190917E-03
      0.370000          0.182339E-03
      0.375000          0.173721E-03
      0.380000          0.165249E-03
      0.385000          0.157090E-03
      0.390000          0.149388E-03
      0.395000          0.142254E-03
      0.400000          0.135770E-03
      0.405000          0.129984E-03
      0.410000          0.124914E-03
      0.415000          0.120549E-03
      0.420000          0.116854E-03
      0.425000          0.113773E-03
      0.430000          0.111236E-03
      0.435000          0.109165E-03
      0.440000          0.107477E-03
      0.445000          0.106090E-03
      0.450000          0.104929E-03
      0.455000          0.103925E-03
      0.460000          0.103023E-03
      0.465000          0.102177E-03
      0.470000          0.101355E-03
      0.475000          0.100538E-03
      0.480000          0.997173E-04
      0.485000          0.988914E-04
      0.490000          0.980674E-04
      0.495000          0.972561E-04
      0.500000          0.964705E-04
