 I_abs(s)[cm^-1]/c[mg/ml]
       0.00000          0.146064E-01
      0.500000E-02      0.145528E-01
      0.100000E-01      0.143932E-01
      0.150000E-01      0.141313E-01
      0.200000E-01      0.137730E-01
      0.250000E-01      0.133262E-01
      0.300000E-01      0.128009E-01
      0.350000E-01      0.122080E-01
      0.400000E-01      0.115599E-01
      0.450000E-01      0.108693E-01
      0.500000E-01      0.101492E-01
      0.550000E-01      0.941256E-02
      0.600000E-01      0.867154E-02
      0.650000E-01      0.793748E-02
      0.700000E-01      0.722057E-02
      0.750000E-01      0.652961E-02
      0.800000E-01      0.587188E-02
      0.850000E-01      0.525312E-02
      0.900000E-01      0.467747E-02
      0.950000E-01      0.414756E-02
      0.100000          0.366464E-02
      0.105000          0.322870E-02
      0.110000          0.283865E-02
      0.115000          0.249255E-02
      0.120000          0.218778E-02
      0.125000          0.192125E-02
      0.130000          0.168957E-02
      0.135000          0.148925E-02
      0.140000          0.131678E-02
      0.145000          0.116879E-02
      0.150000          0.104211E-02
      0.155000          0.933805E-03
      0.160000          0.841257E-03
      0.165000          0.762121E-03
      0.170000          0.694346E-03
      0.175000          0.636153E-03
      0.180000          0.586004E-03
      0.185000          0.542581E-03
      0.190000          0.504753E-03
      0.195000          0.471553E-03
      0.200000          0.442151E-03
      0.205000          0.415843E-03
      0.210000          0.392036E-03
      0.215000          0.370236E-03
      0.220000          0.350046E-03
      0.225000          0.331159E-03
      0.230000          0.313354E-03
      0.235000          0.296492E-03
      0.240000          0.280508E-03
      0.245000          0.265401E-03
      0.250000          0.251225E-03
      0.255000          0.238070E-03
      0.260000          0.226054E-03
      0.265000          0.215301E-03
      0.270000          0.205929E-03
      0.275000          0.198030E-03
      0.280000          0.191665E-03
      0.285000          0.186850E-03
      0.290000          0.183549E-03
      0.295000          0.181676E-03
      0.300000          0.181093E-03
      0.305000          0.181617E-03
      0.310000          0.183031E-03
      0.315000          0.185087E-03
      0.320000          0.187528E-03
      0.325000          0.190093E-03
      0.330000          0.192533E-03
      0.335000          0.194621E-03
      0.340000          0.196163E-03
      0.345000          0.197003E-03
      0.350000          0.197031E-03
      0.355000          0.196182E-03
      0.360000          0.194433E-03
      0.365000          0.191808E-03
      0.370000          0.188364E-03
      0.375000          0.184190E-03
      0.380000          0.179399E-03
      0.385000          0.174117E-03
      0.390000          0.168478E-03
      0.395000          0.162619E-03
      0.400000          0.156666E-03
      0.405000          0.150737E-03
      0.410000          0.144933E-03
      0.415000          0.139340E-03
      0.420000          0.134023E-03
      0.425000          0.129027E-03
      0.430000          0.124381E-03
      0.435000          0.120098E-03
      0.440000          0.116177E-03
      0.445000          0.112603E-03
      0.450000          0.109357E-03
      0.455000          0.106411E-03
      0.460000          0.103735E-03
      0.465000          0.101298E-03
      0.470000          0.990681E-04
      0.475000          0.970165E-04
      0.480000          0.951166E-04
      0.485000          0.933451E-04
      0.490000          0.916824E-04
      0.495000          0.901121E-04
      0.500000          0.886212E-04
