 I_abs(s)[cm^-1]/c[mg/ml]
       0.00000          0.140232E-01
      0.500000E-02      0.139622E-01
      0.100000E-01      0.137809E-01
      0.150000E-01      0.134842E-01
      0.200000E-01      0.130803E-01
      0.250000E-01      0.125800E-01
      0.300000E-01      0.119962E-01
      0.350000E-01      0.113437E-01
      0.400000E-01      0.106385E-01
      0.450000E-01      0.989680E-02
      0.500000E-01      0.913487E-02
      0.550000E-01      0.836819E-02
      0.600000E-01      0.761103E-02
      0.650000E-01      0.687603E-02
      0.700000E-01      0.617389E-02
      0.750000E-01      0.551315E-02
      0.800000E-01      0.490014E-02
      0.850000E-01      0.433902E-02
      0.900000E-01      0.383184E-02
      0.950000E-01      0.337881E-02
      0.100000          0.297855E-02
      0.105000          0.262838E-02
      0.110000          0.232463E-02
      0.115000          0.206301E-02
      0.120000          0.183885E-02
      0.125000          0.164742E-02
      0.130000          0.148409E-02
      0.135000          0.134456E-02
      0.140000          0.122495E-02
      0.145000          0.112184E-02
      0.150000          0.103237E-02
      0.155000          0.954148E-03
      0.160000          0.885270E-03
      0.165000          0.824218E-03
      0.170000          0.769811E-03
      0.175000          0.721124E-03
      0.180000          0.677422E-03
      0.185000          0.638097E-03
      0.190000          0.602624E-03
      0.195000          0.570521E-03
      0.200000          0.541332E-03
      0.205000          0.514617E-03
      0.210000          0.489949E-03
      0.215000          0.466927E-03
      0.220000          0.445180E-03
      0.225000          0.424385E-03
      0.230000          0.404275E-03
      0.235000          0.384649E-03
      0.240000          0.365373E-03
      0.245000          0.346386E-03
      0.250000          0.327689E-03
      0.255000          0.309341E-03
      0.260000          0.291445E-03
      0.265000          0.274137E-03
      0.270000          0.257570E-03
      0.275000          0.241902E-03
      0.280000          0.227282E-03
      0.285000          0.213838E-03
      0.290000          0.201672E-03
      0.295000          0.190854E-03
      0.300000          0.181413E-03
      0.305000          0.173343E-03
      0.310000          0.166602E-03
      0.315000          0.161113E-03
      0.320000          0.156775E-03
      0.325000          0.153460E-03
      0.330000          0.151028E-03
      0.335000          0.149327E-03
      0.340000          0.148206E-03
      0.345000          0.147514E-03
      0.350000          0.147110E-03
      0.355000          0.146867E-03
      0.360000          0.146674E-03
      0.365000          0.146440E-03
      0.370000          0.146092E-03
      0.375000          0.145580E-03
      0.380000          0.144871E-03
      0.385000          0.143949E-03
      0.390000          0.142815E-03
      0.395000          0.141480E-03
      0.400000          0.139963E-03
      0.405000          0.138290E-03
      0.410000          0.136488E-03
      0.415000          0.134584E-03
      0.420000          0.132603E-03
      0.425000          0.130567E-03
      0.430000          0.128494E-03
      0.435000          0.126399E-03
      0.440000          0.124293E-03
      0.445000          0.122186E-03
      0.450000          0.120086E-03
      0.455000          0.118001E-03
      0.460000          0.115943E-03
      0.465000          0.113924E-03
      0.470000          0.111958E-03
      0.475000          0.110063E-03
      0.480000          0.108256E-03
      0.485000          0.106557E-03
      0.490000          0.104984E-03
      0.495000          0.103552E-03
      0.500000          0.102276E-03
