 I_abs(s)[cm^-1]/c[mg/ml]
       0.00000          0.137360E-01
      0.500000E-02      0.136526E-01
      0.100000E-01      0.134061E-01
      0.150000E-01      0.130072E-01
      0.200000E-01      0.124731E-01
      0.250000E-01      0.118261E-01
      0.300000E-01      0.110920E-01
      0.350000E-01      0.102990E-01
      0.400000E-01      0.947496E-02
      0.450000E-01      0.864671E-02
      0.500000E-01      0.783801E-02
      0.550000E-01      0.706867E-02
      0.600000E-01      0.635376E-02
      0.650000E-01      0.570333E-02
      0.700000E-01      0.512246E-02
      0.750000E-01      0.461175E-02
      0.800000E-01      0.416801E-02
      0.850000E-01      0.378521E-02
      0.900000E-01      0.345546E-02
      0.950000E-01      0.316996E-02
      0.100000          0.291996E-02
      0.105000          0.269741E-02
      0.110000          0.249551E-02
      0.115000          0.230898E-02
      0.120000          0.213416E-02
      0.125000          0.196887E-02
      0.130000          0.181223E-02
      0.135000          0.166427E-02
      0.140000          0.152564E-02
      0.145000          0.139718E-02
      0.150000          0.127971E-02
      0.155000          0.117374E-02
      0.160000          0.107939E-02
      0.165000          0.996298E-03
      0.170000          0.923690E-03
      0.175000          0.860426E-03
      0.180000          0.805137E-03
      0.185000          0.756353E-03
      0.190000          0.712626E-03
      0.195000          0.672631E-03
      0.200000          0.635245E-03
      0.205000          0.599586E-03
      0.210000          0.565026E-03
      0.215000          0.531177E-03
      0.220000          0.497859E-03
      0.225000          0.465065E-03
      0.230000          0.432910E-03
      0.235000          0.401600E-03
      0.240000          0.371391E-03
      0.245000          0.342565E-03
      0.250000          0.315407E-03
      0.255000          0.290188E-03
      0.260000          0.267150E-03
      0.265000          0.246496E-03
      0.270000          0.228370E-03
      0.275000          0.212850E-03
      0.280000          0.199935E-03
      0.285000          0.189536E-03
      0.290000          0.181474E-03
      0.295000          0.175488E-03
      0.300000          0.171240E-03
      0.305000          0.168343E-03
      0.310000          0.166380E-03
      0.315000          0.164938E-03
      0.320000          0.163635E-03
      0.325000          0.162151E-03
      0.330000          0.160244E-03
      0.335000          0.157767E-03
      0.340000          0.154670E-03
      0.345000          0.150993E-03
      0.350000          0.146850E-03
      0.355000          0.142410E-03
      0.360000          0.137867E-03
      0.365000          0.133414E-03
      0.370000          0.129225E-03
      0.375000          0.125429E-03
      0.380000          0.122106E-03
      0.385000          0.119280E-03
      0.390000          0.116925E-03
      0.395000          0.114971E-03
      0.400000          0.113328E-03
      0.405000          0.111890E-03
      0.410000          0.110562E-03
      0.415000          0.109263E-03
      0.420000          0.107942E-03
      0.425000          0.106575E-03
      0.430000          0.105169E-03
      0.435000          0.103751E-03
      0.440000          0.102364E-03
      0.445000          0.101052E-03
      0.450000          0.998527E-04
      0.455000          0.987894E-04
      0.460000          0.978650E-04
      0.465000          0.970610E-04
      0.470000          0.963397E-04
      0.475000          0.956487E-04
      0.480000          0.949289E-04
      0.485000          0.941227E-04
      0.490000          0.931819E-04
      0.495000          0.920746E-04
      0.500000          0.907897E-04
