 I_abs(s)[cm^-1]/c[mg/ml]
       0.00000          0.142739E-01
      0.500000E-02      0.142148E-01
      0.100000E-01      0.140390E-01
      0.150000E-01      0.137517E-01
      0.200000E-01      0.133609E-01
      0.250000E-01      0.128774E-01
      0.300000E-01      0.123140E-01
      0.350000E-01      0.116853E-01
      0.400000E-01      0.110067E-01
      0.450000E-01      0.102937E-01
      0.500000E-01      0.956160E-02
      0.550000E-01      0.882476E-02
      0.600000E-01      0.809609E-02
      0.650000E-01      0.738677E-02
      0.700000E-01      0.670597E-02
      0.750000E-01      0.606081E-02
      0.800000E-01      0.545635E-02
      0.850000E-01      0.489571E-02
      0.900000E-01      0.438026E-02
      0.950000E-01      0.390993E-02
      0.100000          0.348345E-02
      0.105000          0.309869E-02
      0.110000          0.275298E-02
      0.115000          0.244330E-02
      0.120000          0.216655E-02
      0.125000          0.191972E-02
      0.130000          0.169997E-02
      0.135000          0.150474E-02
      0.140000          0.133175E-02
      0.145000          0.117898E-02
      0.150000          0.104466E-02
      0.155000          0.927198E-03
      0.160000          0.825162E-03
      0.165000          0.737198E-03
      0.170000          0.662006E-03
      0.175000          0.598318E-03
      0.180000          0.544877E-03
      0.185000          0.500439E-03
      0.190000          0.463788E-03
      0.195000          0.433746E-03
      0.200000          0.409196E-03
      0.205000          0.389104E-03
      0.210000          0.372534E-03
      0.215000          0.358663E-03
      0.220000          0.346790E-03
      0.225000          0.336331E-03
      0.230000          0.326822E-03
      0.235000          0.317907E-03
      0.240000          0.309324E-03
      0.245000          0.300896E-03
      0.250000          0.292511E-03
      0.255000          0.284113E-03
      0.260000          0.275688E-03
      0.265000          0.267253E-03
      0.270000          0.258846E-03
      0.275000          0.250521E-03
      0.280000          0.242340E-03
      0.285000          0.234370E-03
      0.290000          0.226676E-03
      0.295000          0.219319E-03
      0.300000          0.212353E-03
      0.305000          0.205819E-03
      0.310000          0.199747E-03
      0.315000          0.194150E-03
      0.320000          0.189026E-03
      0.325000          0.184356E-03
      0.330000          0.180106E-03
      0.335000          0.176231E-03
      0.340000          0.172673E-03
      0.345000          0.169373E-03
      0.350000          0.166264E-03
      0.355000          0.163284E-03
      0.360000          0.160377E-03
      0.365000          0.157492E-03
      0.370000          0.154589E-03
      0.375000          0.151641E-03
      0.380000          0.148630E-03
      0.385000          0.145548E-03
      0.390000          0.142399E-03
      0.395000          0.139192E-03
      0.400000          0.135943E-03
      0.405000          0.132670E-03
      0.410000          0.129394E-03
      0.415000          0.126137E-03
      0.420000          0.122916E-03
      0.425000          0.119751E-03
      0.430000          0.116657E-03
      0.435000          0.113646E-03
      0.440000          0.110731E-03
      0.445000          0.107920E-03
      0.450000          0.105219E-03
      0.455000          0.102634E-03
      0.460000          0.100169E-03
      0.465000          0.978251E-04
      0.470000          0.956039E-04
      0.475000          0.935046E-04
      0.480000          0.915255E-04
      0.485000          0.896629E-04
      0.490000          0.879120E-04
      0.495000          0.862663E-04
      0.500000          0.847179E-04
