 I_abs(s)[cm^-1]/c[mg/ml]
       0.00000          0.147740E-01
      0.500000E-02      0.147091E-01
      0.100000E-01      0.145159E-01
      0.150000E-01      0.141997E-01
      0.200000E-01      0.137688E-01
      0.250000E-01      0.132344E-01
      0.300000E-01      0.126101E-01
      0.350000E-01      0.119113E-01
      0.400000E-01      0.111545E-01
      0.450000E-01      0.103570E-01
      0.500000E-01      0.953600E-02
      0.550000E-01      0.870786E-02
      0.600000E-01      0.788791E-02
      0.650000E-01      0.708983E-02
      0.700000E-01      0.632527E-02
      0.750000E-01      0.560370E-02
      0.800000E-01      0.493225E-02
      0.850000E-01      0.431573E-02
      0.900000E-01      0.375674E-02
      0.950000E-01      0.325583E-02
      0.100000          0.281182E-02
      0.105000          0.242209E-02
      0.110000          0.208291E-02
      0.115000          0.178981E-02
      0.120000          0.153793E-02
      0.125000          0.132228E-02
      0.130000          0.113804E-02
      0.135000          0.980724E-03
      0.140000          0.846361E-03
      0.145000          0.731546E-03
      0.150000          0.633480E-03
      0.155000          0.549946E-03
      0.160000          0.479250E-03
      0.165000          0.420124E-03
      0.170000          0.371625E-03
      0.175000          0.333023E-03
      0.180000          0.303690E-03
      0.185000          0.283013E-03
      0.190000          0.270317E-03
      0.195000          0.264818E-03
      0.200000          0.265599E-03
      0.205000          0.271608E-03
      0.210000          0.281682E-03
      0.215000          0.294588E-03
      0.220000          0.309069E-03
      0.225000          0.323903E-03
      0.230000          0.337962E-03
      0.235000          0.350260E-03
      0.240000          0.359995E-03
      0.245000          0.366585E-03
      0.250000          0.369674E-03
      0.255000          0.369142E-03
      0.260000          0.365084E-03
      0.265000          0.357787E-03
      0.270000          0.347696E-03
      0.275000          0.335369E-03
      0.280000          0.321433E-03
      0.285000          0.306536E-03
      0.290000          0.291309E-03
      0.295000          0.276328E-03
      0.300000          0.262083E-03
      0.305000          0.248961E-03
      0.310000          0.237233E-03
      0.315000          0.227054E-03
      0.320000          0.218466E-03
      0.325000          0.211414E-03
      0.330000          0.205760E-03
      0.335000          0.201309E-03
      0.340000          0.197825E-03
      0.345000          0.195057E-03
      0.350000          0.192757E-03
      0.355000          0.190697E-03
      0.360000          0.188682E-03
      0.365000          0.186559E-03
      0.370000          0.184223E-03
      0.375000          0.181613E-03
      0.380000          0.178715E-03
      0.385000          0.175549E-03
      0.390000          0.172169E-03
      0.395000          0.168647E-03
      0.400000          0.165068E-03
      0.405000          0.161519E-03
      0.410000          0.158082E-03
      0.415000          0.154826E-03
      0.420000          0.151806E-03
      0.425000          0.149054E-03
      0.430000          0.146584E-03
      0.435000          0.144389E-03
      0.440000          0.142445E-03
      0.445000          0.140712E-03
      0.450000          0.139140E-03
      0.455000          0.137672E-03
      0.460000          0.136251E-03
      0.465000          0.134818E-03
      0.470000          0.133325E-03
      0.475000          0.131727E-03
      0.480000          0.129993E-03
      0.485000          0.128103E-03
      0.490000          0.126049E-03
      0.495000          0.123834E-03
      0.500000          0.121472E-03
