 I_abs(s)[cm^-1]/c[mg/ml]
       0.00000          0.145367E-01
      0.500000E-02      0.144900E-01
      0.100000E-01      0.143510E-01
      0.150000E-01      0.141223E-01
      0.200000E-01      0.138085E-01
      0.250000E-01      0.134157E-01
      0.300000E-01      0.129514E-01
      0.350000E-01      0.124241E-01
      0.400000E-01      0.118436E-01
      0.450000E-01      0.112200E-01
      0.500000E-01      0.105638E-01
      0.550000E-01      0.988550E-02
      0.600000E-01      0.919551E-02
      0.650000E-01      0.850361E-02
      0.700000E-01      0.781889E-02
      0.750000E-01      0.714954E-02
      0.800000E-01      0.650270E-02
      0.850000E-01      0.588438E-02
      0.900000E-01      0.529936E-02
      0.950000E-01      0.475127E-02
      0.100000          0.424252E-02
      0.105000          0.377445E-02
      0.110000          0.334739E-02
      0.115000          0.296077E-02
      0.120000          0.261330E-02
      0.125000          0.230309E-02
      0.130000          0.202776E-02
      0.135000          0.178465E-02
      0.140000          0.157090E-02
      0.145000          0.138360E-02
      0.150000          0.121984E-02
      0.155000          0.107687E-02
      0.160000          0.952095E-03
      0.165000          0.843134E-03
      0.170000          0.747868E-03
      0.175000          0.664429E-03
      0.180000          0.591205E-03
      0.185000          0.526824E-03
      0.190000          0.470132E-03
      0.195000          0.420169E-03
      0.200000          0.376138E-03
      0.205000          0.337377E-03
      0.210000          0.303333E-03
      0.215000          0.273534E-03
      0.220000          0.247568E-03
      0.225000          0.225070E-03
      0.230000          0.205703E-03
      0.235000          0.189152E-03
      0.240000          0.175121E-03
      0.245000          0.163321E-03
      0.250000          0.153481E-03
      0.255000          0.145339E-03
      0.260000          0.138648E-03
      0.265000          0.133180E-03
      0.270000          0.128723E-03
      0.275000          0.125089E-03
      0.280000          0.122108E-03
      0.285000          0.119636E-03
      0.290000          0.117548E-03
      0.295000          0.115745E-03
      0.300000          0.114145E-03
      0.305000          0.112688E-03
      0.310000          0.111329E-03
      0.315000          0.110040E-03
      0.320000          0.108807E-03
      0.325000          0.107628E-03
      0.330000          0.106507E-03
      0.335000          0.105461E-03
      0.340000          0.104507E-03
      0.345000          0.103669E-03
      0.350000          0.102971E-03
      0.355000          0.102436E-03
      0.360000          0.102087E-03
      0.365000          0.101940E-03
      0.370000          0.102008E-03
      0.375000          0.102293E-03
      0.380000          0.102794E-03
      0.385000          0.103497E-03
      0.390000          0.104382E-03
      0.395000          0.105420E-03
      0.400000          0.106573E-03
      0.405000          0.107797E-03
      0.410000          0.109045E-03
      0.415000          0.110264E-03
      0.420000          0.111404E-03
      0.425000          0.112414E-03
      0.430000          0.113248E-03
      0.435000          0.113867E-03
      0.440000          0.114239E-03
      0.445000          0.114344E-03
      0.450000          0.114171E-03
      0.455000          0.113720E-03
      0.460000          0.113002E-03
      0.465000          0.112040E-03
      0.470000          0.110863E-03
      0.475000          0.109512E-03
      0.480000          0.108028E-03
      0.485000          0.106459E-03
      0.490000          0.104850E-03
      0.495000          0.103248E-03
      0.500000          0.101694E-03
