 I_abs(s)[cm^-1]/c[mg/ml]
       0.00000          0.136776E-01
      0.500000E-02      0.136219E-01
      0.100000E-01      0.134562E-01
      0.150000E-01      0.131846E-01
      0.200000E-01      0.128135E-01
      0.250000E-01      0.123520E-01
      0.300000E-01      0.118107E-01
      0.350000E-01      0.112022E-01
      0.400000E-01      0.105399E-01
      0.450000E-01      0.983798E-02
      0.500000E-01      0.911090E-02
      0.550000E-01      0.837277E-02
      0.600000E-01      0.763700E-02
      0.650000E-01      0.691595E-02
      0.700000E-01      0.622057E-02
      0.750000E-01      0.556019E-02
      0.800000E-01      0.494234E-02
      0.850000E-01      0.437264E-02
      0.900000E-01      0.385485E-02
      0.950000E-01      0.339087E-02
      0.100000          0.298094E-02
      0.105000          0.262378E-02
      0.110000          0.231683E-02
      0.115000          0.205650E-02
      0.120000          0.183844E-02
      0.125000          0.165777E-02
      0.130000          0.150941E-02
      0.135000          0.138821E-02
      0.140000          0.128922E-02
      0.145000          0.120780E-02
      0.150000          0.113980E-02
      0.155000          0.108158E-02
      0.160000          0.103010E-02
      0.165000          0.982918E-03
      0.170000          0.938156E-03
      0.175000          0.894479E-03
      0.180000          0.851021E-03
      0.185000          0.807319E-03
      0.190000          0.763232E-03
      0.195000          0.718863E-03
      0.200000          0.674488E-03
      0.205000          0.630490E-03
      0.210000          0.587296E-03
      0.215000          0.545341E-03
      0.220000          0.505026E-03
      0.225000          0.466697E-03
      0.230000          0.430633E-03
      0.235000          0.397039E-03
      0.240000          0.366045E-03
      0.245000          0.337713E-03
      0.250000          0.312046E-03
      0.255000          0.288993E-03
      0.260000          0.268465E-03
      0.265000          0.250338E-03
      0.270000          0.234464E-03
      0.275000          0.220677E-03
      0.280000          0.208796E-03
      0.285000          0.198633E-03
      0.290000          0.189991E-03
      0.295000          0.182672E-03
      0.300000          0.176475E-03
      0.305000          0.171203E-03
      0.310000          0.166664E-03
      0.315000          0.162674E-03
      0.320000          0.159065E-03
      0.325000          0.155684E-03
      0.330000          0.152399E-03
      0.335000          0.149105E-03
      0.340000          0.145721E-03
      0.345000          0.142195E-03
      0.350000          0.138502E-03
      0.355000          0.134646E-03
      0.360000          0.130652E-03
      0.365000          0.126566E-03
      0.370000          0.122450E-03
      0.375000          0.118373E-03
      0.380000          0.114410E-03
      0.385000          0.110632E-03
      0.390000          0.107101E-03
      0.395000          0.103870E-03
      0.400000          0.100973E-03
      0.405000          0.984287E-04
      0.410000          0.962373E-04
      0.415000          0.943810E-04
      0.420000          0.928270E-04
      0.425000          0.915301E-04
      0.430000          0.904369E-04
      0.435000          0.894896E-04
      0.440000          0.886312E-04
      0.445000          0.878088E-04
      0.450000          0.869781E-04
      0.455000          0.861058E-04
      0.460000          0.851717E-04
      0.465000          0.841693E-04
      0.470000          0.831061E-04
      0.475000          0.820016E-04
      0.480000          0.808858E-04
      0.485000          0.797958E-04
      0.490000          0.787729E-04
      0.495000          0.778587E-04
      0.500000          0.770918E-04
