 I_abs(s)[cm^-1]/c[mg/ml]
       0.00000          0.146957E-01
      0.500000E-02      0.146432E-01
      0.100000E-01      0.144870E-01
      0.150000E-01      0.142308E-01
      0.200000E-01      0.138804E-01
      0.250000E-01      0.134438E-01
      0.300000E-01      0.129306E-01
      0.350000E-01      0.123519E-01
      0.400000E-01      0.117196E-01
      0.450000E-01      0.110463E-01
      0.500000E-01      0.103446E-01
      0.550000E-01      0.962676E-02
      0.600000E-01      0.890448E-02
      0.650000E-01      0.818845E-02
      0.700000E-01      0.748817E-02
      0.750000E-01      0.681176E-02
      0.800000E-01      0.616586E-02
      0.850000E-01      0.555562E-02
      0.900000E-01      0.498469E-02
      0.950000E-01      0.445535E-02
      0.100000          0.396866E-02
      0.105000          0.352455E-02
      0.110000          0.312206E-02
      0.115000          0.275954E-02
      0.120000          0.243476E-02
      0.125000          0.214519E-02
      0.130000          0.188804E-02
      0.135000          0.166048E-02
      0.140000          0.145969E-02
      0.145000          0.128295E-02
      0.150000          0.112771E-02
      0.155000          0.991598E-03
      0.160000          0.872443E-03
      0.165000          0.768286E-03
      0.170000          0.677363E-03
      0.175000          0.598098E-03
      0.180000          0.529086E-03
      0.185000          0.469079E-03
      0.190000          0.416971E-03
      0.195000          0.371786E-03
      0.200000          0.332669E-03
      0.205000          0.298876E-03
      0.210000          0.269762E-03
      0.215000          0.244779E-03
      0.220000          0.223462E-03
      0.225000          0.205420E-03
      0.230000          0.190324E-03
      0.235000          0.177894E-03
      0.240000          0.167890E-03
      0.245000          0.160092E-03
      0.250000          0.154296E-03
      0.255000          0.150299E-03
      0.260000          0.147892E-03
      0.265000          0.146857E-03
      0.270000          0.146963E-03
      0.275000          0.147971E-03
      0.280000          0.149633E-03
      0.285000          0.151703E-03
      0.290000          0.153942E-03
      0.295000          0.156126E-03
      0.300000          0.158058E-03
      0.305000          0.159568E-03
      0.310000          0.160526E-03
      0.315000          0.160841E-03
      0.320000          0.160461E-03
      0.325000          0.159377E-03
      0.330000          0.157613E-03
      0.335000          0.155224E-03
      0.340000          0.152289E-03
      0.345000          0.148906E-03
      0.350000          0.145178E-03
      0.355000          0.141213E-03
      0.360000          0.137113E-03
      0.365000          0.132973E-03
      0.370000          0.128873E-03
      0.375000          0.124879E-03
      0.380000          0.121042E-03
      0.385000          0.117394E-03
      0.390000          0.113958E-03
      0.395000          0.110742E-03
      0.400000          0.107745E-03
      0.405000          0.104961E-03
      0.410000          0.102380E-03
      0.415000          0.999872E-04
      0.420000          0.977718E-04
      0.425000          0.957225E-04
      0.430000          0.938302E-04
      0.435000          0.920887E-04
      0.440000          0.904940E-04
      0.445000          0.890445E-04
      0.450000          0.877397E-04
      0.455000          0.865804E-04
      0.460000          0.855676E-04
      0.465000          0.847017E-04
      0.470000          0.839826E-04
      0.475000          0.834088E-04
      0.480000          0.829773E-04
      0.485000          0.826834E-04
      0.490000          0.825207E-04
      0.495000          0.824811E-04
      0.500000          0.825543E-04
