 I_abs(s)[cm^-1]/c[mg/ml]
       0.00000          0.135166E-01
      0.500000E-02      0.134587E-01
      0.100000E-01      0.132867E-01
      0.150000E-01      0.130053E-01
      0.200000E-01      0.126218E-01
      0.250000E-01      0.121465E-01
      0.300000E-01      0.115915E-01
      0.350000E-01      0.109708E-01
      0.400000E-01      0.102993E-01
      0.450000E-01      0.959252E-02
      0.500000E-01      0.886608E-02
      0.550000E-01      0.813484E-02
      0.600000E-01      0.741268E-02
      0.650000E-01      0.671197E-02
      0.700000E-01      0.604330E-02
      0.750000E-01      0.541523E-02
      0.800000E-01      0.483416E-02
      0.850000E-01      0.430436E-02
      0.900000E-01      0.382801E-02
      0.950000E-01      0.340537E-02
      0.100000          0.303502E-02
      0.105000          0.271413E-02
      0.110000          0.243878E-02
      0.115000          0.220429E-02
      0.120000          0.200550E-02
      0.125000          0.183710E-02
      0.130000          0.169388E-02
      0.135000          0.157094E-02
      0.140000          0.146385E-02
      0.145000          0.136877E-02
      0.150000          0.128253E-02
      0.155000          0.120260E-02
      0.160000          0.112712E-02
      0.165000          0.105481E-02
      0.170000          0.984909E-03
      0.175000          0.917064E-03
      0.180000          0.851251E-03
      0.185000          0.787665E-03
      0.190000          0.726635E-03
      0.195000          0.668544E-03
      0.200000          0.613769E-03
      0.205000          0.562629E-03
      0.210000          0.515360E-03
      0.215000          0.472097E-03
      0.220000          0.432867E-03
      0.225000          0.397604E-03
      0.230000          0.366155E-03
      0.235000          0.338302E-03
      0.240000          0.313781E-03
      0.245000          0.292301E-03
      0.250000          0.273560E-03
      0.255000          0.257264E-03
      0.260000          0.243127E-03
      0.265000          0.230889E-03
      0.270000          0.220309E-03
      0.275000          0.211173E-03
      0.280000          0.203287E-03
      0.285000          0.196478E-03
      0.290000          0.190588E-03
      0.295000          0.185472E-03
      0.300000          0.180998E-03
      0.305000          0.177040E-03
      0.310000          0.173484E-03
      0.315000          0.170225E-03
      0.320000          0.167168E-03
      0.325000          0.164231E-03
      0.330000          0.161343E-03
      0.335000          0.158450E-03
      0.340000          0.155512E-03
      0.345000          0.152503E-03
      0.350000          0.149413E-03
      0.355000          0.146244E-03
      0.360000          0.143007E-03
      0.365000          0.139721E-03
      0.370000          0.136410E-03
      0.375000          0.133101E-03
      0.380000          0.129820E-03
      0.385000          0.126589E-03
      0.390000          0.123425E-03
      0.395000          0.120344E-03
      0.400000          0.117350E-03
      0.405000          0.114448E-03
      0.410000          0.111635E-03
      0.415000          0.108907E-03
      0.420000          0.106257E-03
      0.425000          0.103680E-03
      0.430000          0.101172E-03
      0.435000          0.987345E-04
      0.440000          0.963698E-04
      0.445000          0.940870E-04
      0.450000          0.918991E-04
      0.455000          0.898233E-04
      0.460000          0.878797E-04
      0.465000          0.860903E-04
      0.470000          0.844771E-04
      0.475000          0.830607E-04
      0.480000          0.818583E-04
      0.485000          0.808828E-04
      0.490000          0.801409E-04
      0.495000          0.796326E-04
      0.500000          0.793508E-04
