 I_abs(s)[cm^-1]/c[mg/ml]
       0.00000          0.138318E-01
      0.500000E-02      0.137727E-01
      0.100000E-01      0.135968E-01
      0.150000E-01      0.133095E-01
      0.200000E-01      0.129188E-01
      0.250000E-01      0.124357E-01
      0.300000E-01      0.118736E-01
      0.350000E-01      0.112472E-01
      0.400000E-01      0.105727E-01
      0.450000E-01      0.986640E-02
      0.500000E-01      0.914437E-02
      0.550000E-01      0.842187E-02
      0.600000E-01      0.771275E-02
      0.650000E-01      0.702900E-02
      0.700000E-01      0.638050E-02
      0.750000E-01      0.577480E-02
      0.800000E-01      0.521703E-02
      0.850000E-01      0.471002E-02
      0.900000E-01      0.425444E-02
      0.950000E-01      0.384904E-02
      0.100000          0.349100E-02
      0.105000          0.317632E-02
      0.110000          0.290016E-02
      0.115000          0.265725E-02
      0.120000          0.244224E-02
      0.125000          0.224998E-02
      0.130000          0.207583E-02
      0.135000          0.191577E-02
      0.140000          0.176655E-02
      0.145000          0.162572E-02
      0.150000          0.149163E-02
      0.155000          0.136335E-02
      0.160000          0.124054E-02
      0.165000          0.112335E-02
      0.170000          0.101227E-02
      0.175000          0.907957E-03
      0.180000          0.811111E-03
      0.185000          0.722370E-03
      0.190000          0.642203E-03
      0.195000          0.570860E-03
      0.200000          0.508329E-03
      0.205000          0.454341E-03
      0.210000          0.408386E-03
      0.215000          0.369755E-03
      0.220000          0.337590E-03
      0.225000          0.310948E-03
      0.230000          0.288859E-03
      0.235000          0.270386E-03
      0.240000          0.254672E-03
      0.245000          0.240978E-03
      0.250000          0.228707E-03
      0.255000          0.217415E-03
      0.260000          0.206809E-03
      0.265000          0.196733E-03
      0.270000          0.187149E-03
      0.275000          0.178107E-03
      0.280000          0.169716E-03
      0.285000          0.162113E-03
      0.290000          0.155436E-03
      0.295000          0.149802E-03
      0.300000          0.145287E-03
      0.305000          0.141916E-03
      0.310000          0.139656E-03
      0.315000          0.138423E-03
      0.320000          0.138082E-03
      0.325000          0.138464E-03
      0.330000          0.139372E-03
      0.335000          0.140601E-03
      0.340000          0.141950E-03
      0.345000          0.143234E-03
      0.350000          0.144294E-03
      0.355000          0.145005E-03
      0.360000          0.145279E-03
      0.365000          0.145069E-03
      0.370000          0.144362E-03
      0.375000          0.143178E-03
      0.380000          0.141562E-03
      0.385000          0.139576E-03
      0.390000          0.137294E-03
      0.395000          0.134790E-03
      0.400000          0.132135E-03
      0.405000          0.129391E-03
      0.410000          0.126606E-03
      0.415000          0.123813E-03
      0.420000          0.121030E-03
      0.425000          0.118262E-03
      0.430000          0.115501E-03
      0.435000          0.112734E-03
      0.440000          0.109943E-03
      0.445000          0.107111E-03
      0.450000          0.104226E-03
      0.455000          0.101280E-03
      0.460000          0.982787E-04
      0.465000          0.952346E-04
      0.470000          0.921718E-04
      0.475000          0.891231E-04
      0.480000          0.861283E-04
      0.485000          0.832315E-04
      0.490000          0.804782E-04
      0.495000          0.779120E-04
      0.500000          0.755715E-04
