 I_abs(s)[cm^-1]/c[mg/ml]
       0.00000          0.137392E-01
      0.500000E-02      0.136810E-01
      0.100000E-01      0.135079E-01
      0.150000E-01      0.132245E-01
      0.200000E-01      0.128385E-01
      0.250000E-01      0.123597E-01
      0.300000E-01      0.118005E-01
      0.350000E-01      0.111747E-01
      0.400000E-01      0.104974E-01
      0.450000E-01      0.978399E-02
      0.500000E-01      0.905008E-02
      0.550000E-01      0.831062E-02
      0.600000E-01      0.757949E-02
      0.650000E-01      0.686915E-02
      0.700000E-01      0.619024E-02
      0.750000E-01      0.555138E-02
      0.800000E-01      0.495907E-02
      0.850000E-01      0.441764E-02
      0.900000E-01      0.392938E-02
      0.950000E-01      0.349461E-02
      0.100000          0.311202E-02
      0.105000          0.277885E-02
      0.110000          0.249129E-02
      0.115000          0.224473E-02
      0.120000          0.203413E-02
      0.125000          0.185428E-02
      0.130000          0.170011E-02
      0.135000          0.156682E-02
      0.140000          0.145014E-02
      0.145000          0.134637E-02
      0.150000          0.125246E-02
      0.155000          0.116606E-02
      0.160000          0.108540E-02
      0.165000          0.100932E-02
      0.170000          0.937134E-03
      0.175000          0.868532E-03
      0.180000          0.803485E-03
      0.185000          0.742142E-03
      0.190000          0.684732E-03
      0.195000          0.631493E-03
      0.200000          0.582609E-03
      0.205000          0.538170E-03
      0.210000          0.498153E-03
      0.215000          0.462417E-03
      0.220000          0.430710E-03
      0.225000          0.402693E-03
      0.230000          0.377963E-03
      0.235000          0.356089E-03
      0.240000          0.336637E-03
      0.245000          0.319197E-03
      0.250000          0.303406E-03
      0.255000          0.288960E-03
      0.260000          0.275624E-03
      0.265000          0.263231E-03
      0.270000          0.251675E-03
      0.275000          0.240904E-03
      0.280000          0.230900E-03
      0.285000          0.221672E-03
      0.290000          0.213235E-03
      0.295000          0.205597E-03
      0.300000          0.198751E-03
      0.305000          0.192666E-03
      0.310000          0.187284E-03
      0.315000          0.182518E-03
      0.320000          0.178261E-03
      0.325000          0.174386E-03
      0.330000          0.170758E-03
      0.335000          0.167243E-03
      0.340000          0.163715E-03
      0.345000          0.160068E-03
      0.350000          0.156219E-03
      0.355000          0.152118E-03
      0.360000          0.147744E-03
      0.365000          0.143108E-03
      0.370000          0.138253E-03
      0.375000          0.133245E-03
      0.380000          0.128169E-03
      0.385000          0.123123E-03
      0.390000          0.118207E-03
      0.395000          0.113522E-03
      0.400000          0.109154E-03
      0.405000          0.105176E-03
      0.410000          0.101642E-03
      0.415000          0.985815E-04
      0.420000          0.960018E-04
      0.425000          0.938875E-04
      0.430000          0.922029E-04
      0.435000          0.908953E-04
      0.440000          0.898994E-04
      0.445000          0.891422E-04
      0.450000          0.885477E-04
      0.455000          0.880419E-04
      0.460000          0.875566E-04
      0.465000          0.870333E-04
      0.470000          0.864256E-04
      0.475000          0.857007E-04
      0.480000          0.848400E-04
      0.485000          0.838386E-04
      0.490000          0.827044E-04
      0.495000          0.814555E-04
      0.500000          0.801184E-04
