 I_abs(s)[cm^-1]/c[mg/ml]
       0.00000          0.147356E-01
      0.500000E-02      0.146918E-01
      0.100000E-01      0.145613E-01
      0.150000E-01      0.143462E-01
      0.200000E-01      0.140503E-01
      0.250000E-01      0.136784E-01
      0.300000E-01      0.132369E-01
      0.350000E-01      0.127328E-01
      0.400000E-01      0.121742E-01
      0.450000E-01      0.115700E-01
      0.500000E-01      0.109291E-01
      0.550000E-01      0.102609E-01
      0.600000E-01      0.957490E-02
      0.650000E-01      0.888010E-02
      0.700000E-01      0.818531E-02
      0.750000E-01      0.749871E-02
      0.800000E-01      0.682777E-02
      0.850000E-01      0.617913E-02
      0.900000E-01      0.555852E-02
      0.950000E-01      0.497068E-02
      0.100000          0.441936E-02
      0.105000          0.390730E-02
      0.110000          0.343626E-02
      0.115000          0.300709E-02
      0.120000          0.261978E-02
      0.125000          0.227358E-02
      0.130000          0.196705E-02
      0.135000          0.169822E-02
      0.140000          0.146469E-02
      0.145000          0.126372E-02
      0.150000          0.109234E-02
      0.155000          0.947488E-03
      0.160000          0.826065E-03
      0.165000          0.725027E-03
      0.170000          0.641455E-03
      0.175000          0.572609E-03
      0.180000          0.515969E-03
      0.185000          0.469267E-03
      0.190000          0.430503E-03
      0.195000          0.397951E-03
      0.200000          0.370156E-03
      0.205000          0.345926E-03
      0.210000          0.324312E-03
      0.215000          0.304584E-03
      0.220000          0.286214E-03
      0.225000          0.268837E-03
      0.230000          0.252234E-03
      0.235000          0.236296E-03
      0.240000          0.221003E-03
      0.245000          0.206398E-03
      0.250000          0.192566E-03
      0.255000          0.179612E-03
      0.260000          0.167650E-03
      0.265000          0.156786E-03
      0.270000          0.147110E-03
      0.275000          0.138689E-03
      0.280000          0.131562E-03
      0.285000          0.125738E-03
      0.290000          0.121194E-03
      0.295000          0.117878E-03
      0.300000          0.115714E-03
      0.305000          0.114600E-03
      0.310000          0.114417E-03
      0.315000          0.115032E-03
      0.320000          0.116302E-03
      0.325000          0.118082E-03
      0.330000          0.120225E-03
      0.335000          0.122590E-03
      0.340000          0.125045E-03
      0.345000          0.127467E-03
      0.350000          0.129750E-03
      0.355000          0.131801E-03
      0.360000          0.133546E-03
      0.365000          0.134927E-03
      0.370000          0.135902E-03
      0.375000          0.136448E-03
      0.380000          0.136556E-03
      0.385000          0.136231E-03
      0.390000          0.135491E-03
      0.395000          0.134364E-03
      0.400000          0.132885E-03
      0.405000          0.131099E-03
      0.410000          0.129053E-03
      0.415000          0.126796E-03
      0.420000          0.124378E-03
      0.425000          0.121852E-03
      0.430000          0.119264E-03
      0.435000          0.116662E-03
      0.440000          0.114085E-03
      0.445000          0.111573E-03
      0.450000          0.109157E-03
      0.455000          0.106865E-03
      0.460000          0.104720E-03
      0.465000          0.102739E-03
      0.470000          0.100935E-03
      0.475000          0.993141E-04
      0.480000          0.978804E-04
      0.485000          0.966327E-04
      0.490000          0.955658E-04
      0.495000          0.946715E-04
      0.500000          0.939383E-04
