 I_abs(s)[cm^-1]/c[mg/ml]
       0.00000          0.133641E-01
      0.500000E-02      0.132795E-01
      0.100000E-01      0.130297E-01
      0.150000E-01      0.126260E-01
      0.200000E-01      0.120865E-01
      0.250000E-01      0.114349E-01
      0.300000E-01      0.106985E-01
      0.350000E-01      0.990680E-02
      0.400000E-01      0.908938E-02
      0.450000E-01      0.827421E-02
      0.500000E-01      0.748602E-02
      0.550000E-01      0.674517E-02
      0.600000E-01      0.606674E-02
      0.650000E-01      0.546027E-02
      0.700000E-01      0.492979E-02
      0.750000E-01      0.447436E-02
      0.800000E-01      0.408888E-02
      0.850000E-01      0.376510E-02
      0.900000E-01      0.349283E-02
      0.950000E-01      0.326106E-02
      0.100000          0.305900E-02
      0.105000          0.287700E-02
      0.110000          0.270711E-02
      0.115000          0.254347E-02
      0.120000          0.238243E-02
      0.125000          0.222238E-02
      0.130000          0.206343E-02
      0.135000          0.190698E-02
      0.140000          0.175518E-02
      0.145000          0.161048E-02
      0.150000          0.147515E-02
      0.155000          0.135095E-02
      0.160000          0.123891E-02
      0.165000          0.113925E-02
      0.170000          0.105144E-02
      0.175000          0.974270E-03
      0.180000          0.906103E-03
      0.185000          0.845086E-03
      0.190000          0.789385E-03
      0.195000          0.737376E-03
      0.200000          0.687801E-03
      0.205000          0.639844E-03
      0.210000          0.593151E-03
      0.215000          0.547784E-03
      0.220000          0.504130E-03
      0.225000          0.462782E-03
      0.230000          0.424407E-03
      0.235000          0.389622E-03
      0.240000          0.358895E-03
      0.245000          0.332472E-03
      0.250000          0.310346E-03
      0.255000          0.292266E-03
      0.260000          0.277765E-03
      0.265000          0.266224E-03
      0.270000          0.256944E-03
      0.275000          0.249216E-03
      0.280000          0.242391E-03
      0.285000          0.235932E-03
      0.290000          0.229444E-03
      0.295000          0.222689E-03
      0.300000          0.215580E-03
      0.305000          0.208155E-03
      0.310000          0.200545E-03
      0.315000          0.192938E-03
      0.320000          0.185535E-03
      0.325000          0.178525E-03
      0.330000          0.172052E-03
      0.335000          0.166204E-03
      0.340000          0.161008E-03
      0.345000          0.156434E-03
      0.350000          0.152406E-03
      0.355000          0.148816E-03
      0.360000          0.145543E-03
      0.365000          0.142467E-03
      0.370000          0.139481E-03
      0.375000          0.136504E-03
      0.380000          0.133482E-03
      0.385000          0.130387E-03
      0.390000          0.127217E-03
      0.395000          0.123991E-03
      0.400000          0.120736E-03
      0.405000          0.117490E-03
      0.410000          0.114286E-03
      0.415000          0.111155E-03
      0.420000          0.108121E-03
      0.425000          0.105199E-03
      0.430000          0.102393E-03
      0.435000          0.997045E-04
      0.440000          0.971249E-04
      0.445000          0.946437E-04
      0.450000          0.922478E-04
      0.455000          0.899228E-04
      0.460000          0.876551E-04
      0.465000          0.854319E-04
      0.470000          0.832425E-04
      0.475000          0.810792E-04
      0.480000          0.789375E-04
      0.485000          0.768174E-04
      0.490000          0.747238E-04
      0.495000          0.726668E-04
      0.500000          0.706620E-04
