 I_abs(s)[cm^-1]/c[mg/ml]
       0.00000          0.134097E-01
      0.500000E-02      0.133447E-01
      0.100000E-01      0.131517E-01
      0.150000E-01      0.128366E-01
      0.200000E-01      0.124091E-01
      0.250000E-01      0.118818E-01
      0.300000E-01      0.112704E-01
      0.350000E-01      0.105920E-01
      0.400000E-01      0.986514E-02
      0.450000E-01      0.910858E-02
      0.500000E-01      0.834070E-02
      0.550000E-01      0.757873E-02
      0.600000E-01      0.683816E-02
      0.650000E-01      0.613225E-02
      0.700000E-01      0.547166E-02
      0.750000E-01      0.486431E-02
      0.800000E-01      0.431530E-02
      0.850000E-01      0.382704E-02
      0.900000E-01      0.339946E-02
      0.950000E-01      0.303036E-02
      0.100000          0.271580E-02
      0.105000          0.245053E-02
      0.110000          0.222847E-02
      0.115000          0.204311E-02
      0.120000          0.188795E-02
      0.125000          0.175678E-02
      0.130000          0.164399E-02
      0.135000          0.154474E-02
      0.140000          0.145504E-02
      0.145000          0.137180E-02
      0.150000          0.129282E-02
      0.155000          0.121667E-02
      0.160000          0.114259E-02
      0.165000          0.107034E-02
      0.170000          0.100005E-02
      0.175000          0.932099E-03
      0.180000          0.866961E-03
      0.185000          0.805118E-03
      0.190000          0.746975E-03
      0.195000          0.692815E-03
      0.200000          0.642772E-03
      0.205000          0.596833E-03
      0.210000          0.554854E-03
      0.215000          0.516590E-03
      0.220000          0.481727E-03
      0.225000          0.449920E-03
      0.230000          0.420828E-03
      0.235000          0.394133E-03
      0.240000          0.369567E-03
      0.245000          0.346913E-03
      0.250000          0.326010E-03
      0.255000          0.306744E-03
      0.260000          0.289039E-03
      0.265000          0.272842E-03
      0.270000          0.258109E-03
      0.275000          0.244794E-03
      0.280000          0.232835E-03
      0.285000          0.222153E-03
      0.290000          0.212647E-03
      0.295000          0.204200E-03
      0.300000          0.196677E-03
      0.305000          0.189941E-03
      0.310000          0.183854E-03
      0.315000          0.178287E-03
      0.320000          0.173131E-03
      0.325000          0.168292E-03
      0.330000          0.163704E-03
      0.335000          0.159320E-03
      0.340000          0.155116E-03
      0.345000          0.151082E-03
      0.350000          0.147220E-03
      0.355000          0.143535E-03
      0.360000          0.140034E-03
      0.365000          0.136717E-03
      0.370000          0.133579E-03
      0.375000          0.130602E-03
      0.380000          0.127764E-03
      0.385000          0.125030E-03
      0.390000          0.122364E-03
      0.395000          0.119728E-03
      0.400000          0.117086E-03
      0.405000          0.114411E-03
      0.410000          0.111679E-03
      0.415000          0.108882E-03
      0.420000          0.106020E-03
      0.425000          0.103104E-03
      0.430000          0.100154E-03
      0.435000          0.971956E-04
      0.440000          0.942586E-04
      0.445000          0.913728E-04
      0.450000          0.885653E-04
      0.455000          0.858585E-04
      0.460000          0.832687E-04
      0.465000          0.808048E-04
      0.470000          0.784693E-04
      0.475000          0.762591E-04
      0.480000          0.741671E-04
      0.485000          0.721849E-04
      0.490000          0.703043E-04
      0.495000          0.685202E-04
      0.500000          0.668319E-04
