 I_abs(s)[cm^-1]/c[mg/ml]
       0.00000          0.141821E-01
      0.500000E-02      0.141099E-01
      0.100000E-01      0.138962E-01
      0.150000E-01      0.135492E-01
      0.200000E-01      0.130820E-01
      0.250000E-01      0.125117E-01
      0.300000E-01      0.118582E-01
      0.350000E-01      0.111430E-01
      0.400000E-01      0.103881E-01
      0.450000E-01      0.961433E-02
      0.500000E-01      0.884081E-02
      0.550000E-01      0.808391E-02
      0.600000E-01      0.735680E-02
      0.650000E-01      0.666928E-02
      0.700000E-01      0.602780E-02
      0.750000E-01      0.543579E-02
      0.800000E-01      0.489410E-02
      0.850000E-01      0.440160E-02
      0.900000E-01      0.395576E-02
      0.950000E-01      0.355321E-02
      0.100000          0.319023E-02
      0.105000          0.286312E-02
      0.110000          0.256848E-02
      0.115000          0.230329E-02
      0.120000          0.206498E-02
      0.125000          0.185138E-02
      0.130000          0.166059E-02
      0.135000          0.149095E-02
      0.140000          0.134084E-02
      0.145000          0.120869E-02
      0.150000          0.109290E-02
      0.155000          0.991838E-03
      0.160000          0.903863E-03
      0.165000          0.827367E-03
      0.170000          0.760824E-03
      0.175000          0.702832E-03
      0.180000          0.652144E-03
      0.185000          0.607685E-03
      0.190000          0.568545E-03
      0.195000          0.533964E-03
      0.200000          0.503300E-03
      0.205000          0.475995E-03
      0.210000          0.451549E-03
      0.215000          0.429492E-03
      0.220000          0.409374E-03
      0.225000          0.390766E-03
      0.230000          0.373265E-03
      0.235000          0.356514E-03
      0.240000          0.340219E-03
      0.245000          0.324165E-03
      0.250000          0.308229E-03
      0.255000          0.292387E-03
      0.260000          0.276699E-03
      0.265000          0.261305E-03
      0.270000          0.246396E-03
      0.275000          0.232191E-03
      0.280000          0.218906E-03
      0.285000          0.206734E-03
      0.290000          0.195817E-03
      0.295000          0.186238E-03
      0.300000          0.178007E-03
      0.305000          0.171068E-03
      0.310000          0.165302E-03
      0.315000          0.160543E-03
      0.320000          0.156591E-03
      0.325000          0.153235E-03
      0.330000          0.150264E-03
      0.335000          0.147489E-03
      0.340000          0.144750E-03
      0.345000          0.141928E-03
      0.350000          0.138948E-03
      0.355000          0.135774E-03
      0.360000          0.132414E-03
      0.365000          0.128905E-03
      0.370000          0.125308E-03
      0.375000          0.121700E-03
      0.380000          0.118159E-03
      0.385000          0.114764E-03
      0.390000          0.111579E-03
      0.395000          0.108655E-03
      0.400000          0.106024E-03
      0.405000          0.103701E-03
      0.410000          0.101682E-03
      0.415000          0.999493E-04
      0.420000          0.984750E-04
      0.425000          0.972243E-04
      0.430000          0.961603E-04
      0.435000          0.952469E-04
      0.440000          0.944517E-04
      0.445000          0.937475E-04
      0.450000          0.931131E-04
      0.455000          0.925330E-04
      0.460000          0.919966E-04
      0.465000          0.914970E-04
      0.470000          0.910298E-04
      0.475000          0.905914E-04
      0.480000          0.901779E-04
      0.485000          0.897846E-04
      0.490000          0.894049E-04
      0.495000          0.890305E-04
      0.500000          0.886512E-04
