 I_abs(s)[cm^-1]/c[mg/ml]
       0.00000          0.147755E-01
      0.500000E-02      0.147292E-01
      0.100000E-01      0.145912E-01
      0.150000E-01      0.143639E-01
      0.200000E-01      0.140510E-01
      0.250000E-01      0.136581E-01
      0.300000E-01      0.131915E-01
      0.350000E-01      0.126592E-01
      0.400000E-01      0.120696E-01
      0.450000E-01      0.114321E-01
      0.500000E-01      0.107566E-01
      0.550000E-01      0.100532E-01
      0.600000E-01      0.933184E-02
      0.650000E-01      0.860252E-02
      0.700000E-01      0.787470E-02
      0.750000E-01      0.715728E-02
      0.800000E-01      0.645838E-02
      0.850000E-01      0.578523E-02
      0.900000E-01      0.514406E-02
      0.950000E-01      0.454003E-02
      0.100000          0.397718E-02
      0.105000          0.345843E-02
      0.110000          0.298563E-02
      0.115000          0.255957E-02
      0.120000          0.218007E-02
      0.125000          0.184609E-02
      0.130000          0.155584E-02
      0.135000          0.130688E-02
      0.140000          0.109628E-02
      0.145000          0.920718E-03
      0.150000          0.776651E-03
      0.155000          0.660399E-03
      0.160000          0.568271E-03
      0.165000          0.496666E-03
      0.170000          0.442153E-03
      0.175000          0.401543E-03
      0.180000          0.371941E-03
      0.185000          0.350778E-03
      0.190000          0.335837E-03
      0.195000          0.325254E-03
      0.200000          0.317513E-03
      0.205000          0.311426E-03
      0.210000          0.306110E-03
      0.215000          0.300948E-03
      0.220000          0.295553E-03
      0.225000          0.289730E-03
      0.230000          0.283432E-03
      0.235000          0.276723E-03
      0.240000          0.269739E-03
      0.245000          0.262659E-03
      0.250000          0.255675E-03
      0.255000          0.248970E-03
      0.260000          0.242699E-03
      0.265000          0.236982E-03
      0.270000          0.231894E-03
      0.275000          0.227462E-03
      0.280000          0.223671E-03
      0.285000          0.220462E-03
      0.290000          0.217745E-03
      0.295000          0.215406E-03
      0.300000          0.213313E-03
      0.305000          0.211332E-03
      0.310000          0.209327E-03
      0.315000          0.207177E-03
      0.320000          0.204776E-03
      0.325000          0.202039E-03
      0.330000          0.198909E-03
      0.335000          0.195354E-03
      0.340000          0.191369E-03
      0.345000          0.186972E-03
      0.350000          0.182207E-03
      0.355000          0.177134E-03
      0.360000          0.171826E-03
      0.365000          0.166369E-03
      0.370000          0.160850E-03
      0.375000          0.155357E-03
      0.380000          0.149974E-03
      0.385000          0.144778E-03
      0.390000          0.139832E-03
      0.395000          0.135188E-03
      0.400000          0.130883E-03
      0.405000          0.126940E-03
      0.410000          0.123364E-03
      0.415000          0.120149E-03
      0.420000          0.117277E-03
      0.425000          0.114716E-03
      0.430000          0.112429E-03
      0.435000          0.110372E-03
      0.440000          0.108498E-03
      0.445000          0.106759E-03
      0.450000          0.105108E-03
      0.455000          0.103503E-03
      0.460000          0.101906E-03
      0.465000          0.100286E-03
      0.470000          0.986194E-04
      0.475000          0.968903E-04
      0.480000          0.950912E-04
      0.485000          0.932225E-04
      0.490000          0.912918E-04
      0.495000          0.893129E-04
      0.500000          0.873052E-04
