 I_abs(s)[cm^-1]/c[mg/ml]
       0.00000          0.140025E-01
      0.500000E-02      0.139353E-01
      0.100000E-01      0.137358E-01
      0.150000E-01      0.134107E-01
      0.200000E-01      0.129704E-01
      0.250000E-01      0.124291E-01
      0.300000E-01      0.118034E-01
      0.350000E-01      0.111122E-01
      0.400000E-01      0.103750E-01
      0.450000E-01      0.961156E-02
      0.500000E-01      0.884095E-02
      0.550000E-01      0.808054E-02
      0.600000E-01      0.734553E-02
      0.650000E-01      0.664841E-02
      0.700000E-01      0.599869E-02
      0.750000E-01      0.540275E-02
      0.800000E-01      0.486397E-02
      0.850000E-01      0.438290E-02
      0.900000E-01      0.395771E-02
      0.950000E-01      0.358458E-02
      0.100000          0.325828E-02
      0.105000          0.297270E-02
      0.110000          0.272136E-02
      0.115000          0.249789E-02
      0.120000          0.229646E-02
      0.125000          0.211199E-02
      0.130000          0.194041E-02
      0.135000          0.177875E-02
      0.140000          0.162506E-02
      0.145000          0.147839E-02
      0.150000          0.133856E-02
      0.155000          0.120603E-02
      0.160000          0.108163E-02
      0.165000          0.966351E-03
      0.170000          0.861169E-03
      0.175000          0.766853E-03
      0.180000          0.683861E-03
      0.185000          0.612270E-03
      0.190000          0.551746E-03
      0.195000          0.501573E-03
      0.200000          0.460711E-03
      0.205000          0.427874E-03
      0.210000          0.401639E-03
      0.215000          0.380542E-03
      0.220000          0.363180E-03
      0.225000          0.348294E-03
      0.230000          0.334828E-03
      0.235000          0.321976E-03
      0.240000          0.309187E-03
      0.245000          0.296166E-03
      0.250000          0.282839E-03
      0.255000          0.269313E-03
      0.260000          0.255821E-03
      0.265000          0.242670E-03
      0.270000          0.230185E-03
      0.275000          0.218662E-03
      0.280000          0.208333E-03
      0.285000          0.199338E-03
      0.290000          0.191717E-03
      0.295000          0.185411E-03
      0.300000          0.180271E-03
      0.305000          0.176081E-03
      0.310000          0.172584E-03
      0.315000          0.169510E-03
      0.320000          0.166603E-03
      0.325000          0.163644E-03
      0.330000          0.160469E-03
      0.335000          0.156985E-03
      0.340000          0.153165E-03
      0.345000          0.149052E-03
      0.350000          0.144748E-03
      0.355000          0.140394E-03
      0.360000          0.136157E-03
      0.365000          0.132208E-03
      0.370000          0.128704E-03
      0.375000          0.125769E-03
      0.380000          0.123485E-03
      0.385000          0.121883E-03
      0.390000          0.120935E-03
      0.395000          0.120565E-03
      0.400000          0.120648E-03
      0.405000          0.121027E-03
      0.410000          0.121522E-03
      0.415000          0.121947E-03
      0.420000          0.122126E-03
      0.425000          0.121905E-03
      0.430000          0.121165E-03
      0.435000          0.119828E-03
      0.440000          0.117863E-03
      0.445000          0.115286E-03
      0.450000          0.112158E-03
      0.455000          0.108575E-03
      0.460000          0.104663E-03
      0.465000          0.100566E-03
      0.470000          0.964329E-04
      0.475000          0.924064E-04
      0.480000          0.886151E-04
      0.485000          0.851636E-04
      0.490000          0.821274E-04
      0.495000          0.795493E-04
      0.500000          0.774397E-04
