 I_abs(s)[cm^-1]/c[mg/ml]
       0.00000          0.135166E-01
      0.500000E-02      0.134346E-01
      0.100000E-01      0.131924E-01
      0.150000E-01      0.128004E-01
      0.200000E-01      0.122752E-01
      0.250000E-01      0.116384E-01
      0.300000E-01      0.109153E-01
      0.350000E-01      0.101332E-01
      0.400000E-01      0.931980E-02
      0.450000E-01      0.850141E-02
      0.500000E-01      0.770173E-02
      0.550000E-01      0.694067E-02
      0.600000E-01      0.623363E-02
      0.650000E-01      0.559111E-02
      0.700000E-01      0.501874E-02
      0.750000E-01      0.451767E-02
      0.800000E-01      0.408521E-02
      0.850000E-01      0.371564E-02
      0.900000E-01      0.340119E-02
      0.950000E-01      0.313299E-02
      0.100000          0.290191E-02
      0.105000          0.269935E-02
      0.110000          0.251774E-02
      0.115000          0.235092E-02
      0.120000          0.219430E-02
      0.125000          0.204482E-02
      0.130000          0.190078E-02
      0.135000          0.176156E-02
      0.140000          0.162736E-02
      0.145000          0.149881E-02
      0.150000          0.137673E-02
      0.155000          0.126189E-02
      0.160000          0.115484E-02
      0.165000          0.105585E-02
      0.170000          0.964886E-03
      0.175000          0.881625E-03
      0.180000          0.805568E-03
      0.185000          0.736109E-03
      0.190000          0.672625E-03
      0.195000          0.614549E-03
      0.200000          0.561421E-03
      0.205000          0.512902E-03
      0.210000          0.468773E-03
      0.215000          0.428907E-03
      0.220000          0.393228E-03
      0.225000          0.361672E-03
      0.230000          0.334139E-03
      0.235000          0.310473E-03
      0.240000          0.290435E-03
      0.245000          0.273710E-03
      0.250000          0.259912E-03
      0.255000          0.248611E-03
      0.260000          0.239355E-03
      0.265000          0.231704E-03
      0.270000          0.225254E-03
      0.275000          0.219654E-03
      0.280000          0.214625E-03
      0.285000          0.209955E-03
      0.290000          0.205501E-03
      0.295000          0.201176E-03
      0.300000          0.196934E-03
      0.305000          0.192760E-03
      0.310000          0.188649E-03
      0.315000          0.184600E-03
      0.320000          0.180606E-03
      0.325000          0.176654E-03
      0.330000          0.172719E-03
      0.335000          0.168776E-03
      0.340000          0.164796E-03
      0.345000          0.160758E-03
      0.350000          0.156648E-03
      0.355000          0.152470E-03
      0.360000          0.148238E-03
      0.365000          0.143984E-03
      0.370000          0.139750E-03
      0.375000          0.135587E-03
      0.380000          0.131550E-03
      0.385000          0.127691E-03
      0.390000          0.124057E-03
      0.395000          0.120686E-03
      0.400000          0.117600E-03
      0.405000          0.114809E-03
      0.410000          0.112306E-03
      0.415000          0.110071E-03
      0.420000          0.108070E-03
      0.425000          0.106259E-03
      0.430000          0.104587E-03
      0.435000          0.103000E-03
      0.440000          0.101446E-03
      0.445000          0.998747E-04
      0.450000          0.982446E-04
      0.455000          0.965238E-04
      0.460000          0.946921E-04
      0.465000          0.927420E-04
      0.470000          0.906786E-04
      0.475000          0.885182E-04
      0.480000          0.862871E-04
      0.485000          0.840190E-04
      0.490000          0.817519E-04
      0.495000          0.795256E-04
      0.500000          0.773787E-04
