 I_abs(s)[cm^-1]/c[mg/ml]
       0.00000          0.143313E-01
      0.500000E-02      0.142809E-01
      0.100000E-01      0.141308E-01
      0.150000E-01      0.138841E-01
      0.200000E-01      0.135460E-01
      0.250000E-01      0.131232E-01
      0.300000E-01      0.126243E-01
      0.350000E-01      0.120591E-01
      0.400000E-01      0.114383E-01
      0.450000E-01      0.107736E-01
      0.500000E-01      0.100766E-01
      0.550000E-01      0.935928E-02
      0.600000E-01      0.863319E-02
      0.650000E-01      0.790926E-02
      0.700000E-01      0.719761E-02
      0.750000E-01      0.650727E-02
      0.800000E-01      0.584606E-02
      0.850000E-01      0.522044E-02
      0.900000E-01      0.463547E-02
      0.950000E-01      0.409484E-02
      0.100000          0.360081E-02
      0.105000          0.315440E-02
      0.110000          0.275542E-02
      0.115000          0.240267E-02
      0.120000          0.209406E-02
      0.125000          0.182682E-02
      0.130000          0.159763E-02
      0.135000          0.140284E-02
      0.140000          0.123858E-02
      0.145000          0.110096E-02
      0.150000          0.986154E-03
      0.155000          0.890516E-03
      0.160000          0.810680E-03
      0.165000          0.743602E-03
      0.170000          0.686606E-03
      0.175000          0.637403E-03
      0.180000          0.594090E-03
      0.185000          0.555138E-03
      0.190000          0.519367E-03
      0.195000          0.485909E-03
      0.200000          0.454174E-03
      0.205000          0.423799E-03
      0.210000          0.394612E-03
      0.215000          0.366583E-03
      0.220000          0.339785E-03
      0.225000          0.314359E-03
      0.230000          0.290480E-03
      0.235000          0.268334E-03
      0.240000          0.248089E-03
      0.245000          0.229887E-03
      0.250000          0.213825E-03
      0.255000          0.199952E-03
      0.260000          0.188266E-03
      0.265000          0.178708E-03
      0.270000          0.171175E-03
      0.275000          0.165515E-03
      0.280000          0.161544E-03
      0.285000          0.159044E-03
      0.290000          0.157781E-03
      0.295000          0.157507E-03
      0.300000          0.157977E-03
      0.305000          0.158947E-03
      0.310000          0.160192E-03
      0.315000          0.161504E-03
      0.320000          0.162706E-03
      0.325000          0.163644E-03
      0.330000          0.164202E-03
      0.335000          0.164293E-03
      0.340000          0.163863E-03
      0.345000          0.162888E-03
      0.350000          0.161371E-03
      0.355000          0.159337E-03
      0.360000          0.156831E-03
      0.365000          0.153913E-03
      0.370000          0.150649E-03
      0.375000          0.147113E-03
      0.380000          0.143376E-03
      0.385000          0.139510E-03
      0.390000          0.135578E-03
      0.395000          0.131635E-03
      0.400000          0.127729E-03
      0.405000          0.123896E-03
      0.410000          0.120165E-03
      0.415000          0.116555E-03
      0.420000          0.113079E-03
      0.425000          0.109744E-03
      0.430000          0.106552E-03
      0.435000          0.103506E-03
      0.440000          0.100607E-03
      0.445000          0.978556E-04
      0.450000          0.952569E-04
      0.455000          0.928168E-04
      0.460000          0.905438E-04
      0.465000          0.884488E-04
      0.470000          0.865440E-04
      0.475000          0.848423E-04
      0.480000          0.833564E-04
      0.485000          0.820971E-04
      0.490000          0.810727E-04
      0.495000          0.802876E-04
      0.500000          0.797417E-04
