 I_abs(s)[cm^-1]/c[mg/ml]
       0.00000          0.140337E-01
      0.500000E-02      0.139771E-01
      0.100000E-01      0.138089E-01
      0.150000E-01      0.135332E-01
      0.200000E-01      0.131568E-01
      0.250000E-01      0.126887E-01
      0.300000E-01      0.121401E-01
      0.350000E-01      0.115236E-01
      0.400000E-01      0.108532E-01
      0.450000E-01      0.101434E-01
      0.500000E-01      0.940873E-02
      0.550000E-01      0.866359E-02
      0.600000E-01      0.792153E-02
      0.650000E-01      0.719495E-02
      0.700000E-01      0.649478E-02
      0.750000E-01      0.583022E-02
      0.800000E-01      0.520855E-02
      0.850000E-01      0.463513E-02
      0.900000E-01      0.411333E-02
      0.950000E-01      0.364466E-02
      0.100000          0.322891E-02
      0.105000          0.286436E-02
      0.110000          0.254807E-02
      0.115000          0.227607E-02
      0.120000          0.204375E-02
      0.125000          0.184607E-02
      0.130000          0.167787E-02
      0.135000          0.153407E-02
      0.140000          0.140992E-02
      0.145000          0.130113E-02
      0.150000          0.120398E-02
      0.155000          0.111542E-02
      0.160000          0.103303E-02
      0.165000          0.955084E-03
      0.170000          0.880448E-03
      0.175000          0.808523E-03
      0.180000          0.739149E-03
      0.185000          0.672507E-03
      0.190000          0.609006E-03
      0.195000          0.549188E-03
      0.200000          0.493632E-03
      0.205000          0.442876E-03
      0.210000          0.397356E-03
      0.215000          0.357362E-03
      0.220000          0.323013E-03
      0.225000          0.294246E-03
      0.230000          0.270828E-03
      0.235000          0.252369E-03
      0.240000          0.238353E-03
      0.245000          0.228172E-03
      0.250000          0.221164E-03
      0.255000          0.216648E-03
      0.260000          0.213959E-03
      0.265000          0.212476E-03
      0.270000          0.211647E-03
      0.275000          0.211004E-03
      0.280000          0.210174E-03
      0.285000          0.208881E-03
      0.290000          0.206944E-03
      0.295000          0.204269E-03
      0.300000          0.200836E-03
      0.305000          0.196688E-03
      0.310000          0.191917E-03
      0.315000          0.186644E-03
      0.320000          0.181010E-03
      0.325000          0.175161E-03
      0.330000          0.169241E-03
      0.335000          0.163378E-03
      0.340000          0.157685E-03
      0.345000          0.152252E-03
      0.350000          0.147148E-03
      0.355000          0.142418E-03
      0.360000          0.138089E-03
      0.365000          0.134170E-03
      0.370000          0.130652E-03
      0.375000          0.127518E-03
      0.380000          0.124740E-03
      0.385000          0.122287E-03
      0.390000          0.120122E-03
      0.395000          0.118209E-03
      0.400000          0.116509E-03
      0.405000          0.114988E-03
      0.410000          0.113610E-03
      0.415000          0.112347E-03
      0.420000          0.111168E-03
      0.425000          0.110050E-03
      0.430000          0.108971E-03
      0.435000          0.107913E-03
      0.440000          0.106862E-03
      0.445000          0.105809E-03
      0.450000          0.104748E-03
      0.455000          0.103676E-03
      0.460000          0.102595E-03
      0.465000          0.101512E-03
      0.470000          0.100433E-03
      0.475000          0.993691E-04
      0.480000          0.983328E-04
      0.485000          0.973363E-04
      0.490000          0.963915E-04
      0.495000          0.955089E-04
      0.500000          0.946964E-04
