 I_abs(s)[cm^-1]/c[mg/ml]
       0.00000          0.146479E-01
      0.500000E-02      0.146043E-01
      0.100000E-01      0.144742E-01
      0.150000E-01      0.142600E-01
      0.200000E-01      0.139655E-01
      0.250000E-01      0.135960E-01
      0.300000E-01      0.131579E-01
      0.350000E-01      0.126587E-01
      0.400000E-01      0.121067E-01
      0.450000E-01      0.115108E-01
      0.500000E-01      0.108805E-01
      0.550000E-01      0.102250E-01
      0.600000E-01      0.955373E-02
      0.650000E-01      0.887573E-02
      0.700000E-01      0.819950E-02
      0.750000E-01      0.753287E-02
      0.800000E-01      0.688286E-02
      0.850000E-01      0.625559E-02
      0.900000E-01      0.565618E-02
      0.950000E-01      0.508875E-02
      0.100000          0.455640E-02
      0.105000          0.406126E-02
      0.110000          0.360452E-02
      0.115000          0.318655E-02
      0.120000          0.280695E-02
      0.125000          0.246469E-02
      0.130000          0.215821E-02
      0.135000          0.188555E-02
      0.140000          0.164444E-02
      0.145000          0.143241E-02
      0.150000          0.124690E-02
      0.155000          0.108533E-02
      0.160000          0.945177E-03
      0.165000          0.824018E-03
      0.170000          0.719585E-03
      0.175000          0.629788E-03
      0.180000          0.552733E-03
      0.185000          0.486722E-03
      0.190000          0.430259E-03
      0.195000          0.382034E-03
      0.200000          0.340914E-03
      0.205000          0.305919E-03
      0.210000          0.276210E-03
      0.215000          0.251067E-03
      0.220000          0.229871E-03
      0.225000          0.212086E-03
      0.230000          0.197249E-03
      0.235000          0.184953E-03
      0.240000          0.174840E-03
      0.245000          0.166592E-03
      0.250000          0.159924E-03
      0.255000          0.154584E-03
      0.260000          0.150344E-03
      0.265000          0.147002E-03
      0.270000          0.144379E-03
      0.275000          0.142316E-03
      0.280000          0.140677E-03
      0.285000          0.139343E-03
      0.290000          0.138211E-03
      0.295000          0.137197E-03
      0.300000          0.136229E-03
      0.305000          0.135250E-03
      0.310000          0.134215E-03
      0.315000          0.133087E-03
      0.320000          0.131841E-03
      0.325000          0.130459E-03
      0.330000          0.128932E-03
      0.335000          0.127256E-03
      0.340000          0.125437E-03
      0.345000          0.123484E-03
      0.350000          0.121413E-03
      0.355000          0.119244E-03
      0.360000          0.117004E-03
      0.365000          0.114720E-03
      0.370000          0.112424E-03
      0.375000          0.110149E-03
      0.380000          0.107928E-03
      0.385000          0.105791E-03
      0.390000          0.103769E-03
      0.395000          0.101886E-03
      0.400000          0.100163E-03
      0.405000          0.986149E-04
      0.410000          0.972504E-04
      0.415000          0.960720E-04
      0.420000          0.950755E-04
      0.425000          0.942514E-04
      0.430000          0.935847E-04
      0.435000          0.930566E-04
      0.440000          0.926454E-04
      0.445000          0.923281E-04
      0.450000          0.920813E-04
      0.455000          0.918832E-04
      0.460000          0.917141E-04
      0.465000          0.915579E-04
      0.470000          0.914024E-04
      0.475000          0.912396E-04
      0.480000          0.910663E-04
      0.485000          0.908829E-04
      0.490000          0.906938E-04
      0.495000          0.905056E-04
      0.500000          0.903268E-04
