 I_abs(s)[cm^-1]/c[mg/ml]
       0.00000          0.148235E-01
      0.500000E-02      0.147794E-01
      0.100000E-01      0.146477E-01
      0.150000E-01      0.144308E-01
      0.200000E-01      0.141326E-01
      0.250000E-01      0.137582E-01
      0.300000E-01      0.133140E-01
      0.350000E-01      0.128076E-01
      0.400000E-01      0.122473E-01
      0.450000E-01      0.116419E-01
      0.500000E-01      0.110009E-01
      0.550000E-01      0.103336E-01
      0.600000E-01      0.964954E-02
      0.650000E-01      0.895780E-02
      0.700000E-01      0.826702E-02
      0.750000E-01      0.758520E-02
      0.800000E-01      0.691955E-02
      0.850000E-01      0.627637E-02
      0.900000E-01      0.566102E-02
      0.950000E-01      0.507785E-02
      0.100000          0.453021E-02
      0.105000          0.402046E-02
      0.110000          0.355003E-02
      0.115000          0.311948E-02
      0.120000          0.272861E-02
      0.125000          0.237655E-02
      0.130000          0.206187E-02
      0.135000          0.178267E-02
      0.140000          0.153673E-02
      0.145000          0.132160E-02
      0.150000          0.113468E-02
      0.155000          0.973313E-03
      0.160000          0.834877E-03
      0.165000          0.716823E-03
      0.170000          0.616731E-03
      0.175000          0.532345E-03
      0.180000          0.461594E-03
      0.185000          0.402604E-03
      0.190000          0.353700E-03
      0.195000          0.313404E-03
      0.200000          0.280420E-03
      0.205000          0.253626E-03
      0.210000          0.232049E-03
      0.215000          0.214857E-03
      0.220000          0.201331E-03
      0.225000          0.190859E-03
      0.230000          0.182908E-03
      0.235000          0.177024E-03
      0.240000          0.172809E-03
      0.245000          0.169919E-03
      0.250000          0.168054E-03
      0.255000          0.166955E-03
      0.260000          0.166395E-03
      0.265000          0.166181E-03
      0.270000          0.166148E-03
      0.275000          0.166162E-03
      0.280000          0.166113E-03
      0.285000          0.165915E-03
      0.290000          0.165506E-03
      0.295000          0.164847E-03
      0.300000          0.163914E-03
      0.305000          0.162701E-03
      0.310000          0.161217E-03
      0.315000          0.159478E-03
      0.320000          0.157512E-03
      0.325000          0.155351E-03
      0.330000          0.153030E-03
      0.335000          0.150586E-03
      0.340000          0.148054E-03
      0.345000          0.145469E-03
      0.350000          0.142861E-03
      0.355000          0.140257E-03
      0.360000          0.137679E-03
      0.365000          0.135147E-03
      0.370000          0.132673E-03
      0.375000          0.130268E-03
      0.380000          0.127939E-03
      0.385000          0.125688E-03
      0.390000          0.123515E-03
      0.395000          0.121418E-03
      0.400000          0.119391E-03
      0.405000          0.117429E-03
      0.410000          0.115524E-03
      0.415000          0.113665E-03
      0.420000          0.111844E-03
      0.425000          0.110049E-03
      0.430000          0.108269E-03
      0.435000          0.106494E-03
      0.440000          0.104713E-03
      0.445000          0.102916E-03
      0.450000          0.101097E-03
      0.455000          0.992470E-04
      0.460000          0.973633E-04
      0.465000          0.954441E-04
      0.470000          0.934904E-04
      0.475000          0.915066E-04
      0.480000          0.895000E-04
      0.485000          0.874810E-04
      0.490000          0.854627E-04
      0.495000          0.834608E-04
      0.500000          0.814931E-04
