 I_abs(s)[cm^-1]/c[mg/ml]
       0.00000          0.135242E-01
      0.500000E-02      0.134433E-01
      0.100000E-01      0.132040E-01
      0.150000E-01      0.128161E-01
      0.200000E-01      0.122953E-01
      0.250000E-01      0.116621E-01
      0.300000E-01      0.109407E-01
      0.350000E-01      0.101577E-01
      0.400000E-01      0.934006E-02
      0.450000E-01      0.851414E-02
      0.500000E-01      0.770408E-02
      0.550000E-01      0.693073E-02
      0.600000E-01      0.621080E-02
      0.650000E-01      0.555633E-02
      0.700000E-01      0.497452E-02
      0.750000E-01      0.446792E-02
      0.800000E-01      0.403486E-02
      0.850000E-01      0.367017E-02
      0.900000E-01      0.336603E-02
      0.950000E-01      0.311291E-02
      0.100000          0.290050E-02
      0.105000          0.271860E-02
      0.110000          0.255782E-02
      0.115000          0.241020E-02
      0.120000          0.226951E-02
      0.125000          0.213144E-02
      0.130000          0.199355E-02
      0.135000          0.185511E-02
      0.140000          0.171676E-02
      0.145000          0.158011E-02
      0.150000          0.144737E-02
      0.155000          0.132091E-02
      0.160000          0.120290E-02
      0.165000          0.109510E-02
      0.170000          0.998623E-03
      0.175000          0.913884E-03
      0.180000          0.840609E-03
      0.185000          0.777915E-03
      0.190000          0.724464E-03
      0.195000          0.678628E-03
      0.200000          0.638681E-03
      0.205000          0.602962E-03
      0.210000          0.570022E-03
      0.215000          0.538718E-03
      0.220000          0.508266E-03
      0.225000          0.478250E-03
      0.230000          0.448587E-03
      0.235000          0.419460E-03
      0.240000          0.391237E-03
      0.245000          0.364376E-03
      0.250000          0.339339E-03
      0.255000          0.316521E-03
      0.260000          0.296189E-03
      0.265000          0.278458E-03
      0.270000          0.263277E-03
      0.275000          0.250451E-03
      0.280000          0.239664E-03
      0.285000          0.230522E-03
      0.290000          0.222601E-03
      0.295000          0.215486E-03
      0.300000          0.208814E-03
      0.305000          0.202294E-03
      0.310000          0.195729E-03
      0.315000          0.189015E-03
      0.320000          0.182135E-03
      0.325000          0.175143E-03
      0.330000          0.168145E-03
      0.335000          0.161270E-03
      0.340000          0.154655E-03
      0.345000          0.148420E-03
      0.350000          0.142655E-03
      0.355000          0.137415E-03
      0.360000          0.132713E-03
      0.365000          0.128529E-03
      0.370000          0.124812E-03
      0.375000          0.121492E-03
      0.380000          0.118491E-03
      0.385000          0.115731E-03
      0.390000          0.113147E-03
      0.395000          0.110684E-03
      0.400000          0.108310E-03
      0.405000          0.106008E-03
      0.410000          0.103775E-03
      0.415000          0.101622E-03
      0.420000          0.995623E-04
      0.425000          0.976114E-04
      0.430000          0.957801E-04
      0.435000          0.940718E-04
      0.440000          0.924807E-04
      0.445000          0.909917E-04
      0.450000          0.895822E-04
      0.455000          0.882240E-04
      0.460000          0.868874E-04
      0.465000          0.855439E-04
      0.470000          0.841702E-04
      0.475000          0.827501E-04
      0.480000          0.812765E-04
      0.485000          0.797515E-04
      0.490000          0.781856E-04
      0.495000          0.765968E-04
      0.500000          0.750072E-04
