 I_abs(s)[cm^-1]/c[mg/ml]
       0.00000          0.137932E-01
      0.500000E-02      0.137306E-01
      0.100000E-01      0.135447E-01
      0.150000E-01      0.132409E-01
      0.200000E-01      0.128281E-01
      0.250000E-01      0.123178E-01
      0.300000E-01      0.117242E-01
      0.350000E-01      0.110634E-01
      0.400000E-01      0.103523E-01
      0.450000E-01      0.960846E-02
      0.500000E-01      0.884905E-02
      0.550000E-01      0.809038E-02
      0.600000E-01      0.734723E-02
      0.650000E-01      0.663246E-02
      0.700000E-01      0.595668E-02
      0.750000E-01      0.532801E-02
      0.800000E-01      0.475203E-02
      0.850000E-01      0.423186E-02
      0.900000E-01      0.376833E-02
      0.950000E-01      0.336024E-02
      0.100000          0.300469E-02
      0.105000          0.269750E-02
      0.110000          0.243357E-02
      0.115000          0.220729E-02
      0.120000          0.201290E-02
      0.125000          0.184482E-02
      0.130000          0.169787E-02
      0.135000          0.156752E-02
      0.140000          0.144994E-02
      0.145000          0.134208E-02
      0.150000          0.124170E-02
      0.155000          0.114723E-02
      0.160000          0.105777E-02
      0.165000          0.972897E-03
      0.170000          0.892557E-03
      0.175000          0.816945E-03
      0.180000          0.746372E-03
      0.185000          0.681165E-03
      0.190000          0.621584E-03
      0.195000          0.567769E-03
      0.200000          0.519710E-03
      0.205000          0.477237E-03
      0.210000          0.440036E-03
      0.215000          0.407671E-03
      0.220000          0.379620E-03
      0.225000          0.355316E-03
      0.230000          0.334184E-03
      0.235000          0.315677E-03
      0.240000          0.299300E-03
      0.245000          0.284631E-03
      0.250000          0.271330E-03
      0.255000          0.259137E-03
      0.260000          0.247869E-03
      0.265000          0.237407E-03
      0.270000          0.227681E-03
      0.275000          0.218653E-03
      0.280000          0.210302E-03
      0.285000          0.202612E-03
      0.290000          0.195560E-03
      0.295000          0.189112E-03
      0.300000          0.183219E-03
      0.305000          0.177817E-03
      0.310000          0.172834E-03
      0.315000          0.168193E-03
      0.320000          0.163818E-03
      0.325000          0.159642E-03
      0.330000          0.155609E-03
      0.335000          0.151682E-03
      0.340000          0.147840E-03
      0.345000          0.144079E-03
      0.350000          0.140411E-03
      0.355000          0.136862E-03
      0.360000          0.133461E-03
      0.365000          0.130241E-03
      0.370000          0.127234E-03
      0.375000          0.124461E-03
      0.380000          0.121936E-03
      0.385000          0.119660E-03
      0.390000          0.117619E-03
      0.395000          0.115792E-03
      0.400000          0.114142E-03
      0.405000          0.112630E-03
      0.410000          0.111211E-03
      0.415000          0.109841E-03
      0.420000          0.108480E-03
      0.425000          0.107094E-03
      0.430000          0.105661E-03
      0.435000          0.104168E-03
      0.440000          0.102615E-03
      0.445000          0.101012E-03
      0.450000          0.993805E-04
      0.455000          0.977494E-04
      0.460000          0.961531E-04
      0.465000          0.946282E-04
      0.470000          0.932108E-04
      0.475000          0.919335E-04
      0.480000          0.908223E-04
      0.485000          0.898952E-04
      0.490000          0.891603E-04
      0.495000          0.886149E-04
      0.500000          0.882461E-04
