 I_abs(s)[cm^-1]/c[mg/ml]
       0.00000          0.144891E-01
      0.500000E-02      0.144471E-01
      0.100000E-01      0.143215E-01
      0.150000E-01      0.141145E-01
      0.200000E-01      0.138295E-01
      0.250000E-01      0.134711E-01
      0.300000E-01      0.130450E-01
      0.350000E-01      0.125579E-01
      0.400000E-01      0.120174E-01
      0.450000E-01      0.114316E-01
      0.500000E-01      0.108090E-01
      0.550000E-01      0.101584E-01
      0.600000E-01      0.948870E-02
      0.650000E-01      0.880850E-02
      0.700000E-01      0.812616E-02
      0.750000E-01      0.744956E-02
      0.800000E-01      0.678592E-02
      0.850000E-01      0.614178E-02
      0.900000E-01      0.552284E-02
      0.950000E-01      0.493391E-02
      0.100000          0.437894E-02
      0.105000          0.386092E-02
      0.110000          0.338198E-02
      0.115000          0.294339E-02
      0.120000          0.254561E-02
      0.125000          0.218837E-02
      0.130000          0.187078E-02
      0.135000          0.159138E-02
      0.140000          0.134824E-02
      0.145000          0.113909E-02
      0.150000          0.961367E-03
      0.155000          0.812342E-03
      0.160000          0.689177E-03
      0.165000          0.589007E-03
      0.170000          0.509004E-03
      0.175000          0.446433E-03
      0.180000          0.398694E-03
      0.185000          0.363357E-03
      0.190000          0.338187E-03
      0.195000          0.321164E-03
      0.200000          0.310483E-03
      0.205000          0.304565E-03
      0.210000          0.302048E-03
      0.215000          0.301782E-03
      0.220000          0.302811E-03
      0.225000          0.304367E-03
      0.230000          0.305847E-03
      0.235000          0.306795E-03
      0.240000          0.306890E-03
      0.245000          0.305923E-03
      0.250000          0.303779E-03
      0.255000          0.300425E-03
      0.260000          0.295891E-03
      0.265000          0.290253E-03
      0.270000          0.283628E-03
      0.275000          0.276153E-03
      0.280000          0.267983E-03
      0.285000          0.259276E-03
      0.290000          0.250189E-03
      0.295000          0.240873E-03
      0.300000          0.231466E-03
      0.305000          0.222090E-03
      0.310000          0.212853E-03
      0.315000          0.203843E-03
      0.320000          0.195130E-03
      0.325000          0.186768E-03
      0.330000          0.178795E-03
      0.335000          0.171234E-03
      0.340000          0.164099E-03
      0.345000          0.157391E-03
      0.350000          0.151106E-03
      0.355000          0.145235E-03
      0.360000          0.139766E-03
      0.365000          0.134683E-03
      0.370000          0.129973E-03
      0.375000          0.125622E-03
      0.380000          0.121617E-03
      0.385000          0.117946E-03
      0.390000          0.114600E-03
      0.395000          0.111570E-03
      0.400000          0.108844E-03
      0.405000          0.106416E-03
      0.410000          0.104272E-03
      0.415000          0.102403E-03
      0.420000          0.100793E-03
      0.425000          0.994251E-04
      0.430000          0.982816E-04
      0.435000          0.973406E-04
      0.440000          0.965785E-04
      0.445000          0.959701E-04
      0.450000          0.954888E-04
      0.455000          0.951077E-04
      0.460000          0.948001E-04
      0.465000          0.945403E-04
      0.470000          0.943041E-04
      0.475000          0.940700E-04
      0.480000          0.938191E-04
      0.485000          0.935356E-04
      0.490000          0.932075E-04
      0.495000          0.928261E-04
      0.500000          0.923865E-04
