 I_abs(s)[cm^-1]/c[mg/ml]
       0.00000          0.138009E-01
      0.500000E-02      0.137365E-01
      0.100000E-01      0.135454E-01
      0.150000E-01      0.132337E-01
      0.200000E-01      0.128113E-01
      0.250000E-01      0.122911E-01
      0.300000E-01      0.116889E-01
      0.350000E-01      0.110222E-01
      0.400000E-01      0.103093E-01
      0.450000E-01      0.956905E-02
      0.500000E-01      0.881932E-02
      0.550000E-01      0.807676E-02
      0.600000E-01      0.735601E-02
      0.650000E-01      0.666929E-02
      0.700000E-01      0.602609E-02
      0.750000E-01      0.543305E-02
      0.800000E-01      0.489400E-02
      0.850000E-01      0.441017E-02
      0.900000E-01      0.398046E-02
      0.950000E-01      0.360190E-02
      0.100000          0.327008E-02
      0.105000          0.297965E-02
      0.110000          0.272477E-02
      0.115000          0.249958E-02
      0.120000          0.229854E-02
      0.125000          0.211670E-02
      0.130000          0.194993E-02
      0.135000          0.179499E-02
      0.140000          0.164957E-02
      0.145000          0.151220E-02
      0.150000          0.138216E-02
      0.155000          0.125931E-02
      0.160000          0.114393E-02
      0.165000          0.103651E-02
      0.170000          0.937593E-03
      0.175000          0.847654E-03
      0.180000          0.766970E-03
      0.185000          0.695562E-03
      0.190000          0.633166E-03
      0.195000          0.579238E-03
      0.200000          0.532993E-03
      0.205000          0.493467E-03
      0.210000          0.459586E-03
      0.215000          0.430250E-03
      0.220000          0.404399E-03
      0.225000          0.381084E-03
      0.230000          0.359509E-03
      0.235000          0.339066E-03
      0.240000          0.319342E-03
      0.245000          0.300114E-03
      0.250000          0.281329E-03
      0.255000          0.263068E-03
      0.260000          0.245506E-03
      0.265000          0.228871E-03
      0.270000          0.213402E-03
      0.275000          0.199315E-03
      0.280000          0.186773E-03
      0.285000          0.175866E-03
      0.290000          0.166608E-03
      0.295000          0.158931E-03
      0.300000          0.152699E-03
      0.305000          0.147718E-03
      0.310000          0.143762E-03
      0.315000          0.140585E-03
      0.320000          0.137947E-03
      0.325000          0.135632E-03
      0.330000          0.133458E-03
      0.335000          0.131289E-03
      0.340000          0.129036E-03
      0.345000          0.126661E-03
      0.350000          0.124168E-03
      0.355000          0.121593E-03
      0.360000          0.118998E-03
      0.365000          0.116456E-03
      0.370000          0.114039E-03
      0.375000          0.111811E-03
      0.380000          0.109817E-03
      0.385000          0.108079E-03
      0.390000          0.106594E-03
      0.395000          0.105334E-03
      0.400000          0.104252E-03
      0.405000          0.103283E-03
      0.410000          0.102353E-03
      0.415000          0.101388E-03
      0.420000          0.100319E-03
      0.425000          0.990899E-04
      0.430000          0.976608E-04
      0.435000          0.960139E-04
      0.440000          0.941533E-04
      0.445000          0.921050E-04
      0.450000          0.899141E-04
      0.455000          0.876411E-04
      0.460000          0.853564E-04
      0.465000          0.831345E-04
      0.470000          0.810484E-04
      0.475000          0.791638E-04
      0.480000          0.775340E-04
      0.485000          0.761971E-04
      0.490000          0.751729E-04
      0.495000          0.744629E-04
      0.500000          0.740507E-04
