 I_abs(s)[cm^-1]/c[mg/ml]
       0.00000          0.145208E-01
      0.500000E-02      0.144643E-01
      0.100000E-01      0.142962E-01
      0.150000E-01      0.140208E-01
      0.200000E-01      0.136451E-01
      0.250000E-01      0.131785E-01
      0.300000E-01      0.126323E-01
      0.350000E-01      0.120196E-01
      0.400000E-01      0.113541E-01
      0.450000E-01      0.106504E-01
      0.500000E-01      0.992293E-02
      0.550000E-01      0.918551E-02
      0.600000E-01      0.845113E-02
      0.650000E-01      0.773139E-02
      0.700000E-01      0.703627E-02
      0.750000E-01      0.637397E-02
      0.800000E-01      0.575073E-02
      0.850000E-01      0.517093E-02
      0.900000E-01      0.463710E-02
      0.950000E-01      0.415009E-02
      0.100000          0.370933E-02
      0.105000          0.331302E-02
      0.110000          0.295844E-02
      0.115000          0.264225E-02
      0.120000          0.236071E-02
      0.125000          0.210999E-02
      0.130000          0.188631E-02
      0.135000          0.168616E-02
      0.140000          0.150640E-02
      0.145000          0.134432E-02
      0.150000          0.119770E-02
      0.155000          0.106478E-02
      0.160000          0.944208E-03
      0.165000          0.835019E-03
      0.170000          0.736517E-03
      0.175000          0.648210E-03
      0.180000          0.569726E-03
      0.185000          0.500740E-03
      0.190000          0.440913E-03
      0.195000          0.389845E-03
      0.200000          0.347048E-03
      0.205000          0.311932E-03
      0.210000          0.283809E-03
      0.215000          0.261909E-03
      0.220000          0.245400E-03
      0.225000          0.233422E-03
      0.230000          0.225117E-03
      0.235000          0.219660E-03
      0.240000          0.216289E-03
      0.245000          0.214324E-03
      0.250000          0.213187E-03
      0.255000          0.212408E-03
      0.260000          0.211628E-03
      0.265000          0.210595E-03
      0.270000          0.209155E-03
      0.275000          0.207237E-03
      0.280000          0.204838E-03
      0.285000          0.202009E-03
      0.290000          0.198831E-03
      0.295000          0.195409E-03
      0.300000          0.191849E-03
      0.305000          0.188252E-03
      0.310000          0.184708E-03
      0.315000          0.181284E-03
      0.320000          0.178026E-03
      0.325000          0.174957E-03
      0.330000          0.172077E-03
      0.335000          0.169371E-03
      0.340000          0.166805E-03
      0.345000          0.164338E-03
      0.350000          0.161921E-03
      0.355000          0.159506E-03
      0.360000          0.157047E-03
      0.365000          0.154505E-03
      0.370000          0.151849E-03
      0.375000          0.149060E-03
      0.380000          0.146132E-03
      0.385000          0.143067E-03
      0.390000          0.139885E-03
      0.395000          0.136610E-03
      0.400000          0.133277E-03
      0.405000          0.129929E-03
      0.410000          0.126608E-03
      0.415000          0.123359E-03
      0.420000          0.120226E-03
      0.425000          0.117246E-03
      0.430000          0.114452E-03
      0.435000          0.111866E-03
      0.440000          0.109504E-03
      0.445000          0.107372E-03
      0.450000          0.105466E-03
      0.455000          0.103774E-03
      0.460000          0.102280E-03
      0.465000          0.100959E-03
      0.470000          0.997863E-04
      0.475000          0.987341E-04
      0.480000          0.977763E-04
      0.485000          0.968891E-04
      0.490000          0.960523E-04
      0.495000          0.952503E-04
      0.500000          0.944721E-04
