 I_abs(s)[cm^-1]/c[mg/ml]
       0.00000          0.139636E-01
      0.500000E-02      0.139020E-01
      0.100000E-01      0.137191E-01
      0.150000E-01      0.134201E-01
      0.200000E-01      0.130139E-01
      0.250000E-01      0.125122E-01
      0.300000E-01      0.119288E-01
      0.350000E-01      0.112794E-01
      0.400000E-01      0.105808E-01
      0.450000E-01      0.984995E-02
      0.500000E-01      0.910336E-02
      0.550000E-01      0.835661E-02
      0.600000E-01      0.762368E-02
      0.650000E-01      0.691661E-02
      0.700000E-01      0.624518E-02
      0.750000E-01      0.561681E-02
      0.800000E-01      0.503654E-02
      0.850000E-01      0.450716E-02
      0.900000E-01      0.402942E-02
      0.950000E-01      0.360233E-02
      0.100000          0.322351E-02
      0.105000          0.288955E-02
      0.110000          0.259638E-02
      0.115000          0.233957E-02
      0.120000          0.211467E-02
      0.125000          0.191742E-02
      0.130000          0.174387E-02
      0.135000          0.159058E-02
      0.140000          0.145456E-02
      0.145000          0.133335E-02
      0.150000          0.122492E-02
      0.155000          0.112765E-02
      0.160000          0.104022E-02
      0.165000          0.961513E-03
      0.170000          0.890594E-03
      0.175000          0.826606E-03
      0.180000          0.768747E-03
      0.185000          0.716248E-03
      0.190000          0.668365E-03
      0.195000          0.624398E-03
      0.200000          0.583699E-03
      0.205000          0.545704E-03
      0.210000          0.509950E-03
      0.215000          0.476095E-03
      0.220000          0.443918E-03
      0.225000          0.413325E-03
      0.230000          0.384326E-03
      0.235000          0.357019E-03
      0.240000          0.331555E-03
      0.245000          0.308111E-03
      0.250000          0.286850E-03
      0.255000          0.267893E-03
      0.260000          0.251298E-03
      0.265000          0.237040E-03
      0.270000          0.225008E-03
      0.275000          0.215005E-03
      0.280000          0.206761E-03
      0.285000          0.199952E-03
      0.290000          0.194223E-03
      0.295000          0.189211E-03
      0.300000          0.184575E-03
      0.305000          0.180012E-03
      0.310000          0.175280E-03
      0.315000          0.170207E-03
      0.320000          0.164695E-03
      0.325000          0.158723E-03
      0.330000          0.152339E-03
      0.335000          0.145644E-03
      0.340000          0.138784E-03
      0.345000          0.131928E-03
      0.350000          0.125255E-03
      0.355000          0.118939E-03
      0.360000          0.113133E-03
      0.365000          0.107961E-03
      0.370000          0.103512E-03
      0.375000          0.998381E-04
      0.380000          0.969512E-04
      0.385000          0.948296E-04
      0.390000          0.934209E-04
      0.395000          0.926490E-04
      0.400000          0.924202E-04
      0.405000          0.926299E-04
      0.410000          0.931692E-04
      0.415000          0.939295E-04
      0.420000          0.948069E-04
      0.425000          0.957056E-04
      0.430000          0.965402E-04
      0.435000          0.972368E-04
      0.440000          0.977345E-04
      0.445000          0.979855E-04
      0.450000          0.979554E-04
      0.455000          0.976235E-04
      0.460000          0.969824E-04
      0.465000          0.960381E-04
      0.470000          0.948088E-04
      0.475000          0.933245E-04
      0.480000          0.916258E-04
      0.485000          0.897617E-04
      0.490000          0.877879E-04
      0.495000          0.857638E-04
      0.500000          0.837501E-04
