 I_abs(s)[cm^-1]/c[mg/ml]
       0.00000          0.146081E-01
      0.500000E-02      0.145629E-01
      0.100000E-01      0.144279E-01
      0.150000E-01      0.142056E-01
      0.200000E-01      0.138997E-01
      0.250000E-01      0.135154E-01
      0.300000E-01      0.130591E-01
      0.350000E-01      0.125384E-01
      0.400000E-01      0.119617E-01
      0.450000E-01      0.113380E-01
      0.500000E-01      0.106770E-01
      0.550000E-01      0.998852E-02
      0.600000E-01      0.928237E-02
      0.650000E-01      0.856823E-02
      0.700000E-01      0.785535E-02
      0.750000E-01      0.715242E-02
      0.800000E-01      0.646737E-02
      0.850000E-01      0.580726E-02
      0.900000E-01      0.517818E-02
      0.950000E-01      0.458517E-02
      0.100000          0.403219E-02
      0.105000          0.352210E-02
      0.110000          0.305670E-02
      0.115000          0.263677E-02
      0.120000          0.226215E-02
      0.125000          0.193183E-02
      0.130000          0.164406E-02
      0.135000          0.139647E-02
      0.140000          0.118620E-02
      0.145000          0.101002E-02
      0.150000          0.864474E-03
      0.155000          0.745971E-03
      0.160000          0.650919E-03
      0.165000          0.575807E-03
      0.170000          0.517297E-03
      0.175000          0.472284E-03
      0.180000          0.437954E-03
      0.185000          0.411810E-03
      0.190000          0.391701E-03
      0.195000          0.375820E-03
      0.200000          0.362702E-03
      0.205000          0.351204E-03
      0.210000          0.340474E-03
      0.215000          0.329928E-03
      0.220000          0.319202E-03
      0.225000          0.308120E-03
      0.230000          0.296650E-03
      0.235000          0.284870E-03
      0.240000          0.272927E-03
      0.245000          0.261010E-03
      0.250000          0.249322E-03
      0.255000          0.238057E-03
      0.260000          0.227385E-03
      0.265000          0.217441E-03
      0.270000          0.208317E-03
      0.275000          0.200060E-03
      0.280000          0.192675E-03
      0.285000          0.186128E-03
      0.290000          0.180352E-03
      0.295000          0.175258E-03
      0.300000          0.170738E-03
      0.305000          0.166678E-03
      0.310000          0.162964E-03
      0.315000          0.159489E-03
      0.320000          0.156158E-03
      0.325000          0.152893E-03
      0.330000          0.149638E-03
      0.335000          0.146353E-03
      0.340000          0.143021E-03
      0.345000          0.139645E-03
      0.350000          0.136242E-03
      0.355000          0.132843E-03
      0.360000          0.129488E-03
      0.365000          0.126223E-03
      0.370000          0.123098E-03
      0.375000          0.120158E-03
      0.380000          0.117447E-03
      0.385000          0.115001E-03
      0.390000          0.112844E-03
      0.395000          0.110996E-03
      0.400000          0.109461E-03
      0.405000          0.108236E-03
      0.410000          0.107307E-03
      0.415000          0.106650E-03
      0.420000          0.106235E-03
      0.425000          0.106025E-03
      0.430000          0.105980E-03
      0.435000          0.106058E-03
      0.440000          0.106214E-03
      0.445000          0.106405E-03
      0.450000          0.106592E-03
      0.455000          0.106737E-03
      0.460000          0.106807E-03
      0.465000          0.106776E-03
      0.470000          0.106621E-03
      0.475000          0.106325E-03
      0.480000          0.105879E-03
      0.485000          0.105277E-03
      0.490000          0.104518E-03
      0.495000          0.103609E-03
      0.500000          0.102558E-03
