 I_abs(s)[cm^-1]/c[mg/ml]
       0.00000          0.134021E-01
      0.500000E-02      0.133299E-01
      0.100000E-01      0.131160E-01
      0.150000E-01      0.127678E-01
      0.200000E-01      0.122975E-01
      0.250000E-01      0.117211E-01
      0.300000E-01      0.110579E-01
      0.350000E-01      0.103290E-01
      0.400000E-01      0.955694E-02
      0.450000E-01      0.876392E-02
      0.500000E-01      0.797126E-02
      0.550000E-01      0.719831E-02
      0.600000E-01      0.646173E-02
      0.650000E-01      0.577495E-02
      0.700000E-01      0.514781E-02
      0.750000E-01      0.458651E-02
      0.800000E-01      0.409366E-02
      0.850000E-01      0.366863E-02
      0.900000E-01      0.330799E-02
      0.950000E-01      0.300606E-02
      0.100000          0.275557E-02
      0.105000          0.254831E-02
      0.110000          0.237574E-02
      0.115000          0.222955E-02
      0.120000          0.210214E-02
      0.125000          0.198696E-02
      0.130000          0.187872E-02
      0.135000          0.177352E-02
      0.140000          0.166881E-02
      0.145000          0.156329E-02
      0.150000          0.145674E-02
      0.155000          0.134977E-02
      0.160000          0.124356E-02
      0.165000          0.113964E-02
      0.170000          0.103961E-02
      0.175000          0.944986E-03
      0.180000          0.857023E-03
      0.185000          0.776628E-03
      0.190000          0.704312E-03
      0.195000          0.640188E-03
      0.200000          0.584013E-03
      0.205000          0.535249E-03
      0.210000          0.493149E-03
      0.215000          0.456844E-03
      0.220000          0.425425E-03
      0.225000          0.398021E-03
      0.230000          0.373849E-03
      0.235000          0.352255E-03
      0.240000          0.332730E-03
      0.245000          0.314906E-03
      0.250000          0.298546E-03
      0.255000          0.283516E-03
      0.260000          0.269753E-03
      0.265000          0.257233E-03
      0.270000          0.245945E-03
      0.275000          0.235864E-03
      0.280000          0.226936E-03
      0.285000          0.219073E-03
      0.290000          0.212148E-03
      0.295000          0.206008E-03
      0.300000          0.200477E-03
      0.305000          0.195380E-03
      0.310000          0.190549E-03
      0.315000          0.185840E-03
      0.320000          0.181146E-03
      0.325000          0.176394E-03
      0.330000          0.171556E-03
      0.335000          0.166643E-03
      0.340000          0.161698E-03
      0.345000          0.156787E-03
      0.350000          0.151992E-03
      0.355000          0.147396E-03
      0.360000          0.143076E-03
      0.365000          0.139092E-03
      0.370000          0.135485E-03
      0.375000          0.132270E-03
      0.380000          0.129435E-03
      0.385000          0.126949E-03
      0.390000          0.124757E-03
      0.395000          0.122795E-03
      0.400000          0.120989E-03
      0.405000          0.119265E-03
      0.410000          0.117553E-03
      0.415000          0.115795E-03
      0.420000          0.113945E-03
      0.425000          0.111973E-03
      0.430000          0.109864E-03
      0.435000          0.107621E-03
      0.440000          0.105258E-03
      0.445000          0.102800E-03
      0.450000          0.100278E-03
      0.455000          0.977288E-04
      0.460000          0.951886E-04
      0.465000          0.926917E-04
      0.470000          0.902686E-04
      0.475000          0.879442E-04
      0.480000          0.857377E-04
      0.485000          0.836619E-04
      0.490000          0.817244E-04
      0.495000          0.799282E-04
      0.500000          0.782725E-04
