 I_abs(s)[cm^-1]/c[mg/ml]
       0.00000          0.134631E-01
      0.500000E-02      0.133902E-01
      0.100000E-01      0.131742E-01
      0.150000E-01      0.128226E-01
      0.200000E-01      0.123476E-01
      0.250000E-01      0.117652E-01
      0.300000E-01      0.110948E-01
      0.350000E-01      0.103576E-01
      0.400000E-01      0.957606E-02
      0.450000E-01      0.877267E-02
      0.500000E-01      0.796880E-02
      0.550000E-01      0.718392E-02
      0.600000E-01      0.643483E-02
      0.650000E-01      0.573508E-02
      0.700000E-01      0.509469E-02
      0.750000E-01      0.451999E-02
      0.800000E-01      0.401374E-02
      0.850000E-01      0.357547E-02
      0.900000E-01      0.320189E-02
      0.950000E-01      0.288748E-02
      0.100000          0.262515E-02
      0.105000          0.240683E-02
      0.110000          0.222417E-02
      0.115000          0.206904E-02
      0.120000          0.193402E-02
      0.125000          0.181274E-02
      0.130000          0.170010E-02
      0.135000          0.159236E-02
      0.140000          0.148712E-02
      0.145000          0.138318E-02
      0.150000          0.128039E-02
      0.155000          0.117935E-02
      0.160000          0.108120E-02
      0.165000          0.987305E-03
      0.170000          0.899082E-03
      0.175000          0.817756E-03
      0.180000          0.744237E-03
      0.185000          0.679036E-03
      0.190000          0.622231E-03
      0.195000          0.573487E-03
      0.200000          0.532118E-03
      0.205000          0.497176E-03
      0.210000          0.467553E-03
      0.215000          0.442088E-03
      0.220000          0.419669E-03
      0.225000          0.399317E-03
      0.230000          0.380240E-03
      0.235000          0.361874E-03
      0.240000          0.343885E-03
      0.245000          0.326161E-03
      0.250000          0.308772E-03
      0.255000          0.291924E-03
      0.260000          0.275909E-03
      0.265000          0.261042E-03
      0.270000          0.247619E-03
      0.275000          0.235870E-03
      0.280000          0.225931E-03
      0.285000          0.217828E-03
      0.290000          0.211476E-03
      0.295000          0.206686E-03
      0.300000          0.203186E-03
      0.305000          0.200647E-03
      0.310000          0.198712E-03
      0.315000          0.197026E-03
      0.320000          0.195264E-03
      0.325000          0.193151E-03
      0.330000          0.190483E-03
      0.335000          0.187131E-03
      0.340000          0.183045E-03
      0.345000          0.178249E-03
      0.350000          0.172831E-03
      0.355000          0.166928E-03
      0.360000          0.160709E-03
      0.365000          0.154360E-03
      0.370000          0.148065E-03
      0.375000          0.141992E-03
      0.380000          0.136282E-03
      0.385000          0.131042E-03
      0.390000          0.126340E-03
      0.395000          0.122204E-03
      0.400000          0.118627E-03
      0.405000          0.115567E-03
      0.410000          0.112961E-03
      0.415000          0.110728E-03
      0.420000          0.108777E-03
      0.425000          0.107021E-03
      0.430000          0.105376E-03
      0.435000          0.103770E-03
      0.440000          0.102148E-03
      0.445000          0.100473E-03
      0.450000          0.987258E-04
      0.455000          0.969053E-04
      0.460000          0.950251E-04
      0.465000          0.931108E-04
      0.470000          0.911964E-04
      0.475000          0.893203E-04
      0.480000          0.875217E-04
      0.485000          0.858367E-04
      0.490000          0.842961E-04
      0.495000          0.829232E-04
      0.500000          0.817323E-04
