 I_abs(s)[cm^-1]/c[mg/ml]
       0.00000          0.138938E-01
      0.500000E-02      0.138437E-01
      0.100000E-01      0.136945E-01
      0.150000E-01      0.134496E-01
      0.200000E-01      0.131146E-01
      0.250000E-01      0.126969E-01
      0.300000E-01      0.122058E-01
      0.350000E-01      0.116516E-01
      0.400000E-01      0.110460E-01
      0.450000E-01      0.104011E-01
      0.500000E-01      0.972917E-02
      0.550000E-01      0.904248E-02
      0.600000E-01      0.835273E-02
      0.650000E-01      0.767077E-02
      0.700000E-01      0.700636E-02
      0.750000E-01      0.636792E-02
      0.800000E-01      0.576242E-02
      0.850000E-01      0.519527E-02
      0.900000E-01      0.467029E-02
      0.950000E-01      0.418975E-02
      0.100000          0.375449E-02
      0.105000          0.336406E-02
      0.110000          0.301687E-02
      0.115000          0.271040E-02
      0.120000          0.244145E-02
      0.125000          0.220633E-02
      0.130000          0.200107E-02
      0.135000          0.182164E-02
      0.140000          0.166410E-02
      0.145000          0.152478E-02
      0.150000          0.140034E-02
      0.155000          0.128789E-02
      0.160000          0.118500E-02
      0.165000          0.108976E-02
      0.170000          0.100070E-02
      0.175000          0.916828E-03
      0.180000          0.837508E-03
      0.185000          0.762431E-03
      0.190000          0.691532E-03
      0.195000          0.624912E-03
      0.200000          0.562772E-03
      0.205000          0.505348E-03
      0.210000          0.452855E-03
      0.215000          0.405446E-03
      0.220000          0.363186E-03
      0.225000          0.326031E-03
      0.230000          0.293825E-03
      0.235000          0.266306E-03
      0.240000          0.243119E-03
      0.245000          0.223836E-03
      0.250000          0.207980E-03
      0.255000          0.195047E-03
      0.260000          0.184537E-03
      0.265000          0.175967E-03
      0.270000          0.168899E-03
      0.275000          0.162948E-03
      0.280000          0.157792E-03
      0.285000          0.153181E-03
      0.290000          0.148929E-03
      0.295000          0.144917E-03
      0.300000          0.141080E-03
      0.305000          0.137401E-03
      0.310000          0.133897E-03
      0.315000          0.130606E-03
      0.320000          0.127581E-03
      0.325000          0.124872E-03
      0.330000          0.122524E-03
      0.335000          0.120568E-03
      0.340000          0.119014E-03
      0.345000          0.117855E-03
      0.350000          0.117060E-03
      0.355000          0.116581E-03
      0.360000          0.116355E-03
      0.365000          0.116305E-03
      0.370000          0.116350E-03
      0.375000          0.116407E-03
      0.380000          0.116396E-03
      0.385000          0.116245E-03
      0.390000          0.115893E-03
      0.395000          0.115292E-03
      0.400000          0.114412E-03
      0.405000          0.113238E-03
      0.410000          0.111768E-03
      0.415000          0.110018E-03
      0.420000          0.108016E-03
      0.425000          0.105797E-03
      0.430000          0.103407E-03
      0.435000          0.100894E-03
      0.440000          0.983089E-04
      0.445000          0.957020E-04
      0.450000          0.931196E-04
      0.455000          0.906040E-04
      0.460000          0.881908E-04
      0.465000          0.859090E-04
      0.470000          0.837803E-04
      0.475000          0.818191E-04
      0.480000          0.800331E-04
      0.485000          0.784241E-04
      0.490000          0.769888E-04
      0.495000          0.757201E-04
      0.500000          0.746077E-04
