 I_abs(s)[cm^-1]/c[mg/ml]
       0.00000          0.145764E-01
      0.500000E-02      0.145343E-01
      0.100000E-01      0.144088E-01
      0.150000E-01      0.142019E-01
      0.200000E-01      0.139169E-01
      0.250000E-01      0.135586E-01
      0.300000E-01      0.131326E-01
      0.350000E-01      0.126455E-01
      0.400000E-01      0.121050E-01
      0.450000E-01      0.115190E-01
      0.500000E-01      0.108962E-01
      0.550000E-01      0.102454E-01
      0.600000E-01      0.957531E-02
      0.650000E-01      0.889477E-02
      0.700000E-01      0.821211E-02
      0.750000E-01      0.753525E-02
      0.800000E-01      0.687147E-02
      0.850000E-01      0.622732E-02
      0.900000E-01      0.560855E-02
      0.950000E-01      0.502002E-02
      0.100000          0.446565E-02
      0.105000          0.394845E-02
      0.110000          0.347052E-02
      0.115000          0.303308E-02
      0.120000          0.263652E-02
      0.125000          0.228049E-02
      0.130000          0.196398E-02
      0.135000          0.168541E-02
      0.140000          0.144274E-02
      0.145000          0.123354E-02
      0.150000          0.105515E-02
      0.155000          0.904700E-03
      0.160000          0.779253E-03
      0.165000          0.675862E-03
      0.170000          0.591644E-03
      0.175000          0.523836E-03
      0.180000          0.469845E-03
      0.185000          0.427276E-03
      0.190000          0.393968E-03
      0.195000          0.367995E-03
      0.200000          0.347682E-03
      0.205000          0.331596E-03
      0.210000          0.318541E-03
      0.215000          0.307539E-03
      0.220000          0.297817E-03
      0.225000          0.288782E-03
      0.230000          0.280002E-03
      0.235000          0.271180E-03
      0.240000          0.262135E-03
      0.245000          0.252777E-03
      0.250000          0.243092E-03
      0.255000          0.233120E-03
      0.260000          0.222939E-03
      0.265000          0.212656E-03
      0.270000          0.202389E-03
      0.275000          0.192264E-03
      0.280000          0.182403E-03
      0.285000          0.172918E-03
      0.290000          0.163913E-03
      0.295000          0.155471E-03
      0.300000          0.147661E-03
      0.305000          0.140535E-03
      0.310000          0.134123E-03
      0.315000          0.128442E-03
      0.320000          0.123489E-03
      0.325000          0.119249E-03
      0.330000          0.115691E-03
      0.335000          0.112777E-03
      0.340000          0.110456E-03
      0.345000          0.108673E-03
      0.350000          0.107367E-03
      0.355000          0.106474E-03
      0.360000          0.105931E-03
      0.365000          0.105675E-03
      0.370000          0.105646E-03
      0.375000          0.105788E-03
      0.380000          0.106050E-03
      0.385000          0.106388E-03
      0.390000          0.106761E-03
      0.395000          0.107139E-03
      0.400000          0.107495E-03
      0.405000          0.107810E-03
      0.410000          0.108069E-03
      0.415000          0.108264E-03
      0.420000          0.108389E-03
      0.425000          0.108442E-03
      0.430000          0.108424E-03
      0.435000          0.108336E-03
      0.440000          0.108183E-03
      0.445000          0.107966E-03
      0.450000          0.107688E-03
      0.455000          0.107352E-03
      0.460000          0.106957E-03
      0.465000          0.106503E-03
      0.470000          0.105989E-03
      0.475000          0.105413E-03
      0.480000          0.104771E-03
      0.485000          0.104061E-03
      0.490000          0.103280E-03
      0.495000          0.102425E-03
      0.500000          0.101495E-03
