 I_abs(s)[cm^-1]/c[mg/ml]
       0.00000          0.136468E-01
      0.500000E-02      0.135886E-01
      0.100000E-01      0.134154E-01
      0.150000E-01      0.131322E-01
      0.200000E-01      0.127469E-01
      0.250000E-01      0.122701E-01
      0.300000E-01      0.117144E-01
      0.350000E-01      0.110945E-01
      0.400000E-01      0.104257E-01
      0.450000E-01      0.972398E-02
      0.500000E-01      0.900505E-02
      0.550000E-01      0.828388E-02
      0.600000E-01      0.757417E-02
      0.650000E-01      0.688794E-02
      0.700000E-01      0.623522E-02
      0.750000E-01      0.562387E-02
      0.800000E-01      0.505947E-02
      0.850000E-01      0.454541E-02
      0.900000E-01      0.408298E-02
      0.950000E-01      0.367164E-02
      0.100000          0.330926E-02
      0.105000          0.299246E-02
      0.110000          0.271698E-02
      0.115000          0.247802E-02
      0.120000          0.227051E-02
      0.125000          0.208947E-02
      0.130000          0.193019E-02
      0.135000          0.178843E-02
      0.140000          0.166055E-02
      0.145000          0.154353E-02
      0.150000          0.143503E-02
      0.155000          0.133333E-02
      0.160000          0.123726E-02
      0.165000          0.114613E-02
      0.170000          0.105959E-02
      0.175000          0.977566E-03
      0.180000          0.900128E-03
      0.185000          0.827423E-03
      0.190000          0.759593E-03
      0.195000          0.696733E-03
      0.200000          0.638855E-03
      0.205000          0.585877E-03
      0.210000          0.537627E-03
      0.215000          0.493854E-03
      0.220000          0.454251E-03
      0.225000          0.418483E-03
      0.230000          0.386203E-03
      0.235000          0.357082E-03
      0.240000          0.330820E-03
      0.245000          0.307155E-03
      0.250000          0.285870E-03
      0.255000          0.266788E-03
      0.260000          0.249765E-03
      0.265000          0.234678E-03
      0.270000          0.221419E-03
      0.275000          0.209880E-03
      0.280000          0.199943E-03
      0.285000          0.191477E-03
      0.290000          0.184333E-03
      0.295000          0.178346E-03
      0.300000          0.173337E-03
      0.305000          0.169120E-03
      0.310000          0.165511E-03
      0.315000          0.162336E-03
      0.320000          0.159438E-03
      0.325000          0.156685E-03
      0.330000          0.153973E-03
      0.335000          0.151230E-03
      0.340000          0.148417E-03
      0.345000          0.145521E-03
      0.350000          0.142555E-03
      0.355000          0.139546E-03
      0.360000          0.136537E-03
      0.365000          0.133569E-03
      0.370000          0.130685E-03
      0.375000          0.127916E-03
      0.380000          0.125283E-03
      0.385000          0.122793E-03
      0.390000          0.120438E-03
      0.395000          0.118196E-03
      0.400000          0.116036E-03
      0.405000          0.113920E-03
      0.410000          0.111807E-03
      0.415000          0.109658E-03
      0.420000          0.107439E-03
      0.425000          0.105126E-03
      0.430000          0.102705E-03
      0.435000          0.100175E-03
      0.440000          0.975440E-04
      0.445000          0.948348E-04
      0.450000          0.920767E-04
      0.455000          0.893063E-04
      0.460000          0.865632E-04
      0.465000          0.838879E-04
      0.470000          0.813184E-04
      0.475000          0.788880E-04
      0.480000          0.766235E-04
      0.485000          0.745442E-04
      0.490000          0.726610E-04
      0.495000          0.709768E-04
      0.500000          0.694872E-04
