 I_abs(s)[cm^-1]/c[mg/ml]
       0.00000          0.146161E-01
      0.500000E-02      0.145682E-01
      0.100000E-01      0.144257E-01
      0.150000E-01      0.141915E-01
      0.200000E-01      0.138705E-01
      0.250000E-01      0.134691E-01
      0.300000E-01      0.129955E-01
      0.350000E-01      0.124588E-01
      0.400000E-01      0.118692E-01
      0.450000E-01      0.112374E-01
      0.500000E-01      0.105744E-01
      0.550000E-01      0.989111E-02
      0.600000E-01      0.919811E-02
      0.650000E-01      0.850532E-02
      0.700000E-01      0.782181E-02
      0.750000E-01      0.715564E-02
      0.800000E-01      0.651368E-02
      0.850000E-01      0.590160E-02
      0.900000E-01      0.532379E-02
      0.950000E-01      0.478340E-02
      0.100000          0.428241E-02
      0.105000          0.382174E-02
      0.110000          0.340135E-02
      0.115000          0.302036E-02
      0.120000          0.267728E-02
      0.125000          0.237007E-02
      0.130000          0.209634E-02
      0.135000          0.185347E-02
      0.140000          0.163875E-02
      0.145000          0.144944E-02
      0.150000          0.128288E-02
      0.155000          0.113654E-02
      0.160000          0.100810E-02
      0.165000          0.895411E-03
      0.170000          0.796557E-03
      0.175000          0.709837E-03
      0.180000          0.633753E-03
      0.185000          0.566999E-03
      0.190000          0.508439E-03
      0.195000          0.457087E-03
      0.200000          0.412084E-03
      0.205000          0.372679E-03
      0.210000          0.338217E-03
      0.215000          0.308115E-03
      0.220000          0.281862E-03
      0.225000          0.258998E-03
      0.230000          0.239118E-03
      0.235000          0.221860E-03
      0.240000          0.206902E-03
      0.245000          0.193962E-03
      0.250000          0.182790E-03
      0.255000          0.173169E-03
      0.260000          0.164913E-03
      0.265000          0.157856E-03
      0.270000          0.151860E-03
      0.275000          0.146802E-03
      0.280000          0.142574E-03
      0.285000          0.139081E-03
      0.290000          0.136236E-03
      0.295000          0.133959E-03
      0.300000          0.132172E-03
      0.305000          0.130801E-03
      0.310000          0.129775E-03
      0.315000          0.129022E-03
      0.320000          0.128473E-03
      0.325000          0.128061E-03
      0.330000          0.127724E-03
      0.335000          0.127401E-03
      0.340000          0.127041E-03
      0.345000          0.126597E-03
      0.350000          0.126032E-03
      0.355000          0.125317E-03
      0.360000          0.124435E-03
      0.365000          0.123376E-03
      0.370000          0.122141E-03
      0.375000          0.120742E-03
      0.380000          0.119196E-03
      0.385000          0.117529E-03
      0.390000          0.115772E-03
      0.395000          0.113957E-03
      0.400000          0.112118E-03
      0.405000          0.110289E-03
      0.410000          0.108500E-03
      0.415000          0.106775E-03
      0.420000          0.105133E-03
      0.425000          0.103586E-03
      0.430000          0.102137E-03
      0.435000          0.100783E-03
      0.440000          0.995136E-04
      0.445000          0.983127E-04
      0.450000          0.971603E-04
      0.455000          0.960342E-04
      0.460000          0.949122E-04
      0.465000          0.937741E-04
      0.470000          0.926033E-04
      0.475000          0.913889E-04
      0.480000          0.901266E-04
      0.485000          0.888195E-04
      0.490000          0.874781E-04
      0.495000          0.861195E-04
      0.500000          0.847671E-04
