 I_abs(s)[cm^-1]/c[mg/ml]
       0.00000          0.146081E-01
      0.500000E-02      0.145635E-01
      0.100000E-01      0.144306E-01
      0.150000E-01      0.142119E-01
      0.200000E-01      0.139115E-01
      0.250000E-01      0.135349E-01
      0.300000E-01      0.130889E-01
      0.350000E-01      0.125815E-01
      0.400000E-01      0.120215E-01
      0.450000E-01      0.114182E-01
      0.500000E-01      0.107813E-01
      0.550000E-01      0.101207E-01
      0.600000E-01      0.944582E-02
      0.650000E-01      0.876603E-02
      0.700000E-01      0.808990E-02
      0.750000E-01      0.742529E-02
      0.800000E-01      0.677914E-02
      0.850000E-01      0.615741E-02
      0.900000E-01      0.556499E-02
      0.950000E-01      0.500571E-02
      0.100000          0.448236E-02
      0.105000          0.399671E-02
      0.110000          0.354963E-02
      0.115000          0.314115E-02
      0.120000          0.277059E-02
      0.125000          0.243667E-02
      0.130000          0.213765E-02
      0.135000          0.187144E-02
      0.140000          0.163570E-02
      0.145000          0.142798E-02
      0.150000          0.124575E-02
      0.155000          0.108653E-02
      0.160000          0.947928E-03
      0.165000          0.827681E-03
      0.170000          0.723685E-03
      0.175000          0.634013E-03
      0.180000          0.556923E-03
      0.185000          0.490854E-03
      0.190000          0.434413E-03
      0.195000          0.386369E-03
      0.200000          0.345631E-03
      0.205000          0.311235E-03
      0.210000          0.282328E-03
      0.215000          0.258151E-03
      0.220000          0.238030E-03
      0.225000          0.221365E-03
      0.230000          0.207622E-03
      0.235000          0.196329E-03
      0.240000          0.187067E-03
      0.245000          0.179474E-03
      0.250000          0.173236E-03
      0.255000          0.168087E-03
      0.260000          0.163806E-03
      0.265000          0.160214E-03
      0.270000          0.157168E-03
      0.275000          0.154556E-03
      0.280000          0.152296E-03
      0.285000          0.150325E-03
      0.290000          0.148596E-03
      0.295000          0.147073E-03
      0.300000          0.145724E-03
      0.305000          0.144523E-03
      0.310000          0.143437E-03
      0.315000          0.142434E-03
      0.320000          0.141478E-03
      0.325000          0.140527E-03
      0.330000          0.139541E-03
      0.335000          0.138475E-03
      0.340000          0.137290E-03
      0.345000          0.135949E-03
      0.350000          0.134423E-03
      0.355000          0.132693E-03
      0.360000          0.130748E-03
      0.365000          0.128592E-03
      0.370000          0.126237E-03
      0.375000          0.123710E-03
      0.380000          0.121044E-03
      0.385000          0.118282E-03
      0.390000          0.115470E-03
      0.395000          0.112659E-03
      0.400000          0.109897E-03
      0.405000          0.107231E-03
      0.410000          0.104700E-03
      0.415000          0.102337E-03
      0.420000          0.100166E-03
      0.425000          0.981981E-04
      0.430000          0.964378E-04
      0.435000          0.948781E-04
      0.440000          0.935036E-04
      0.445000          0.922918E-04
      0.450000          0.912153E-04
      0.455000          0.902437E-04
      0.460000          0.893457E-04
      0.465000          0.884917E-04
      0.470000          0.876552E-04
      0.475000          0.868149E-04
      0.480000          0.859554E-04
      0.485000          0.850684E-04
      0.490000          0.841526E-04
      0.495000          0.832136E-04
      0.500000          0.822631E-04
