 I_abs(s)[cm^-1]/c[mg/ml]
       0.00000          0.137315E-01
      0.500000E-02      0.136782E-01
      0.100000E-01      0.135196E-01
      0.150000E-01      0.132594E-01
      0.200000E-01      0.129037E-01
      0.250000E-01      0.124608E-01
      0.300000E-01      0.119407E-01
      0.350000E-01      0.113549E-01
      0.400000E-01      0.107160E-01
      0.450000E-01      0.100373E-01
      0.500000E-01      0.933232E-02
      0.550000E-01      0.861424E-02
      0.600000E-01      0.789578E-02
      0.650000E-01      0.718868E-02
      0.700000E-01      0.650344E-02
      0.750000E-01      0.584910E-02
      0.800000E-01      0.523304E-02
      0.850000E-01      0.466098E-02
      0.900000E-01      0.413686E-02
      0.950000E-01      0.366296E-02
      0.100000          0.324000E-02
      0.105000          0.286726E-02
      0.110000          0.254280E-02
      0.115000          0.226371E-02
      0.120000          0.202625E-02
      0.125000          0.182620E-02
      0.130000          0.165898E-02
      0.135000          0.151993E-02
      0.140000          0.140445E-02
      0.145000          0.130819E-02
      0.150000          0.122712E-02
      0.155000          0.115767E-02
      0.160000          0.109675E-02
      0.165000          0.104176E-02
      0.170000          0.990663E-03
      0.175000          0.941865E-03
      0.180000          0.894240E-03
      0.185000          0.847054E-03
      0.190000          0.799906E-03
      0.195000          0.752669E-03
      0.200000          0.705423E-03
      0.205000          0.658400E-03
      0.210000          0.611928E-03
      0.215000          0.566389E-03
      0.220000          0.522177E-03
      0.225000          0.479674E-03
      0.230000          0.439223E-03
      0.235000          0.401114E-03
      0.240000          0.365579E-03
      0.245000          0.332783E-03
      0.250000          0.302828E-03
      0.255000          0.275754E-03
      0.260000          0.251543E-03
      0.265000          0.230128E-03
      0.270000          0.211397E-03
      0.275000          0.195204E-03
      0.280000          0.181371E-03
      0.285000          0.169701E-03
      0.290000          0.159982E-03
      0.295000          0.151992E-03
      0.300000          0.145507E-03
      0.305000          0.140308E-03
      0.310000          0.136184E-03
      0.315000          0.132933E-03
      0.320000          0.130374E-03
      0.325000          0.128342E-03
      0.330000          0.126692E-03
      0.335000          0.125303E-03
      0.340000          0.124075E-03
      0.345000          0.122929E-03
      0.350000          0.121804E-03
      0.355000          0.120658E-03
      0.360000          0.119465E-03
      0.365000          0.118210E-03
      0.370000          0.116885E-03
      0.375000          0.115493E-03
      0.380000          0.114036E-03
      0.385000          0.112520E-03
      0.390000          0.110952E-03
      0.395000          0.109333E-03
      0.400000          0.107668E-03
      0.405000          0.105956E-03
      0.410000          0.104196E-03
      0.415000          0.102385E-03
      0.420000          0.100522E-03
      0.425000          0.986055E-04
      0.430000          0.966370E-04
      0.435000          0.946209E-04
      0.440000          0.925654E-04
      0.445000          0.904827E-04
      0.450000          0.883892E-04
      0.455000          0.863049E-04
      0.460000          0.842528E-04
      0.465000          0.822581E-04
      0.470000          0.803469E-04
      0.475000          0.785448E-04
      0.480000          0.768755E-04
      0.485000          0.753600E-04
      0.490000          0.740150E-04
      0.495000          0.728523E-04
      0.500000          0.718778E-04
