 I_abs(s)[cm^-1]/c[mg/ml]
       0.00000          0.134936E-01
      0.500000E-02      0.134274E-01
      0.100000E-01      0.132306E-01
      0.150000E-01      0.129096E-01
      0.200000E-01      0.124744E-01
      0.250000E-01      0.119384E-01
      0.300000E-01      0.113175E-01
      0.350000E-01      0.106298E-01
      0.400000E-01      0.989455E-02
      0.450000E-01      0.913118E-02
      0.500000E-01      0.835868E-02
      0.550000E-01      0.759480E-02
      0.600000E-01      0.685539E-02
      0.650000E-01      0.615387E-02
      0.700000E-01      0.550090E-02
      0.750000E-01      0.490417E-02
      0.800000E-01      0.436838E-02
      0.850000E-01      0.389534E-02
      0.900000E-01      0.348426E-02
      0.950000E-01      0.313208E-02
      0.100000          0.283397E-02
      0.105000          0.258378E-02
      0.110000          0.237456E-02
      0.115000          0.219907E-02
      0.120000          0.205017E-02
      0.125000          0.192126E-02
      0.130000          0.180651E-02
      0.135000          0.170108E-02
      0.140000          0.160124E-02
      0.145000          0.150436E-02
      0.150000          0.140887E-02
      0.155000          0.131412E-02
      0.160000          0.122023E-02
      0.165000          0.112787E-02
      0.170000          0.103809E-02
      0.175000          0.952081E-03
      0.180000          0.871032E-03
      0.185000          0.795973E-03
      0.190000          0.727676E-03
      0.195000          0.666581E-03
      0.200000          0.612784E-03
      0.205000          0.566039E-03
      0.210000          0.525807E-03
      0.215000          0.491320E-03
      0.220000          0.461653E-03
      0.225000          0.435817E-03
      0.230000          0.412827E-03
      0.235000          0.391783E-03
      0.240000          0.371915E-03
      0.245000          0.352630E-03
      0.250000          0.333523E-03
      0.255000          0.314382E-03
      0.260000          0.295172E-03
      0.265000          0.276002E-03
      0.270000          0.257098E-03
      0.275000          0.238748E-03
      0.280000          0.221273E-03
      0.285000          0.204976E-03
      0.290000          0.190119E-03
      0.295000          0.176890E-03
      0.300000          0.165395E-03
      0.305000          0.155646E-03
      0.310000          0.147570E-03
      0.315000          0.141015E-03
      0.320000          0.135771E-03
      0.325000          0.131584E-03
      0.330000          0.128188E-03
      0.335000          0.125315E-03
      0.340000          0.122724E-03
      0.345000          0.120207E-03
      0.350000          0.117608E-03
      0.355000          0.114823E-03
      0.360000          0.111804E-03
      0.365000          0.108553E-03
      0.370000          0.105116E-03
      0.375000          0.101571E-03
      0.380000          0.980193E-04
      0.385000          0.945685E-04
      0.390000          0.913250E-04
      0.395000          0.883821E-04
      0.400000          0.858119E-04
      0.405000          0.836601E-04
      0.410000          0.819436E-04
      0.415000          0.806504E-04
      0.420000          0.797419E-04
      0.425000          0.791582E-04
      0.430000          0.788233E-04
      0.435000          0.786526E-04
      0.440000          0.785596E-04
      0.445000          0.784630E-04
      0.450000          0.782923E-04
      0.455000          0.779923E-04
      0.460000          0.775270E-04
      0.465000          0.768802E-04
      0.470000          0.760562E-04
      0.475000          0.750781E-04
      0.480000          0.739846E-04
      0.485000          0.728270E-04
      0.490000          0.716641E-04
      0.495000          0.705581E-04
      0.500000          0.695696E-04
