 I_abs(s)[cm^-1]/c[mg/ml]
       0.00000          0.145684E-01
      0.500000E-02      0.145229E-01
      0.100000E-01      0.143871E-01
      0.150000E-01      0.141637E-01
      0.200000E-01      0.138568E-01
      0.250000E-01      0.134724E-01
      0.300000E-01      0.130173E-01
      0.350000E-01      0.124999E-01
      0.400000E-01      0.119293E-01
      0.450000E-01      0.113151E-01
      0.500000E-01      0.106675E-01
      0.550000E-01      0.999659E-02
      0.600000E-01      0.931236E-02
      0.650000E-01      0.862439E-02
      0.700000E-01      0.794161E-02
      0.750000E-01      0.727214E-02
      0.800000E-01      0.662315E-02
      0.850000E-01      0.600075E-02
      0.900000E-01      0.540992E-02
      0.950000E-01      0.485449E-02
      0.100000          0.433718E-02
      0.105000          0.385964E-02
      0.110000          0.342251E-02
      0.115000          0.302557E-02
      0.120000          0.266781E-02
      0.125000          0.234761E-02
      0.130000          0.206286E-02
      0.135000          0.181107E-02
      0.140000          0.158955E-02
      0.145000          0.139549E-02
      0.150000          0.122606E-02
      0.155000          0.107854E-02
      0.160000          0.950325E-03
      0.165000          0.839019E-03
      0.170000          0.742453E-03
      0.175000          0.658697E-03
      0.180000          0.586064E-03
      0.185000          0.523097E-03
      0.190000          0.468556E-03
      0.195000          0.421386E-03
      0.200000          0.380694E-03
      0.205000          0.345715E-03
      0.210000          0.315791E-03
      0.215000          0.290340E-03
      0.220000          0.268839E-03
      0.225000          0.250807E-03
      0.230000          0.235790E-03
      0.235000          0.223363E-03
      0.240000          0.213116E-03
      0.245000          0.204663E-03
      0.250000          0.197642E-03
      0.255000          0.191720E-03
      0.260000          0.186596E-03
      0.265000          0.182008E-03
      0.270000          0.177736E-03
      0.275000          0.173603E-03
      0.280000          0.169478E-03
      0.285000          0.165271E-03
      0.290000          0.160933E-03
      0.295000          0.156448E-03
      0.300000          0.151829E-03
      0.305000          0.147111E-03
      0.310000          0.142344E-03
      0.315000          0.137586E-03
      0.320000          0.132894E-03
      0.325000          0.128324E-03
      0.330000          0.123922E-03
      0.335000          0.119723E-03
      0.340000          0.115752E-03
      0.345000          0.112017E-03
      0.350000          0.108518E-03
      0.355000          0.105244E-03
      0.360000          0.102177E-03
      0.365000          0.992927E-04
      0.370000          0.965684E-04
      0.375000          0.939812E-04
      0.380000          0.915126E-04
      0.385000          0.891496E-04
      0.390000          0.868861E-04
      0.395000          0.847237E-04
      0.400000          0.826706E-04
      0.405000          0.807415E-04
      0.410000          0.789558E-04
      0.415000          0.773358E-04
      0.420000          0.759050E-04
      0.425000          0.746857E-04
      0.430000          0.736974E-04
      0.435000          0.729552E-04
      0.440000          0.724680E-04
      0.445000          0.722386E-04
      0.450000          0.722623E-04
      0.455000          0.725278E-04
      0.460000          0.730175E-04
      0.465000          0.737081E-04
      0.470000          0.745722E-04
      0.475000          0.755796E-04
      0.480000          0.766986E-04
      0.485000          0.778976E-04
      0.490000          0.791459E-04
      0.495000          0.804155E-04
      0.500000          0.816815E-04
