 I_abs(s)[cm^-1]/c[mg/ml]
       0.00000          0.136161E-01
      0.500000E-02      0.135555E-01
      0.100000E-01      0.133752E-01
      0.150000E-01      0.130804E-01
      0.200000E-01      0.126791E-01
      0.250000E-01      0.121823E-01
      0.300000E-01      0.116030E-01
      0.350000E-01      0.109563E-01
      0.400000E-01      0.102583E-01
      0.450000E-01      0.952552E-02
      0.500000E-01      0.877452E-02
      0.550000E-01      0.802110E-02
      0.600000E-01      0.727985E-02
      0.650000E-01      0.656368E-02
      0.700000E-01      0.588349E-02
      0.750000E-01      0.524794E-02
      0.800000E-01      0.466334E-02
      0.850000E-01      0.413367E-02
      0.900000E-01      0.366066E-02
      0.950000E-01      0.324402E-02
      0.100000          0.288169E-02
      0.105000          0.257020E-02
      0.110000          0.230498E-02
      0.115000          0.208077E-02
      0.120000          0.189194E-02
      0.125000          0.173280E-02
      0.130000          0.159792E-02
      0.135000          0.148229E-02
      0.140000          0.138153E-02
      0.145000          0.129194E-02
      0.150000          0.121061E-02
      0.155000          0.113531E-02
      0.160000          0.106452E-02
      0.165000          0.997300E-03
      0.170000          0.933176E-03
      0.175000          0.872041E-03
      0.180000          0.814021E-03
      0.185000          0.759365E-03
      0.190000          0.708354E-03
      0.195000          0.661218E-03
      0.200000          0.618094E-03
      0.205000          0.578987E-03
      0.210000          0.543767E-03
      0.215000          0.512178E-03
      0.220000          0.483863E-03
      0.225000          0.458392E-03
      0.230000          0.435305E-03
      0.235000          0.414146E-03
      0.240000          0.394494E-03
      0.245000          0.375993E-03
      0.250000          0.358365E-03
      0.255000          0.341422E-03
      0.260000          0.325060E-03
      0.265000          0.309255E-03
      0.270000          0.294044E-03
      0.275000          0.279506E-03
      0.280000          0.265742E-03
      0.285000          0.252853E-03
      0.290000          0.240926E-03
      0.295000          0.230013E-03
      0.300000          0.220128E-03
      0.305000          0.211240E-03
      0.310000          0.203275E-03
      0.315000          0.196123E-03
      0.320000          0.189647E-03
      0.325000          0.183693E-03
      0.330000          0.178104E-03
      0.335000          0.172735E-03
      0.340000          0.167459E-03
      0.345000          0.162179E-03
      0.350000          0.156832E-03
      0.355000          0.151391E-03
      0.360000          0.145864E-03
      0.365000          0.140290E-03
      0.370000          0.134733E-03
      0.375000          0.129272E-03
      0.380000          0.123995E-03
      0.385000          0.118986E-03
      0.390000          0.114321E-03
      0.395000          0.110059E-03
      0.400000          0.106238E-03
      0.405000          0.102873E-03
      0.410000          0.999550E-04
      0.415000          0.974522E-04
      0.420000          0.953146E-04
      0.425000          0.934779E-04
      0.430000          0.918694E-04
      0.435000          0.904139E-04
      0.440000          0.890394E-04
      0.445000          0.876817E-04
      0.450000          0.862890E-04
      0.455000          0.848244E-04
      0.460000          0.832669E-04
      0.465000          0.816120E-04
      0.470000          0.798702E-04
      0.475000          0.780647E-04
      0.480000          0.762285E-04
      0.485000          0.744007E-04
      0.490000          0.726233E-04
      0.495000          0.709371E-04
      0.500000          0.693791E-04
