 I_abs(s)[cm^-1]/c[mg/ml]
       0.00000          0.137700E-01
      0.500000E-02      0.137144E-01
      0.100000E-01      0.135491E-01
      0.150000E-01      0.132783E-01
      0.200000E-01      0.129090E-01
      0.250000E-01      0.124509E-01
      0.300000E-01      0.119152E-01
      0.350000E-01      0.113150E-01
      0.400000E-01      0.106646E-01
      0.450000E-01      0.997846E-02
      0.500000E-01      0.927142E-02
      0.550000E-01      0.855766E-02
      0.600000E-01      0.785046E-02
      0.650000E-01      0.716173E-02
      0.700000E-01      0.650173E-02
      0.750000E-01      0.587881E-02
      0.800000E-01      0.529931E-02
      0.850000E-01      0.476749E-02
      0.900000E-01      0.428563E-02
      0.950000E-01      0.385413E-02
      0.100000          0.347176E-02
      0.105000          0.313588E-02
      0.110000          0.284279E-02
      0.115000          0.258798E-02
      0.120000          0.236653E-02
      0.125000          0.217334E-02
      0.130000          0.200343E-02
      0.135000          0.185218E-02
      0.140000          0.171547E-02
      0.145000          0.158984E-02
      0.150000          0.147252E-02
      0.155000          0.136150E-02
      0.160000          0.125544E-02
      0.165000          0.115365E-02
      0.170000          0.105594E-02
      0.175000          0.962568E-03
      0.180000          0.874036E-03
      0.185000          0.791018E-03
      0.190000          0.714215E-03
      0.195000          0.644257E-03
      0.200000          0.581621E-03
      0.205000          0.526569E-03
      0.210000          0.479119E-03
      0.215000          0.439035E-03
      0.220000          0.405838E-03
      0.225000          0.378846E-03
      0.230000          0.357212E-03
      0.235000          0.339986E-03
      0.240000          0.326173E-03
      0.245000          0.314790E-03
      0.250000          0.304922E-03
      0.255000          0.295765E-03
      0.260000          0.286660E-03
      0.265000          0.277116E-03
      0.270000          0.266814E-03
      0.275000          0.255605E-03
      0.280000          0.243499E-03
      0.285000          0.230634E-03
      0.290000          0.217252E-03
      0.295000          0.203665E-03
      0.300000          0.190218E-03
      0.305000          0.177258E-03
      0.310000          0.165108E-03
      0.315000          0.154040E-03
      0.320000          0.144257E-03
      0.325000          0.135888E-03
      0.330000          0.128980E-03
      0.335000          0.123500E-03
      0.340000          0.119348E-03
      0.345000          0.116368E-03
      0.350000          0.114358E-03
      0.355000          0.113096E-03
      0.360000          0.112349E-03
      0.365000          0.111892E-03
      0.370000          0.111521E-03
      0.375000          0.111066E-03
      0.380000          0.110394E-03
      0.385000          0.109416E-03
      0.390000          0.108086E-03
      0.395000          0.106398E-03
      0.400000          0.104385E-03
      0.405000          0.102104E-03
      0.410000          0.996347E-04
      0.415000          0.970680E-04
      0.420000          0.944968E-04
      0.425000          0.920091E-04
      0.430000          0.896812E-04
      0.435000          0.875726E-04
      0.440000          0.857226E-04
      0.445000          0.841495E-04
      0.450000          0.828500E-04
      0.455000          0.818020E-04
      0.460000          0.809671E-04
      0.465000          0.802947E-04
      0.470000          0.797268E-04
      0.475000          0.792026E-04
      0.480000          0.786631E-04
      0.485000          0.780549E-04
      0.490000          0.773341E-04
      0.495000          0.764685E-04
      0.500000          0.754389E-04
