 I_abs(s)[cm^-1]/c[mg/ml]
       0.00000          0.147276E-01
      0.500000E-02      0.146763E-01
      0.100000E-01      0.145236E-01
      0.150000E-01      0.142724E-01
      0.200000E-01      0.139276E-01
      0.250000E-01      0.134960E-01
      0.300000E-01      0.129856E-01
      0.350000E-01      0.124059E-01
      0.400000E-01      0.117676E-01
      0.450000E-01      0.110817E-01
      0.500000E-01      0.103600E-01
      0.550000E-01      0.961422E-02
      0.600000E-01      0.885579E-02
      0.650000E-01      0.809580E-02
      0.700000E-01      0.734457E-02
      0.750000E-01      0.661152E-02
      0.800000E-01      0.590497E-02
      0.850000E-01      0.523202E-02
      0.900000E-01      0.459853E-02
      0.950000E-01      0.400905E-02
      0.100000          0.346681E-02
      0.105000          0.297383E-02
      0.110000          0.253097E-02
      0.115000          0.213801E-02
      0.120000          0.179382E-02
      0.125000          0.149645E-02
      0.130000          0.124330E-02
      0.135000          0.103125E-02
      0.140000          0.856813E-03
      0.145000          0.716238E-03
      0.150000          0.605651E-03
      0.155000          0.521155E-03
      0.160000          0.458928E-03
      0.165000          0.415295E-03
      0.170000          0.386800E-03
      0.175000          0.370250E-03
      0.180000          0.362754E-03
      0.185000          0.361748E-03
      0.190000          0.365007E-03
      0.195000          0.370647E-03
      0.200000          0.377118E-03
      0.205000          0.383192E-03
      0.210000          0.387943E-03
      0.215000          0.390716E-03
      0.220000          0.391104E-03
      0.225000          0.388912E-03
      0.230000          0.384125E-03
      0.235000          0.376873E-03
      0.240000          0.367395E-03
      0.245000          0.356011E-03
      0.250000          0.343091E-03
      0.255000          0.329025E-03
      0.260000          0.314206E-03
      0.265000          0.299005E-03
      0.270000          0.283764E-03
      0.275000          0.268776E-03
      0.280000          0.254288E-03
      0.285000          0.240492E-03
      0.290000          0.227530E-03
      0.295000          0.215492E-03
      0.300000          0.204428E-03
      0.305000          0.194349E-03
      0.310000          0.185236E-03
      0.315000          0.177048E-03
      0.320000          0.169729E-03
      0.325000          0.163213E-03
      0.330000          0.157430E-03
      0.335000          0.152311E-03
      0.340000          0.147790E-03
      0.345000          0.143805E-03
      0.350000          0.140299E-03
      0.355000          0.137223E-03
      0.360000          0.134531E-03
      0.365000          0.132181E-03
      0.370000          0.130133E-03
      0.375000          0.128352E-03
      0.380000          0.126801E-03
      0.385000          0.125444E-03
      0.390000          0.124246E-03
      0.395000          0.123169E-03
      0.400000          0.122181E-03
      0.405000          0.121246E-03
      0.410000          0.120333E-03
      0.415000          0.119412E-03
      0.420000          0.118458E-03
      0.425000          0.117448E-03
      0.430000          0.116366E-03
      0.435000          0.115201E-03
      0.440000          0.113944E-03
      0.445000          0.112593E-03
      0.450000          0.111151E-03
      0.455000          0.109623E-03
      0.460000          0.108020E-03
      0.465000          0.106352E-03
      0.470000          0.104633E-03
      0.475000          0.102878E-03
      0.480000          0.101104E-03
      0.485000          0.993248E-04
      0.490000          0.975568E-04
      0.495000          0.958148E-04
      0.500000          0.941132E-04
