 I_abs(s)[cm^-1]/c[mg/ml]
       0.00000          0.146002E-01
      0.500000E-02      0.145483E-01
      0.100000E-01      0.143937E-01
      0.150000E-01      0.141400E-01
      0.200000E-01      0.137927E-01
      0.250000E-01      0.133594E-01
      0.300000E-01      0.128494E-01
      0.350000E-01      0.122733E-01
      0.400000E-01      0.116426E-01
      0.450000E-01      0.109697E-01
      0.500000E-01      0.102669E-01
      0.550000E-01      0.954643E-02
      0.600000E-01      0.882002E-02
      0.650000E-01      0.809857E-02
      0.700000E-01      0.739184E-02
      0.750000E-01      0.670837E-02
      0.800000E-01      0.605524E-02
      0.850000E-01      0.543807E-02
      0.900000E-01      0.486102E-02
      0.950000E-01      0.432679E-02
      0.100000          0.383680E-02
      0.105000          0.339126E-02
      0.110000          0.298939E-02
      0.115000          0.262956E-02
      0.120000          0.230955E-02
      0.125000          0.202664E-02
      0.130000          0.177786E-02
      0.135000          0.156010E-02
      0.140000          0.137027E-02
      0.145000          0.120535E-02
      0.150000          0.106253E-02
      0.155000          0.939196E-03
      0.160000          0.832989E-03
      0.165000          0.741802E-03
      0.170000          0.663767E-03
      0.175000          0.597231E-03
      0.180000          0.540735E-03
      0.185000          0.492979E-03
      0.190000          0.452797E-03
      0.195000          0.419129E-03
      0.200000          0.391006E-03
      0.205000          0.367534E-03
      0.210000          0.347892E-03
      0.215000          0.331326E-03
      0.220000          0.317152E-03
      0.225000          0.304765E-03
      0.230000          0.293644E-03
      0.235000          0.283355E-03
      0.240000          0.273559E-03
      0.245000          0.264006E-03
      0.250000          0.254538E-03
      0.255000          0.245082E-03
      0.260000          0.235633E-03
      0.265000          0.226248E-03
      0.270000          0.217027E-03
      0.275000          0.208097E-03
      0.280000          0.199597E-03
      0.285000          0.191660E-03
      0.290000          0.184403E-03
      0.295000          0.177916E-03
      0.300000          0.172254E-03
      0.305000          0.167433E-03
      0.310000          0.163431E-03
      0.315000          0.160189E-03
      0.320000          0.157621E-03
      0.325000          0.155613E-03
      0.330000          0.154039E-03
      0.335000          0.152765E-03
      0.340000          0.151661E-03
      0.345000          0.150606E-03
      0.350000          0.149494E-03
      0.355000          0.148242E-03
      0.360000          0.146789E-03
      0.365000          0.145099E-03
      0.370000          0.143160E-03
      0.375000          0.140982E-03
      0.380000          0.138593E-03
      0.385000          0.136037E-03
      0.390000          0.133364E-03
      0.395000          0.130633E-03
      0.400000          0.127901E-03
      0.405000          0.125226E-03
      0.410000          0.122655E-03
      0.415000          0.120232E-03
      0.420000          0.117987E-03
      0.425000          0.115943E-03
      0.430000          0.114113E-03
      0.435000          0.112501E-03
      0.440000          0.111100E-03
      0.445000          0.109902E-03
      0.450000          0.108890E-03
      0.455000          0.108047E-03
      0.460000          0.107353E-03
      0.465000          0.106787E-03
      0.470000          0.106331E-03
      0.475000          0.105966E-03
      0.480000          0.105676E-03
      0.485000          0.105447E-03
      0.490000          0.105266E-03
      0.495000          0.105120E-03
      0.500000          0.104999E-03
