 I_abs(s)[cm^-1]/c[mg/ml]
       0.00000          0.138241E-01
      0.500000E-02      0.137607E-01
      0.100000E-01      0.135723E-01
      0.150000E-01      0.132648E-01
      0.200000E-01      0.128476E-01
      0.250000E-01      0.123333E-01
      0.300000E-01      0.117369E-01
      0.350000E-01      0.110751E-01
      0.400000E-01      0.103660E-01
      0.450000E-01      0.962761E-02
      0.500000E-01      0.887746E-02
      0.550000E-01      0.813198E-02
      0.600000E-01      0.740573E-02
      0.650000E-01      0.671105E-02
      0.700000E-01      0.605774E-02
      0.750000E-01      0.545288E-02
      0.800000E-01      0.490091E-02
      0.850000E-01      0.440371E-02
      0.900000E-01      0.396090E-02
      0.950000E-01      0.357021E-02
      0.100000          0.322786E-02
      0.105000          0.292903E-02
      0.110000          0.266827E-02
      0.115000          0.243996E-02
      0.120000          0.223860E-02
      0.125000          0.205913E-02
      0.130000          0.189716E-02
      0.135000          0.174902E-02
      0.140000          0.161188E-02
      0.145000          0.148368E-02
      0.150000          0.136309E-02
      0.155000          0.124936E-02
      0.160000          0.114221E-02
      0.165000          0.104166E-02
      0.170000          0.947904E-03
      0.175000          0.861182E-03
      0.180000          0.781678E-03
      0.185000          0.709458E-03
      0.190000          0.644432E-03
      0.195000          0.586338E-03
      0.200000          0.534768E-03
      0.205000          0.489189E-03
      0.210000          0.448994E-03
      0.215000          0.413546E-03
      0.220000          0.382223E-03
      0.225000          0.354455E-03
      0.230000          0.329753E-03
      0.235000          0.307720E-03
      0.240000          0.288056E-03
      0.245000          0.270548E-03
      0.250000          0.255051E-03
      0.255000          0.241467E-03
      0.260000          0.229719E-03
      0.265000          0.219730E-03
      0.270000          0.211399E-03
      0.275000          0.204593E-03
      0.280000          0.199137E-03
      0.285000          0.194817E-03
      0.290000          0.191387E-03
      0.295000          0.188585E-03
      0.300000          0.186147E-03
      0.305000          0.183822E-03
      0.310000          0.181398E-03
      0.315000          0.178704E-03
      0.320000          0.175632E-03
      0.325000          0.172131E-03
      0.330000          0.168214E-03
      0.335000          0.163947E-03
      0.340000          0.159441E-03
      0.345000          0.154836E-03
      0.350000          0.150287E-03
      0.355000          0.145947E-03
      0.360000          0.141951E-03
      0.365000          0.138405E-03
      0.370000          0.135376E-03
      0.375000          0.132888E-03
      0.380000          0.130916E-03
      0.385000          0.129396E-03
      0.390000          0.128227E-03
      0.395000          0.127284E-03
      0.400000          0.126424E-03
      0.405000          0.125504E-03
      0.410000          0.124387E-03
      0.415000          0.122957E-03
      0.420000          0.121124E-03
      0.425000          0.118834E-03
      0.430000          0.116065E-03
      0.435000          0.112835E-03
      0.440000          0.109195E-03
      0.445000          0.105223E-03
      0.450000          0.101020E-03
      0.455000          0.967031E-04
      0.460000          0.923918E-04
      0.465000          0.882053E-04
      0.470000          0.842521E-04
      0.475000          0.806250E-04
      0.480000          0.773960E-04
      0.485000          0.746136E-04
      0.490000          0.723016E-04
      0.495000          0.704599E-04
      0.500000          0.690669E-04
