 I_abs(s)[cm^-1]/c[mg/ml]
       0.00000          0.135701E-01
      0.500000E-02      0.135126E-01
      0.100000E-01      0.133417E-01
      0.150000E-01      0.130614E-01
      0.200000E-01      0.126790E-01
      0.250000E-01      0.122037E-01
      0.300000E-01      0.116471E-01
      0.350000E-01      0.110222E-01
      0.400000E-01      0.103434E-01
      0.450000E-01      0.962559E-02
      0.500000E-01      0.888390E-02
      0.550000E-01      0.813314E-02
      0.600000E-01      0.738731E-02
      0.650000E-01      0.665921E-02
      0.700000E-01      0.596015E-02
      0.750000E-01      0.529964E-02
      0.800000E-01      0.468529E-02
      0.850000E-01      0.412264E-02
      0.900000E-01      0.361526E-02
      0.950000E-01      0.316477E-02
      0.100000          0.277102E-02
      0.105000          0.243229E-02
      0.110000          0.214554E-02
      0.115000          0.190665E-02
      0.120000          0.171078E-02
      0.125000          0.155256E-02
      0.130000          0.142642E-02
      0.135000          0.132682E-02
      0.140000          0.124841E-02
      0.145000          0.118625E-02
      0.150000          0.113594E-02
      0.155000          0.109363E-02
      0.160000          0.105616E-02
      0.165000          0.102101E-02
      0.170000          0.986261E-03
      0.175000          0.950615E-03
      0.180000          0.913270E-03
      0.185000          0.873869E-03
      0.190000          0.832410E-03
      0.195000          0.789162E-03
      0.200000          0.744587E-03
      0.205000          0.699265E-03
      0.210000          0.653832E-03
      0.215000          0.608927E-03
      0.220000          0.565151E-03
      0.225000          0.523039E-03
      0.230000          0.483036E-03
      0.235000          0.445492E-03
      0.240000          0.410654E-03
      0.245000          0.378674E-03
      0.250000          0.349611E-03
      0.255000          0.323446E-03
      0.260000          0.300091E-03
      0.265000          0.279405E-03
      0.270000          0.261204E-03
      0.275000          0.245274E-03
      0.280000          0.231383E-03
      0.285000          0.219293E-03
      0.290000          0.208765E-03
      0.295000          0.199569E-03
      0.300000          0.191491E-03
      0.305000          0.184336E-03
      0.310000          0.177931E-03
      0.315000          0.172129E-03
      0.320000          0.166810E-03
      0.325000          0.161876E-03
      0.330000          0.157258E-03
      0.335000          0.152905E-03
      0.340000          0.148787E-03
      0.345000          0.144890E-03
      0.350000          0.141209E-03
      0.355000          0.137746E-03
      0.360000          0.134508E-03
      0.365000          0.131499E-03
      0.370000          0.128722E-03
      0.375000          0.126172E-03
      0.380000          0.123838E-03
      0.385000          0.121699E-03
      0.390000          0.119728E-03
      0.395000          0.117892E-03
      0.400000          0.116151E-03
      0.405000          0.114464E-03
      0.410000          0.112790E-03
      0.415000          0.111090E-03
      0.420000          0.109331E-03
      0.425000          0.107484E-03
      0.430000          0.105532E-03
      0.435000          0.103467E-03
      0.440000          0.101289E-03
      0.445000          0.990113E-04
      0.450000          0.966533E-04
      0.455000          0.942435E-04
      0.460000          0.918160E-04
      0.465000          0.894088E-04
      0.470000          0.870617E-04
      0.475000          0.848137E-04
      0.480000          0.827015E-04
      0.485000          0.807575E-04
      0.490000          0.790083E-04
      0.495000          0.774737E-04
      0.500000          0.761661E-04
