 I_abs(s)[cm^-1]/c[mg/ml]
       0.00000          0.138009E-01
      0.500000E-02      0.137396E-01
      0.100000E-01      0.135574E-01
      0.150000E-01      0.132596E-01
      0.200000E-01      0.128545E-01
      0.250000E-01      0.123532E-01
      0.300000E-01      0.117695E-01
      0.350000E-01      0.111185E-01
      0.400000E-01      0.104167E-01
      0.450000E-01      0.968087E-02
      0.500000E-01      0.892766E-02
      0.550000E-01      0.817286E-02
      0.600000E-01      0.743093E-02
      0.650000E-01      0.671453E-02
      0.700000E-01      0.603420E-02
      0.750000E-01      0.539821E-02
      0.800000E-01      0.481243E-02
      0.850000E-01      0.428041E-02
      0.900000E-01      0.380352E-02
      0.950000E-01      0.338119E-02
      0.100000          0.301122E-02
      0.105000          0.269011E-02
      0.110000          0.241341E-02
      0.115000          0.217612E-02
      0.120000          0.197296E-02
      0.125000          0.179871E-02
      0.130000          0.164840E-02
      0.135000          0.151754E-02
      0.140000          0.140220E-02
      0.145000          0.129910E-02
      0.150000          0.120560E-02
      0.155000          0.111967E-02
      0.160000          0.103985E-02
      0.165000          0.965151E-03
      0.170000          0.894939E-03
      0.175000          0.828872E-03
      0.180000          0.766792E-03
      0.185000          0.708650E-03
      0.190000          0.654443E-03
      0.195000          0.604170E-03
      0.200000          0.557803E-03
      0.205000          0.515273E-03
      0.210000          0.476469E-03
      0.215000          0.441242E-03
      0.220000          0.409418E-03
      0.225000          0.380809E-03
      0.230000          0.355226E-03
      0.235000          0.332484E-03
      0.240000          0.312409E-03
      0.245000          0.294835E-03
      0.250000          0.279602E-03
      0.255000          0.266552E-03
      0.260000          0.255517E-03
      0.265000          0.246316E-03
      0.270000          0.238748E-03
      0.275000          0.232592E-03
      0.280000          0.227608E-03
      0.285000          0.223540E-03
      0.290000          0.220125E-03
      0.295000          0.217105E-03
      0.300000          0.214233E-03
      0.305000          0.211292E-03
      0.310000          0.208098E-03
      0.315000          0.204513E-03
      0.320000          0.200447E-03
      0.325000          0.195861E-03
      0.330000          0.190763E-03
      0.335000          0.185204E-03
      0.340000          0.179270E-03
      0.345000          0.173069E-03
      0.350000          0.166723E-03
      0.355000          0.160356E-03
      0.360000          0.154082E-03
      0.365000          0.147999E-03
      0.370000          0.142184E-03
      0.375000          0.136686E-03
      0.380000          0.131532E-03
      0.385000          0.126723E-03
      0.390000          0.122243E-03
      0.395000          0.118063E-03
      0.400000          0.114147E-03
      0.405000          0.110460E-03
      0.410000          0.106971E-03
      0.415000          0.103661E-03
      0.420000          0.100520E-03
      0.425000          0.975554E-04
      0.430000          0.947830E-04
      0.435000          0.922293E-04
      0.440000          0.899257E-04
      0.445000          0.879040E-04
      0.450000          0.861917E-04
      0.455000          0.848071E-04
      0.460000          0.837556E-04
      0.465000          0.830275E-04
      0.470000          0.825968E-04
      0.475000          0.824214E-04
      0.480000          0.824459E-04
      0.485000          0.826044E-04
      0.490000          0.828249E-04
      0.495000          0.830346E-04
      0.500000          0.831646E-04
