 I_abs(s)[cm^-1]/c[mg/ml]
       0.00000          0.140025E-01
      0.500000E-02      0.139485E-01
      0.100000E-01      0.137880E-01
      0.150000E-01      0.135246E-01
      0.200000E-01      0.131650E-01
      0.250000E-01      0.127176E-01
      0.300000E-01      0.121928E-01
      0.350000E-01      0.116026E-01
      0.400000E-01      0.109599E-01
      0.450000E-01      0.102783E-01
      0.500000E-01      0.957139E-02
      0.550000E-01      0.885263E-02
      0.600000E-01      0.813460E-02
      0.650000E-01      0.742883E-02
      0.700000E-01      0.674549E-02
      0.750000E-01      0.609315E-02
      0.800000E-01      0.547866E-02
      0.850000E-01      0.490709E-02
      0.900000E-01      0.438176E-02
      0.950000E-01      0.390434E-02
      0.100000          0.347496E-02
      0.105000          0.309245E-02
      0.110000          0.275456E-02
      0.115000          0.245819E-02
      0.120000          0.219963E-02
      0.125000          0.197485E-02
      0.130000          0.177965E-02
      0.135000          0.160991E-02
      0.140000          0.146174E-02
      0.145000          0.133156E-02
      0.150000          0.121625E-02
      0.155000          0.111312E-02
      0.160000          0.101999E-02
      0.165000          0.935126E-03
      0.170000          0.857240E-03
      0.175000          0.785399E-03
      0.180000          0.718984E-03
      0.185000          0.657611E-03
      0.190000          0.601066E-03
      0.195000          0.549241E-03
      0.200000          0.502082E-03
      0.205000          0.459541E-03
      0.210000          0.421547E-03
      0.215000          0.387985E-03
      0.220000          0.358683E-03
      0.225000          0.333410E-03
      0.230000          0.311884E-03
      0.235000          0.293778E-03
      0.240000          0.278738E-03
      0.245000          0.266392E-03
      0.250000          0.256366E-03
      0.255000          0.248299E-03
      0.260000          0.241848E-03
      0.265000          0.236698E-03
      0.270000          0.232567E-03
      0.275000          0.229205E-03
      0.280000          0.226397E-03
      0.285000          0.223961E-03
      0.290000          0.221740E-03
      0.295000          0.219606E-03
      0.300000          0.217450E-03
      0.305000          0.215184E-03
      0.310000          0.212735E-03
      0.315000          0.210043E-03
      0.320000          0.207065E-03
      0.325000          0.203766E-03
      0.330000          0.200126E-03
      0.335000          0.196137E-03
      0.340000          0.191803E-03
      0.345000          0.187140E-03
      0.350000          0.182176E-03
      0.355000          0.176951E-03
      0.360000          0.171513E-03
      0.365000          0.165919E-03
      0.370000          0.160231E-03
      0.375000          0.154514E-03
      0.380000          0.148836E-03
      0.385000          0.143260E-03
      0.390000          0.137848E-03
      0.395000          0.132654E-03
      0.400000          0.127723E-03
      0.405000          0.123093E-03
      0.410000          0.118792E-03
      0.415000          0.114833E-03
      0.420000          0.111225E-03
      0.425000          0.107962E-03
      0.430000          0.105031E-03
      0.435000          0.102412E-03
      0.440000          0.100077E-03
      0.445000          0.979945E-04
      0.450000          0.961302E-04
      0.455000          0.944480E-04
      0.460000          0.929123E-04
      0.465000          0.914895E-04
      0.470000          0.901488E-04
      0.475000          0.888633E-04
      0.480000          0.876112E-04
      0.485000          0.863757E-04
      0.490000          0.851453E-04
      0.495000          0.839140E-04
      0.500000          0.826805E-04
