 I_abs(s)[cm^-1]/c[mg/ml]
       0.00000          0.145288E-01
      0.500000E-02      0.144788E-01
      0.100000E-01      0.143301E-01
      0.150000E-01      0.140858E-01
      0.200000E-01      0.137515E-01
      0.250000E-01      0.133344E-01
      0.300000E-01      0.128433E-01
      0.350000E-01      0.122884E-01
      0.400000E-01      0.116809E-01
      0.450000E-01      0.110323E-01
      0.500000E-01      0.103545E-01
      0.550000E-01      0.965922E-02
      0.600000E-01      0.895754E-02
      0.650000E-01      0.825984E-02
      0.700000E-01      0.757541E-02
      0.750000E-01      0.691232E-02
      0.800000E-01      0.627730E-02
      0.850000E-01      0.567565E-02
      0.900000E-01      0.511132E-02
      0.950000E-01      0.458688E-02
      0.100000          0.410365E-02
      0.105000          0.366188E-02
      0.110000          0.326084E-02
      0.115000          0.289905E-02
      0.120000          0.257441E-02
      0.125000          0.228444E-02
      0.130000          0.202637E-02
      0.135000          0.179732E-02
      0.140000          0.159444E-02
      0.145000          0.141493E-02
      0.150000          0.125622E-02
      0.155000          0.111591E-02
      0.160000          0.991859E-03
      0.165000          0.882181E-03
      0.170000          0.785221E-03
      0.175000          0.699550E-03
      0.180000          0.623936E-03
      0.185000          0.557315E-03
      0.190000          0.498759E-03
      0.195000          0.447453E-03
      0.200000          0.402669E-03
      0.205000          0.363745E-03
      0.210000          0.330070E-03
      0.215000          0.301077E-03
      0.220000          0.276232E-03
      0.225000          0.255037E-03
      0.230000          0.237025E-03
      0.235000          0.221762E-03
      0.240000          0.208854E-03
      0.245000          0.197944E-03
      0.250000          0.188714E-03
      0.255000          0.180888E-03
      0.260000          0.174232E-03
      0.265000          0.168549E-03
      0.270000          0.163677E-03
      0.275000          0.159487E-03
      0.280000          0.155878E-03
      0.285000          0.152769E-03
      0.290000          0.150098E-03
      0.295000          0.147813E-03
      0.300000          0.145874E-03
      0.305000          0.144239E-03
      0.310000          0.142872E-03
      0.315000          0.141733E-03
      0.320000          0.140781E-03
      0.325000          0.139970E-03
      0.330000          0.139253E-03
      0.335000          0.138581E-03
      0.340000          0.137906E-03
      0.345000          0.137181E-03
      0.350000          0.136361E-03
      0.355000          0.135409E-03
      0.360000          0.134295E-03
      0.365000          0.132997E-03
      0.370000          0.131503E-03
      0.375000          0.129812E-03
      0.380000          0.127930E-03
      0.385000          0.125874E-03
      0.390000          0.123670E-03
      0.395000          0.121346E-03
      0.400000          0.118939E-03
      0.405000          0.116483E-03
      0.410000          0.114015E-03
      0.415000          0.111570E-03
      0.420000          0.109177E-03
      0.425000          0.106861E-03
      0.430000          0.104642E-03
      0.435000          0.102530E-03
      0.440000          0.100534E-03
      0.445000          0.986511E-04
      0.450000          0.968783E-04
      0.455000          0.952063E-04
      0.460000          0.936239E-04
      0.465000          0.921188E-04
      0.470000          0.906786E-04
      0.475000          0.892926E-04
      0.480000          0.879518E-04
      0.485000          0.866503E-04
      0.490000          0.853852E-04
      0.495000          0.841564E-04
      0.500000          0.829669E-04
