 I_abs(s)[cm^-1]/c[mg/ml]
       0.00000          0.144812E-01
      0.500000E-02      0.144283E-01
      0.100000E-01      0.142708E-01
      0.150000E-01      0.140123E-01
      0.200000E-01      0.136591E-01
      0.250000E-01      0.132191E-01
      0.300000E-01      0.127023E-01
      0.350000E-01      0.121201E-01
      0.400000E-01      0.114848E-01
      0.450000E-01      0.108093E-01
      0.500000E-01      0.101066E-01
      0.550000E-01      0.938956E-02
      0.600000E-01      0.867024E-02
      0.650000E-01      0.795975E-02
      0.700000E-01      0.726790E-02
      0.750000E-01      0.660308E-02
      0.800000E-01      0.597204E-02
      0.850000E-01      0.537992E-02
      0.900000E-01      0.483023E-02
      0.950000E-01      0.432492E-02
      0.100000          0.386457E-02
      0.105000          0.344853E-02
      0.110000          0.307515E-02
      0.115000          0.274197E-02
      0.120000          0.244599E-02
      0.125000          0.218386E-02
      0.130000          0.195206E-02
      0.135000          0.174712E-02
      0.140000          0.156571E-02
      0.145000          0.140476E-02
      0.150000          0.126155E-02
      0.155000          0.113369E-02
      0.160000          0.101921E-02
      0.165000          0.916460E-03
      0.170000          0.824141E-03
      0.175000          0.741216E-03
      0.180000          0.666869E-03
      0.185000          0.600453E-03
      0.190000          0.541429E-03
      0.195000          0.489326E-03
      0.200000          0.443698E-03
      0.205000          0.404099E-03
      0.210000          0.370063E-03
      0.215000          0.341100E-03
      0.220000          0.316692E-03
      0.225000          0.296301E-03
      0.230000          0.279381E-03
      0.235000          0.265392E-03
      0.240000          0.253813E-03
      0.245000          0.244160E-03
      0.250000          0.235990E-03
      0.255000          0.228917E-03
      0.260000          0.222613E-03
      0.265000          0.216809E-03
      0.270000          0.211297E-03
      0.275000          0.205924E-03
      0.280000          0.200586E-03
      0.285000          0.195220E-03
      0.290000          0.189798E-03
      0.295000          0.184320E-03
      0.300000          0.178804E-03
      0.305000          0.173280E-03
      0.310000          0.167789E-03
      0.315000          0.162373E-03
      0.320000          0.157078E-03
      0.325000          0.151945E-03
      0.330000          0.147015E-03
      0.335000          0.142323E-03
      0.340000          0.137901E-03
      0.345000          0.133775E-03
      0.350000          0.129964E-03
      0.355000          0.126480E-03
      0.360000          0.123332E-03
      0.365000          0.120516E-03
      0.370000          0.118024E-03
      0.375000          0.115839E-03
      0.380000          0.113937E-03
      0.385000          0.112287E-03
      0.390000          0.110852E-03
      0.395000          0.109594E-03
      0.400000          0.108469E-03
      0.405000          0.107437E-03
      0.410000          0.106456E-03
      0.415000          0.105493E-03
      0.420000          0.104517E-03
      0.425000          0.103507E-03
      0.430000          0.102449E-03
      0.435000          0.101340E-03
      0.440000          0.100183E-03
      0.445000          0.989904E-04
      0.450000          0.977817E-04
      0.455000          0.965807E-04
      0.460000          0.954141E-04
      0.465000          0.943097E-04
      0.470000          0.932935E-04
      0.475000          0.923881E-04
      0.480000          0.916110E-04
      0.485000          0.909727E-04
      0.490000          0.904764E-04
      0.495000          0.901170E-04
      0.500000          0.898819E-04
