 I_abs(s)[cm^-1]/c[mg/ml]
       0.00000          0.134021E-01
      0.500000E-02      0.133350E-01
      0.100000E-01      0.131358E-01
      0.150000E-01      0.128110E-01
      0.200000E-01      0.123712E-01
      0.250000E-01      0.118303E-01
      0.300000E-01      0.112051E-01
      0.350000E-01      0.105141E-01
      0.400000E-01      0.977732E-02
      0.450000E-01      0.901460E-02
      0.500000E-01      0.824531E-02
      0.550000E-01      0.748731E-02
      0.600000E-01      0.675636E-02
      0.650000E-01      0.606560E-02
      0.700000E-01      0.542520E-02
      0.750000E-01      0.484223E-02
      0.800000E-01      0.432065E-02
      0.850000E-01      0.386154E-02
      0.900000E-01      0.346335E-02
      0.950000E-01      0.312241E-02
      0.100000          0.283335E-02
      0.105000          0.258972E-02
      0.110000          0.238443E-02
      0.115000          0.221028E-02
      0.120000          0.206042E-02
      0.125000          0.192863E-02
      0.130000          0.180961E-02
      0.135000          0.169914E-02
      0.140000          0.159407E-02
      0.145000          0.149235E-02
      0.150000          0.139290E-02
      0.155000          0.129543E-02
      0.160000          0.120029E-02
      0.165000          0.110820E-02
      0.170000          0.102013E-02
      0.175000          0.937050E-03
      0.180000          0.859835E-03
      0.185000          0.789121E-03
      0.190000          0.725257E-03
      0.195000          0.668277E-03
      0.200000          0.617917E-03
      0.205000          0.573648E-03
      0.210000          0.534752E-03
      0.215000          0.500385E-03
      0.220000          0.469665E-03
      0.225000          0.441740E-03
      0.230000          0.415849E-03
      0.235000          0.391370E-03
      0.240000          0.367844E-03
      0.245000          0.344987E-03
      0.250000          0.322680E-03
      0.255000          0.300950E-03
      0.260000          0.279935E-03
      0.265000          0.259849E-03
      0.270000          0.240939E-03
      0.275000          0.223456E-03
      0.280000          0.207617E-03
      0.285000          0.193583E-03
      0.290000          0.181445E-03
      0.295000          0.171218E-03
      0.300000          0.162838E-03
      0.305000          0.156178E-03
      0.310000          0.151054E-03
      0.315000          0.147245E-03
      0.320000          0.144510E-03
      0.325000          0.142604E-03
      0.330000          0.141291E-03
      0.335000          0.140357E-03
      0.340000          0.139618E-03
      0.345000          0.138924E-03
      0.350000          0.138158E-03
      0.355000          0.137237E-03
      0.360000          0.136108E-03
      0.365000          0.134741E-03
      0.370000          0.133126E-03
      0.375000          0.131266E-03
      0.380000          0.129176E-03
      0.385000          0.126876E-03
      0.390000          0.124390E-03
      0.395000          0.121745E-03
      0.400000          0.118970E-03
      0.405000          0.116097E-03
      0.410000          0.113158E-03
      0.415000          0.110188E-03
      0.420000          0.107226E-03
      0.425000          0.104308E-03
      0.430000          0.101475E-03
      0.435000          0.987637E-04
      0.440000          0.962099E-04
      0.445000          0.938445E-04
      0.450000          0.916926E-04
      0.455000          0.897719E-04
      0.460000          0.880920E-04
      0.465000          0.866538E-04
      0.470000          0.854497E-04
      0.475000          0.844641E-04
      0.480000          0.836749E-04
      0.485000          0.830547E-04
      0.490000          0.825725E-04
      0.495000          0.821960E-04
      0.500000          0.818929E-04
