 I_abs(s)[cm^-1]/c[mg/ml]
       0.00000          0.146161E-01
      0.500000E-02      0.145675E-01
      0.100000E-01      0.144229E-01
      0.150000E-01      0.141853E-01
      0.200000E-01      0.138597E-01
      0.250000E-01      0.134528E-01
      0.300000E-01      0.129731E-01
      0.350000E-01      0.124298E-01
      0.400000E-01      0.118336E-01
      0.450000E-01      0.111953E-01
      0.500000E-01      0.105261E-01
      0.550000E-01      0.983728E-02
      0.600000E-01      0.913942E-02
      0.650000E-01      0.844256E-02
      0.700000E-01      0.775582E-02
      0.750000E-01      0.708722E-02
      0.800000E-01      0.644358E-02
      0.850000E-01      0.583044E-02
      0.900000E-01      0.525206E-02
      0.950000E-01      0.471145E-02
      0.100000          0.421045E-02
      0.105000          0.374981E-02
      0.110000          0.332940E-02
      0.115000          0.294827E-02
      0.120000          0.260485E-02
      0.125000          0.229714E-02
      0.130000          0.202276E-02
      0.135000          0.177917E-02
      0.140000          0.156375E-02
      0.145000          0.137389E-02
      0.150000          0.120705E-02
      0.155000          0.106084E-02
      0.160000          0.933031E-03
      0.165000          0.821595E-03
      0.170000          0.724678E-03
      0.175000          0.640617E-03
      0.180000          0.567918E-03
      0.185000          0.505244E-03
      0.190000          0.451396E-03
      0.195000          0.405296E-03
      0.200000          0.365971E-03
      0.205000          0.332543E-03
      0.210000          0.304217E-03
      0.215000          0.280276E-03
      0.220000          0.260075E-03
      0.225000          0.243039E-03
      0.230000          0.228659E-03
      0.235000          0.216491E-03
      0.240000          0.206157E-03
      0.245000          0.197332E-03
      0.250000          0.189752E-03
      0.255000          0.183198E-03
      0.260000          0.177495E-03
      0.265000          0.172506E-03
      0.270000          0.168121E-03
      0.275000          0.164252E-03
      0.280000          0.160826E-03
      0.285000          0.157781E-03
      0.290000          0.155061E-03
      0.295000          0.152609E-03
      0.300000          0.150371E-03
      0.305000          0.148292E-03
      0.310000          0.146316E-03
      0.315000          0.144391E-03
      0.320000          0.142465E-03
      0.325000          0.140495E-03
      0.330000          0.138442E-03
      0.335000          0.136279E-03
      0.340000          0.133990E-03
      0.345000          0.131568E-03
      0.350000          0.129020E-03
      0.355000          0.126363E-03
      0.360000          0.123622E-03
      0.365000          0.120834E-03
      0.370000          0.118036E-03
      0.375000          0.115272E-03
      0.380000          0.112584E-03
      0.385000          0.110012E-03
      0.390000          0.107592E-03
      0.395000          0.105354E-03
      0.400000          0.103317E-03
      0.405000          0.101495E-03
      0.410000          0.998913E-04
      0.415000          0.984985E-04
      0.420000          0.973027E-04
      0.425000          0.962824E-04
      0.430000          0.954100E-04
      0.435000          0.946543E-04
      0.440000          0.939818E-04
      0.445000          0.933586E-04
      0.450000          0.927525E-04
      0.455000          0.921346E-04
      0.460000          0.914801E-04
      0.465000          0.907701E-04
      0.470000          0.899918E-04
      0.475000          0.891390E-04
      0.480000          0.882119E-04
      0.485000          0.872169E-04
      0.490000          0.861657E-04
      0.495000          0.850747E-04
      0.500000          0.839634E-04
