 I_abs(s)[cm^-1]/c[mg/ml]
       0.00000          0.133261E-01
      0.500000E-02      0.132529E-01
      0.100000E-01      0.130361E-01
      0.150000E-01      0.126834E-01
      0.200000E-01      0.122073E-01
      0.250000E-01      0.116245E-01
      0.300000E-01      0.109546E-01
      0.350000E-01      0.102197E-01
      0.400000E-01      0.944262E-02
      0.450000E-01      0.864641E-02
      0.500000E-01      0.785284E-02
      0.550000E-01      0.708168E-02
      0.600000E-01      0.634983E-02
      0.650000E-01      0.567080E-02
      0.700000E-01      0.505437E-02
      0.750000E-01      0.450645E-02
      0.800000E-01      0.402926E-02
      0.850000E-01      0.362162E-02
      0.900000E-01      0.327943E-02
      0.950000E-01      0.299631E-02
      0.100000          0.276426E-02
      0.105000          0.257436E-02
      0.110000          0.241742E-02
      0.115000          0.228460E-02
      0.120000          0.216787E-02
      0.125000          0.206043E-02
      0.130000          0.195689E-02
      0.135000          0.185339E-02
      0.140000          0.174761E-02
      0.145000          0.163859E-02
      0.150000          0.152655E-02
      0.155000          0.141262E-02
      0.160000          0.129854E-02
      0.165000          0.118640E-02
      0.170000          0.107834E-02
      0.175000          0.976342E-03
      0.180000          0.882039E-03
      0.185000          0.796623E-03
      0.190000          0.720773E-03
      0.195000          0.654658E-03
      0.200000          0.597979E-03
      0.205000          0.550046E-03
      0.210000          0.509881E-03
      0.215000          0.476325E-03
      0.220000          0.448143E-03
      0.225000          0.424128E-03
      0.230000          0.403173E-03
      0.235000          0.384330E-03
      0.240000          0.366846E-03
      0.245000          0.350174E-03
      0.250000          0.333963E-03
      0.255000          0.318039E-03
      0.260000          0.302371E-03
      0.265000          0.287032E-03
      0.270000          0.272159E-03
      0.275000          0.257920E-03
      0.280000          0.244480E-03
      0.285000          0.231980E-03
      0.290000          0.220520E-03
      0.295000          0.210154E-03
      0.300000          0.200884E-03
      0.305000          0.192670E-03
      0.310000          0.185432E-03
      0.315000          0.179063E-03
      0.320000          0.173440E-03
      0.325000          0.168431E-03
      0.330000          0.163903E-03
      0.335000          0.159732E-03
      0.340000          0.155806E-03
      0.345000          0.152025E-03
      0.350000          0.148308E-03
      0.355000          0.144591E-03
      0.360000          0.140826E-03
      0.365000          0.136984E-03
      0.370000          0.133050E-03
      0.375000          0.129025E-03
      0.380000          0.124922E-03
      0.385000          0.120768E-03
      0.390000          0.116599E-03
      0.395000          0.112459E-03
      0.400000          0.108398E-03
      0.405000          0.104465E-03
      0.410000          0.100709E-03
      0.415000          0.971765E-04
      0.420000          0.939026E-04
      0.425000          0.909149E-04
      0.430000          0.882285E-04
      0.435000          0.858467E-04
      0.440000          0.837605E-04
      0.445000          0.819502E-04
      0.450000          0.803873E-04
      0.455000          0.790372E-04
      0.460000          0.778620E-04
      0.465000          0.768236E-04
      0.470000          0.758863E-04
      0.475000          0.750190E-04
      0.480000          0.741966E-04
      0.485000          0.734012E-04
      0.490000          0.726214E-04
      0.495000          0.718518E-04
      0.500000          0.710919E-04
