 I_abs(s)[cm^-1]/c[mg/ml]
       0.00000          0.142998E-01
      0.500000E-02      0.142334E-01
      0.100000E-01      0.140363E-01
      0.150000E-01      0.137150E-01
      0.200000E-01      0.132800E-01
      0.250000E-01      0.127449E-01
      0.300000E-01      0.121262E-01
      0.350000E-01      0.114419E-01
      0.400000E-01      0.107108E-01
      0.450000E-01      0.995189E-02
      0.500000E-01      0.918293E-02
      0.550000E-01      0.842023E-02
      0.600000E-01      0.767788E-02
      0.650000E-01      0.696746E-02
      0.700000E-01      0.629779E-02
      0.750000E-01      0.567498E-02
      0.800000E-01      0.510256E-02
      0.850000E-01      0.458175E-02
      0.900000E-01      0.411184E-02
      0.950000E-01      0.369062E-02
      0.100000          0.331477E-02
      0.105000          0.298030E-02
      0.110000          0.268291E-02
      0.115000          0.241829E-02
      0.120000          0.218232E-02
      0.125000          0.197129E-02
      0.130000          0.178191E-02
      0.135000          0.161141E-02
      0.140000          0.145747E-02
      0.145000          0.131822E-02
      0.150000          0.119212E-02
      0.155000          0.107794E-02
      0.160000          0.974665E-03
      0.165000          0.881452E-03
      0.170000          0.797552E-03
      0.175000          0.722291E-03
      0.180000          0.655043E-03
      0.185000          0.595205E-03
      0.190000          0.542192E-03
      0.195000          0.495434E-03
      0.200000          0.454369E-03
      0.205000          0.418450E-03
      0.210000          0.387143E-03
      0.215000          0.359934E-03
      0.220000          0.336327E-03
      0.225000          0.315855E-03
      0.230000          0.298080E-03
      0.235000          0.282599E-03
      0.240000          0.269048E-03
      0.245000          0.257107E-03
      0.250000          0.246498E-03
      0.255000          0.236990E-03
      0.260000          0.228392E-03
      0.265000          0.220553E-03
      0.270000          0.213352E-03
      0.275000          0.206698E-03
      0.280000          0.200514E-03
      0.285000          0.194740E-03
      0.290000          0.189320E-03
      0.295000          0.184201E-03
      0.300000          0.179330E-03
      0.305000          0.174654E-03
      0.310000          0.170121E-03
      0.315000          0.165683E-03
      0.320000          0.161296E-03
      0.325000          0.156928E-03
      0.330000          0.152556E-03
      0.335000          0.148173E-03
      0.340000          0.143784E-03
      0.345000          0.139406E-03
      0.350000          0.135068E-03
      0.355000          0.130806E-03
      0.360000          0.126657E-03
      0.365000          0.122661E-03
      0.370000          0.118850E-03
      0.375000          0.115252E-03
      0.380000          0.111884E-03
      0.385000          0.108753E-03
      0.390000          0.105853E-03
      0.395000          0.103173E-03
      0.400000          0.100690E-03
      0.405000          0.983811E-04
      0.410000          0.962180E-04
      0.415000          0.941760E-04
      0.420000          0.922343E-04
      0.425000          0.903791E-04
      0.430000          0.886044E-04
      0.435000          0.869132E-04
      0.440000          0.853169E-04
      0.445000          0.838338E-04
      0.450000          0.824873E-04
      0.455000          0.813029E-04
      0.460000          0.803055E-04
      0.465000          0.795160E-04
      0.470000          0.789491E-04
      0.475000          0.786108E-04
      0.480000          0.784974E-04
      0.485000          0.785949E-04
      0.490000          0.788799E-04
      0.495000          0.793210E-04
      0.500000          0.798814E-04
