 I_abs(s)[cm^-1]/c[mg/ml]
       0.00000          0.139326E-01
      0.500000E-02      0.138672E-01
      0.100000E-01      0.136734E-01
      0.150000E-01      0.133572E-01
      0.200000E-01      0.129288E-01
      0.250000E-01      0.124014E-01
      0.300000E-01      0.117910E-01
      0.350000E-01      0.111154E-01
      0.400000E-01      0.103932E-01
      0.450000E-01      0.964338E-02
      0.500000E-01      0.888393E-02
      0.550000E-01      0.813157E-02
      0.600000E-01      0.740095E-02
      0.650000E-01      0.670418E-02
      0.700000E-01      0.605064E-02
      0.750000E-01      0.544684E-02
      0.800000E-01      0.489648E-02
      0.850000E-01      0.440070E-02
      0.900000E-01      0.395840E-02
      0.950000E-01      0.356667E-02
      0.100000          0.322126E-02
      0.105000          0.291709E-02
      0.110000          0.264866E-02
      0.115000          0.241053E-02
      0.120000          0.219760E-02
      0.125000          0.200538E-02
      0.130000          0.183013E-02
      0.135000          0.166897E-02
      0.140000          0.151981E-02
      0.145000          0.138128E-02
      0.150000          0.125261E-02
      0.155000          0.113349E-02
      0.160000          0.102385E-02
      0.165000          0.923754E-03
      0.170000          0.833224E-03
      0.175000          0.752172E-03
      0.180000          0.680321E-03
      0.185000          0.617179E-03
      0.190000          0.562053E-03
      0.195000          0.514088E-03
      0.200000          0.472327E-03
      0.205000          0.435775E-03
      0.210000          0.403476E-03
      0.215000          0.374569E-03
      0.220000          0.348338E-03
      0.225000          0.324244E-03
      0.230000          0.301927E-03
      0.235000          0.281202E-03
      0.240000          0.262031E-03
      0.245000          0.244480E-03
      0.250000          0.228680E-03
      0.255000          0.214773E-03
      0.260000          0.202876E-03
      0.265000          0.193045E-03
      0.270000          0.185248E-03
      0.275000          0.179361E-03
      0.280000          0.175167E-03
      0.285000          0.172373E-03
      0.290000          0.170631E-03
      0.295000          0.169567E-03
      0.300000          0.168812E-03
      0.305000          0.168032E-03
      0.310000          0.166951E-03
      0.315000          0.165371E-03
      0.320000          0.163178E-03
      0.325000          0.160346E-03
      0.330000          0.156927E-03
      0.335000          0.153038E-03
      0.340000          0.148840E-03
      0.345000          0.144520E-03
      0.350000          0.140266E-03
      0.355000          0.136244E-03
      0.360000          0.132590E-03
      0.365000          0.129392E-03
      0.370000          0.126688E-03
      0.375000          0.124464E-03
      0.380000          0.122664E-03
      0.385000          0.121195E-03
      0.390000          0.119942E-03
      0.395000          0.118782E-03
      0.400000          0.117597E-03
      0.405000          0.116286E-03
      0.410000          0.114773E-03
      0.415000          0.113012E-03
      0.420000          0.110992E-03
      0.425000          0.108734E-03
      0.430000          0.106283E-03
      0.435000          0.103705E-03
      0.440000          0.101077E-03
      0.445000          0.984786E-04
      0.450000          0.959823E-04
      0.455000          0.936482E-04
      0.460000          0.915185E-04
      0.465000          0.896146E-04
      0.470000          0.879377E-04
      0.475000          0.864698E-04
      0.480000          0.851784E-04
      0.485000          0.840210E-04
      0.490000          0.829508E-04
      0.495000          0.819227E-04
      0.500000          0.808980E-04
