 I_abs(s)[cm^-1]/c[mg/ml]
       0.00000          0.147356E-01
      0.500000E-02      0.146850E-01
      0.100000E-01      0.145344E-01
      0.150000E-01      0.142872E-01
      0.200000E-01      0.139487E-01
      0.250000E-01      0.135262E-01
      0.300000E-01      0.130287E-01
      0.350000E-01      0.124665E-01
      0.400000E-01      0.118505E-01
      0.450000E-01      0.111928E-01
      0.500000E-01      0.105052E-01
      0.550000E-01      0.979948E-02
      0.600000E-01      0.908702E-02
      0.650000E-01      0.837830E-02
      0.700000E-01      0.768280E-02
      0.750000E-01      0.700875E-02
      0.800000E-01      0.636303E-02
      0.850000E-01      0.575112E-02
      0.900000E-01      0.517706E-02
      0.950000E-01      0.464354E-02
      0.100000          0.415199E-02
      0.105000          0.370268E-02
      0.110000          0.329493E-02
      0.115000          0.292727E-02
      0.120000          0.259758E-02
      0.125000          0.230335E-02
      0.130000          0.204175E-02
      0.135000          0.180986E-02
      0.140000          0.160473E-02
      0.145000          0.142353E-02
      0.150000          0.126358E-02
      0.155000          0.112241E-02
      0.160000          0.997805E-03
      0.165000          0.887792E-03
      0.170000          0.790637E-03
      0.175000          0.704830E-03
      0.180000          0.629057E-03
      0.185000          0.562173E-03
      0.190000          0.503175E-03
      0.195000          0.451179E-03
      0.200000          0.405394E-03
      0.205000          0.365112E-03
      0.210000          0.329692E-03
      0.215000          0.298557E-03
      0.220000          0.271187E-03
      0.225000          0.247122E-03
      0.230000          0.225957E-03
      0.235000          0.207347E-03
      0.240000          0.191003E-03
      0.245000          0.176690E-03
      0.250000          0.164222E-03
      0.255000          0.153459E-03
      0.260000          0.144291E-03
      0.265000          0.136636E-03
      0.270000          0.130427E-03
      0.275000          0.125599E-03
      0.280000          0.122088E-03
      0.285000          0.119815E-03
      0.290000          0.118684E-03
      0.295000          0.118583E-03
      0.300000          0.119376E-03
      0.305000          0.120911E-03
      0.310000          0.123022E-03
      0.315000          0.125533E-03
      0.320000          0.128266E-03
      0.325000          0.131050E-03
      0.330000          0.133723E-03
      0.335000          0.136143E-03
      0.340000          0.138192E-03
      0.345000          0.139777E-03
      0.350000          0.140837E-03
      0.355000          0.141337E-03
      0.360000          0.141273E-03
      0.365000          0.140664E-03
      0.370000          0.139553E-03
      0.375000          0.137997E-03
      0.380000          0.136065E-03
      0.385000          0.133834E-03
      0.390000          0.131381E-03
      0.395000          0.128781E-03
      0.400000          0.126100E-03
      0.405000          0.123398E-03
      0.410000          0.120722E-03
      0.415000          0.118107E-03
      0.420000          0.115578E-03
      0.425000          0.113149E-03
      0.430000          0.110823E-03
      0.435000          0.108599E-03
      0.440000          0.106468E-03
      0.445000          0.104419E-03
      0.450000          0.102441E-03
      0.455000          0.100523E-03
      0.460000          0.986542E-04
      0.465000          0.968302E-04
      0.470000          0.950484E-04
      0.475000          0.933102E-04
      0.480000          0.916206E-04
      0.485000          0.899878E-04
      0.490000          0.884217E-04
      0.495000          0.869340E-04
      0.500000          0.855363E-04
