 I_abs(s)[cm^-1]/c[mg/ml]
       0.00000          0.146002E-01
      0.500000E-02      0.145533E-01
      0.100000E-01      0.144134E-01
      0.150000E-01      0.141832E-01
      0.200000E-01      0.138669E-01
      0.250000E-01      0.134703E-01
      0.300000E-01      0.130005E-01
      0.350000E-01      0.124658E-01
      0.400000E-01      0.118755E-01
      0.450000E-01      0.112394E-01
      0.500000E-01      0.105679E-01
      0.550000E-01      0.987135E-02
      0.600000E-01      0.916014E-02
      0.650000E-01      0.844424E-02
      0.700000E-01      0.773305E-02
      0.750000E-01      0.703521E-02
      0.800000E-01      0.635843E-02
      0.850000E-01      0.570939E-02
      0.900000E-01      0.509365E-02
      0.950000E-01      0.451560E-02
      0.100000          0.397849E-02
      0.105000          0.348442E-02
      0.110000          0.303444E-02
      0.115000          0.262862E-02
      0.120000          0.226619E-02
      0.125000          0.194560E-02
      0.130000          0.166474E-02
      0.135000          0.142101E-02
      0.140000          0.121146E-02
      0.145000          0.103297E-02
      0.150000          0.882290E-03
      0.155000          0.756202E-03
      0.160000          0.651577E-03
      0.165000          0.565451E-03
      0.170000          0.495078E-03
      0.175000          0.437961E-03
      0.180000          0.391878E-03
      0.185000          0.354884E-03
      0.190000          0.325307E-03
      0.195000          0.301735E-03
      0.200000          0.282991E-03
      0.205000          0.268115E-03
      0.210000          0.256325E-03
      0.215000          0.246998E-03
      0.220000          0.239637E-03
      0.225000          0.233849E-03
      0.230000          0.229318E-03
      0.235000          0.225792E-03
      0.240000          0.223061E-03
      0.245000          0.220953E-03
      0.250000          0.219320E-03
      0.255000          0.218033E-03
      0.260000          0.216982E-03
      0.265000          0.216069E-03
      0.270000          0.215213E-03
      0.275000          0.214346E-03
      0.280000          0.213413E-03
      0.285000          0.212373E-03
      0.290000          0.211201E-03
      0.295000          0.209880E-03
      0.300000          0.208405E-03
      0.305000          0.206780E-03
      0.310000          0.205014E-03
      0.315000          0.203121E-03
      0.320000          0.201113E-03
      0.325000          0.199004E-03
      0.330000          0.196802E-03
      0.335000          0.194513E-03
      0.340000          0.192138E-03
      0.345000          0.189670E-03
      0.350000          0.187101E-03
      0.355000          0.184417E-03
      0.360000          0.181600E-03
      0.365000          0.178635E-03
      0.370000          0.175505E-03
      0.375000          0.172197E-03
      0.380000          0.168699E-03
      0.385000          0.165010E-03
      0.390000          0.161131E-03
      0.395000          0.157073E-03
      0.400000          0.152852E-03
      0.405000          0.148493E-03
      0.410000          0.144027E-03
      0.415000          0.139491E-03
      0.420000          0.134926E-03
      0.425000          0.130376E-03
      0.430000          0.125885E-03
      0.435000          0.121499E-03
      0.440000          0.117259E-03
      0.445000          0.113205E-03
      0.450000          0.109372E-03
      0.455000          0.105789E-03
      0.460000          0.102477E-03
      0.465000          0.994515E-04
      0.470000          0.967216E-04
      0.475000          0.942880E-04
      0.480000          0.921455E-04
      0.485000          0.902822E-04
      0.490000          0.886813E-04
      0.495000          0.873213E-04
      0.500000          0.861773E-04
