 I_abs(s)[cm^-1]/c[mg/ml]
       0.00000          0.131898E-01
      0.500000E-02      0.131122E-01
      0.100000E-01      0.128826E-01
      0.150000E-01      0.125101E-01
      0.200000E-01      0.120091E-01
      0.250000E-01      0.113989E-01
      0.300000E-01      0.107019E-01
      0.350000E-01      0.994283E-02
      0.400000E-01      0.914727E-02
      0.450000E-01      0.834012E-02
      0.500000E-01      0.754448E-02
      0.550000E-01      0.678062E-02
      0.600000E-01      0.606510E-02
      0.650000E-01      0.541033E-02
      0.700000E-01      0.482433E-02
      0.750000E-01      0.431084E-02
      0.800000E-01      0.386963E-02
      0.850000E-01      0.349712E-02
      0.900000E-01      0.318703E-02
      0.950000E-01      0.293124E-02
      0.100000          0.272057E-02
      0.105000          0.254556E-02
      0.110000          0.239710E-02
      0.115000          0.226705E-02
      0.120000          0.214852E-02
      0.125000          0.203616E-02
      0.130000          0.192616E-02
      0.135000          0.181624E-02
      0.140000          0.170539E-02
      0.145000          0.159370E-02
      0.150000          0.148198E-02
      0.155000          0.137155E-02
      0.160000          0.126391E-02
      0.165000          0.116052E-02
      0.170000          0.106267E-02
      0.175000          0.971302E-03
      0.180000          0.887012E-03
      0.185000          0.810031E-03
      0.190000          0.740273E-03
      0.195000          0.677399E-03
      0.200000          0.620905E-03
      0.205000          0.570199E-03
      0.210000          0.524676E-03
      0.215000          0.483772E-03
      0.220000          0.447000E-03
      0.225000          0.413964E-03
      0.230000          0.384356E-03
      0.235000          0.357940E-03
      0.240000          0.334525E-03
      0.245000          0.313940E-03
      0.250000          0.296005E-03
      0.255000          0.280514E-03
      0.260000          0.267226E-03
      0.265000          0.255858E-03
      0.270000          0.246097E-03
      0.275000          0.237614E-03
      0.280000          0.230080E-03
      0.285000          0.223186E-03
      0.290000          0.216666E-03
      0.295000          0.210305E-03
      0.300000          0.203956E-03
      0.305000          0.197534E-03
      0.310000          0.191022E-03
      0.315000          0.184454E-03
      0.320000          0.177908E-03
      0.325000          0.171486E-03
      0.330000          0.165299E-03
      0.335000          0.159451E-03
      0.340000          0.154030E-03
      0.345000          0.149091E-03
      0.350000          0.144660E-03
      0.355000          0.140726E-03
      0.360000          0.137249E-03
      0.365000          0.134161E-03
      0.370000          0.131381E-03
      0.375000          0.128817E-03
      0.380000          0.126379E-03
      0.385000          0.123987E-03
      0.390000          0.121576E-03
      0.395000          0.119100E-03
      0.400000          0.116533E-03
      0.405000          0.113871E-03
      0.410000          0.111130E-03
      0.415000          0.108338E-03
      0.420000          0.105534E-03
      0.425000          0.102764E-03
      0.430000          0.100075E-03
      0.435000          0.975084E-04
      0.440000          0.951022E-04
      0.445000          0.928847E-04
      0.450000          0.908751E-04
      0.455000          0.890828E-04
      0.460000          0.875083E-04
      0.465000          0.861438E-04
      0.470000          0.849752E-04
      0.475000          0.839833E-04
      0.480000          0.831458E-04
      0.485000          0.824383E-04
      0.490000          0.818358E-04
      0.495000          0.813138E-04
      0.500000          0.808486E-04
