 I_abs(s)[cm^-1]/c[mg/ml]
       0.00000          0.147356E-01
      0.500000E-02      0.146812E-01
      0.100000E-01      0.145192E-01
      0.150000E-01      0.142536E-01
      0.200000E-01      0.138907E-01
      0.250000E-01      0.134387E-01
      0.300000E-01      0.129081E-01
      0.350000E-01      0.123105E-01
      0.400000E-01      0.116584E-01
      0.450000E-01      0.109651E-01
      0.500000E-01      0.102437E-01
      0.550000E-01      0.950722E-02
      0.600000E-01      0.876770E-02
      0.650000E-01      0.803621E-02
      0.700000E-01      0.732252E-02
      0.750000E-01      0.663490E-02
      0.800000E-01      0.598005E-02
      0.850000E-01      0.536310E-02
      0.900000E-01      0.478761E-02
      0.950000E-01      0.425575E-02
      0.100000          0.376839E-02
      0.105000          0.332531E-02
      0.110000          0.292540E-02
      0.115000          0.256684E-02
      0.120000          0.224733E-02
      0.125000          0.196421E-02
      0.130000          0.171465E-02
      0.135000          0.149579E-02
      0.140000          0.130476E-02
      0.145000          0.113883E-02
      0.150000          0.995388E-03
      0.155000          0.872012E-03
      0.160000          0.766439E-03
      0.165000          0.676578E-03
      0.170000          0.600500E-03
      0.175000          0.536424E-03
      0.180000          0.482710E-03
      0.185000          0.437849E-03
      0.190000          0.400459E-03
      0.195000          0.369289E-03
      0.200000          0.343217E-03
      0.205000          0.321256E-03
      0.210000          0.302554E-03
      0.215000          0.286395E-03
      0.220000          0.272199E-03
      0.225000          0.259512E-03
      0.230000          0.247997E-03
      0.235000          0.237420E-03
      0.240000          0.227633E-03
      0.245000          0.218552E-03
      0.250000          0.210141E-03
      0.255000          0.202391E-03
      0.260000          0.195303E-03
      0.265000          0.188877E-03
      0.270000          0.183100E-03
      0.275000          0.177943E-03
      0.280000          0.173357E-03
      0.285000          0.169275E-03
      0.290000          0.165619E-03
      0.295000          0.162303E-03
      0.300000          0.159244E-03
      0.305000          0.156364E-03
      0.310000          0.153600E-03
      0.315000          0.150905E-03
      0.320000          0.148252E-03
      0.325000          0.145632E-03
      0.330000          0.143053E-03
      0.335000          0.140537E-03
      0.340000          0.138113E-03
      0.345000          0.135814E-03
      0.350000          0.133670E-03
      0.355000          0.131706E-03
      0.360000          0.129937E-03
      0.365000          0.128366E-03
      0.370000          0.126985E-03
      0.375000          0.125775E-03
      0.380000          0.124710E-03
      0.385000          0.123755E-03
      0.390000          0.122874E-03
      0.395000          0.122034E-03
      0.400000          0.121202E-03
      0.405000          0.120354E-03
      0.410000          0.119472E-03
      0.415000          0.118546E-03
      0.420000          0.117574E-03
      0.425000          0.116562E-03
      0.430000          0.115518E-03
      0.435000          0.114454E-03
      0.440000          0.113382E-03
      0.445000          0.112314E-03
      0.450000          0.111258E-03
      0.455000          0.110217E-03
      0.460000          0.109192E-03
      0.465000          0.108179E-03
      0.470000          0.107170E-03
      0.475000          0.106156E-03
      0.480000          0.105126E-03
      0.485000          0.104070E-03
      0.490000          0.102981E-03
      0.495000          0.101852E-03
      0.500000          0.100682E-03
