 I_abs(s)[cm^-1]/c[mg/ml]
       0.00000          0.144259E-01
      0.500000E-02      0.143794E-01
      0.100000E-01      0.142408E-01
      0.150000E-01      0.140130E-01
      0.200000E-01      0.137006E-01
      0.250000E-01      0.133100E-01
      0.300000E-01      0.128488E-01
      0.350000E-01      0.123260E-01
      0.400000E-01      0.117512E-01
      0.450000E-01      0.111350E-01
      0.500000E-01      0.104878E-01
      0.550000E-01      0.982015E-02
      0.600000E-01      0.914233E-02
      0.650000E-01      0.846393E-02
      0.700000E-01      0.779374E-02
      0.750000E-01      0.713958E-02
      0.800000E-01      0.650816E-02
      0.850000E-01      0.590498E-02
      0.900000E-01      0.533435E-02
      0.950000E-01      0.479939E-02
      0.100000          0.430208E-02
      0.105000          0.384339E-02
      0.110000          0.342335E-02
      0.115000          0.304123E-02
      0.120000          0.269568E-02
      0.125000          0.238485E-02
      0.130000          0.210656E-02
      0.135000          0.185842E-02
      0.140000          0.163796E-02
      0.145000          0.144270E-02
      0.150000          0.127021E-02
      0.155000          0.111823E-02
      0.160000          0.984625E-03
      0.165000          0.867471E-03
      0.170000          0.765010E-03
      0.175000          0.675666E-03
      0.180000          0.598025E-03
      0.185000          0.530817E-03
      0.190000          0.472894E-03
      0.195000          0.423212E-03
      0.200000          0.380812E-03
      0.205000          0.344809E-03
      0.210000          0.314386E-03
      0.215000          0.288781E-03
      0.220000          0.267297E-03
      0.225000          0.249293E-03
      0.230000          0.234195E-03
      0.235000          0.221495E-03
      0.240000          0.210757E-03
      0.245000          0.201614E-03
      0.250000          0.193772E-03
      0.255000          0.187002E-03
      0.260000          0.181135E-03
      0.265000          0.176055E-03
      0.270000          0.171688E-03
      0.275000          0.167989E-03
      0.280000          0.164931E-03
      0.285000          0.162495E-03
      0.290000          0.160660E-03
      0.295000          0.159393E-03
      0.300000          0.158645E-03
      0.305000          0.158349E-03
      0.310000          0.158416E-03
      0.315000          0.158741E-03
      0.320000          0.159206E-03
      0.325000          0.159685E-03
      0.330000          0.160051E-03
      0.335000          0.160182E-03
      0.340000          0.159972E-03
      0.345000          0.159332E-03
      0.350000          0.158197E-03
      0.355000          0.156529E-03
      0.360000          0.154316E-03
      0.365000          0.151575E-03
      0.370000          0.148347E-03
      0.375000          0.144694E-03
      0.380000          0.140693E-03
      0.385000          0.136432E-03
      0.390000          0.132005E-03
      0.395000          0.127504E-03
      0.400000          0.123014E-03
      0.405000          0.118613E-03
      0.410000          0.114362E-03
      0.415000          0.110311E-03
      0.420000          0.106493E-03
      0.425000          0.102925E-03
      0.430000          0.996127E-04
      0.435000          0.965499E-04
      0.440000          0.937222E-04
      0.445000          0.911104E-04
      0.450000          0.886931E-04
      0.455000          0.864496E-04
      0.460000          0.843622E-04
      0.465000          0.824178E-04
      0.470000          0.806088E-04
      0.475000          0.789336E-04
      0.480000          0.773955E-04
      0.485000          0.760026E-04
      0.490000          0.747652E-04
      0.495000          0.736949E-04
      0.500000          0.728023E-04
