 I_abs(s)[cm^-1]/c[mg/ml]
       0.00000          0.149198E-01
      0.500000E-02      0.148759E-01
      0.100000E-01      0.147450E-01
      0.150000E-01      0.145293E-01
      0.200000E-01      0.142322E-01
      0.250000E-01      0.138585E-01
      0.300000E-01      0.134141E-01
      0.350000E-01      0.129059E-01
      0.400000E-01      0.123418E-01
      0.450000E-01      0.117302E-01
      0.500000E-01      0.110800E-01
      0.550000E-01      0.104003E-01
      0.600000E-01      0.970056E-02
      0.650000E-01      0.898973E-02
      0.700000E-01      0.827668E-02
      0.750000E-01      0.756971E-02
      0.800000E-01      0.687655E-02
      0.850000E-01      0.620412E-02
      0.900000E-01      0.555854E-02
      0.950000E-01      0.494497E-02
      0.100000          0.436764E-02
      0.105000          0.382978E-02
      0.110000          0.333364E-02
      0.115000          0.288058E-02
      0.120000          0.247104E-02
      0.125000          0.210467E-02
      0.130000          0.178041E-02
      0.135000          0.149658E-02
      0.140000          0.125097E-02
      0.145000          0.104101E-02
      0.150000          0.863783E-03
      0.155000          0.716214E-03
      0.160000          0.595118E-03
      0.165000          0.497308E-03
      0.170000          0.419664E-03
      0.175000          0.359202E-03
      0.180000          0.313128E-03
      0.185000          0.278871E-03
      0.190000          0.254119E-03
      0.195000          0.236825E-03
      0.200000          0.225222E-03
      0.205000          0.217811E-03
      0.210000          0.213350E-03
      0.215000          0.210838E-03
      0.220000          0.209493E-03
      0.225000          0.208720E-03
      0.230000          0.208090E-03
      0.235000          0.207310E-03
      0.240000          0.206196E-03
      0.245000          0.204649E-03
      0.250000          0.202631E-03
      0.255000          0.200150E-03
      0.260000          0.197240E-03
      0.265000          0.193950E-03
      0.270000          0.190334E-03
      0.275000          0.186446E-03
      0.280000          0.182333E-03
      0.285000          0.178037E-03
      0.290000          0.173590E-03
      0.295000          0.169022E-03
      0.300000          0.164354E-03
      0.305000          0.159609E-03
      0.310000          0.154807E-03
      0.315000          0.149973E-03
      0.320000          0.145133E-03
      0.325000          0.140320E-03
      0.330000          0.135571E-03
      0.335000          0.130928E-03
      0.340000          0.126435E-03
      0.345000          0.122141E-03
      0.350000          0.118093E-03
      0.355000          0.114339E-03
      0.360000          0.110921E-03
      0.365000          0.107875E-03
      0.370000          0.105231E-03
      0.375000          0.103009E-03
      0.380000          0.101219E-03
      0.385000          0.998580E-04
      0.390000          0.989149E-04
      0.395000          0.983656E-04
      0.400000          0.981765E-04
      0.405000          0.983053E-04
      0.410000          0.987021E-04
      0.415000          0.993117E-04
      0.420000          0.100076E-03
      0.425000          0.100934E-03
      0.430000          0.101827E-03
      0.435000          0.102698E-03
      0.440000          0.103495E-03
      0.445000          0.104173E-03
      0.450000          0.104693E-03
      0.455000          0.105023E-03
      0.460000          0.105143E-03
      0.465000          0.105040E-03
      0.470000          0.104710E-03
      0.475000          0.104157E-03
      0.480000          0.103394E-03
      0.485000          0.102439E-03
      0.490000          0.101318E-03
      0.495000          0.100059E-03
      0.500000          0.986931E-04
