 I_abs(s)[cm^-1]/c[mg/ml]
       0.00000          0.142841E-01
      0.500000E-02      0.142285E-01
      0.100000E-01      0.140631E-01
      0.150000E-01      0.137923E-01
      0.200000E-01      0.134229E-01
      0.250000E-01      0.129641E-01
      0.300000E-01      0.124273E-01
      0.350000E-01      0.118251E-01
      0.400000E-01      0.111712E-01
      0.450000E-01      0.104800E-01
      0.500000E-01      0.976558E-02
      0.550000E-01      0.904167E-02
      0.600000E-01      0.832101E-02
      0.650000E-01      0.761502E-02
      0.700000E-01      0.693353E-02
      0.750000E-01      0.628462E-02
      0.800000E-01      0.567448E-02
      0.850000E-01      0.510746E-02
      0.900000E-01      0.458610E-02
      0.950000E-01      0.411132E-02
      0.100000          0.368264E-02
      0.105000          0.329835E-02
      0.110000          0.295585E-02
      0.115000          0.265187E-02
      0.120000          0.238276E-02
      0.125000          0.214466E-02
      0.130000          0.193379E-02
      0.135000          0.174652E-02
      0.140000          0.157955E-02
      0.145000          0.142995E-02
      0.150000          0.129522E-02
      0.155000          0.117329E-02
      0.160000          0.106249E-02
      0.165000          0.961521E-03
      0.170000          0.869384E-03
      0.175000          0.785327E-03
      0.180000          0.708783E-03
      0.185000          0.639304E-03
      0.190000          0.576518E-03
      0.195000          0.520083E-03
      0.200000          0.469658E-03
      0.205000          0.424885E-03
      0.210000          0.385376E-03
      0.215000          0.350717E-03
      0.220000          0.320468E-03
      0.225000          0.294175E-03
      0.230000          0.271382E-03
      0.235000          0.251644E-03
      0.240000          0.234535E-03
      0.245000          0.219665E-03
      0.250000          0.206681E-03
      0.255000          0.195274E-03
      0.260000          0.185184E-03
      0.265000          0.176197E-03
      0.270000          0.168140E-03
      0.275000          0.160883E-03
      0.280000          0.154327E-03
      0.285000          0.148405E-03
      0.290000          0.143067E-03
      0.295000          0.138283E-03
      0.300000          0.134030E-03
      0.305000          0.130292E-03
      0.310000          0.127053E-03
      0.315000          0.124294E-03
      0.320000          0.121992E-03
      0.325000          0.120120E-03
      0.330000          0.118640E-03
      0.335000          0.117512E-03
      0.340000          0.116689E-03
      0.345000          0.116120E-03
      0.350000          0.115752E-03
      0.355000          0.115530E-03
      0.360000          0.115402E-03
      0.365000          0.115320E-03
      0.370000          0.115237E-03
      0.375000          0.115115E-03
      0.380000          0.114921E-03
      0.385000          0.114627E-03
      0.390000          0.114214E-03
      0.395000          0.113668E-03
      0.400000          0.112980E-03
      0.405000          0.112148E-03
      0.410000          0.111172E-03
      0.415000          0.110057E-03
      0.420000          0.108809E-03
      0.425000          0.107437E-03
      0.430000          0.105954E-03
      0.435000          0.104372E-03
      0.440000          0.102708E-03
      0.445000          0.100979E-03
      0.450000          0.992044E-04
      0.455000          0.974058E-04
      0.460000          0.956065E-04
      0.465000          0.938311E-04
      0.470000          0.921046E-04
      0.475000          0.904520E-04
      0.480000          0.888967E-04
      0.485000          0.874595E-04
      0.490000          0.861580E-04
      0.495000          0.850047E-04
      0.500000          0.840068E-04
