 I_abs(s)[cm^-1]/c[mg/ml]
       0.00000          0.137084E-01
      0.500000E-02      0.136543E-01
      0.100000E-01      0.134933E-01
      0.150000E-01      0.132295E-01
      0.200000E-01      0.128690E-01
      0.250000E-01      0.124206E-01
      0.300000E-01      0.118946E-01
      0.350000E-01      0.113032E-01
      0.400000E-01      0.106592E-01
      0.450000E-01      0.997652E-02
      0.500000E-01      0.926893E-02
      0.550000E-01      0.855004E-02
      0.600000E-01      0.783273E-02
      0.650000E-01      0.712885E-02
      0.700000E-01      0.644887E-02
      0.750000E-01      0.580167E-02
      0.800000E-01      0.519438E-02
      0.850000E-01      0.463231E-02
      0.900000E-01      0.411895E-02
      0.950000E-01      0.365605E-02
      0.100000          0.324375E-02
      0.105000          0.288078E-02
      0.110000          0.256466E-02
      0.115000          0.229198E-02
      0.120000          0.205862E-02
      0.125000          0.186006E-02
      0.130000          0.169157E-02
      0.135000          0.154847E-02
      0.140000          0.142625E-02
      0.145000          0.132081E-02
      0.150000          0.122848E-02
      0.155000          0.114613E-02
      0.160000          0.107120E-02
      0.165000          0.100169E-02
      0.170000          0.936113E-03
      0.175000          0.873479E-03
      0.180000          0.813188E-03
      0.185000          0.754970E-03
      0.190000          0.698803E-03
      0.195000          0.644831E-03
      0.200000          0.593298E-03
      0.205000          0.544480E-03
      0.210000          0.498644E-03
      0.215000          0.456005E-03
      0.220000          0.416709E-03
      0.225000          0.380820E-03
      0.230000          0.348318E-03
      0.235000          0.319106E-03
      0.240000          0.293027E-03
      0.245000          0.269875E-03
      0.250000          0.249416E-03
      0.255000          0.231402E-03
      0.260000          0.215587E-03
      0.265000          0.201739E-03
      0.270000          0.189645E-03
      0.275000          0.179119E-03
      0.280000          0.169999E-03
      0.285000          0.162149E-03
      0.290000          0.155449E-03
      0.295000          0.149797E-03
      0.300000          0.145098E-03
      0.305000          0.141260E-03
      0.310000          0.138191E-03
      0.315000          0.135795E-03
      0.320000          0.133972E-03
      0.325000          0.132616E-03
      0.330000          0.131620E-03
      0.335000          0.130875E-03
      0.340000          0.130276E-03
      0.345000          0.129726E-03
      0.350000          0.129141E-03
      0.355000          0.128449E-03
      0.360000          0.127595E-03
      0.365000          0.126544E-03
      0.370000          0.125276E-03
      0.375000          0.123792E-03
      0.380000          0.122105E-03
      0.385000          0.120241E-03
      0.390000          0.118233E-03
      0.395000          0.116121E-03
      0.400000          0.113944E-03
      0.405000          0.111741E-03
      0.410000          0.109544E-03
      0.415000          0.107378E-03
      0.420000          0.105261E-03
      0.425000          0.103203E-03
      0.430000          0.101205E-03
      0.435000          0.992629E-04
      0.440000          0.973690E-04
      0.445000          0.955124E-04
      0.450000          0.936830E-04
      0.455000          0.918730E-04
      0.460000          0.900792E-04
      0.465000          0.883037E-04
      0.470000          0.865551E-04
      0.475000          0.848484E-04
      0.480000          0.832043E-04
      0.485000          0.816476E-04
      0.490000          0.802061E-04
      0.495000          0.789077E-04
      0.500000          0.777786E-04
