 I_abs(s)[cm^-1]/c[mg/ml]
       0.00000          0.141821E-01
      0.500000E-02      0.141334E-01
      0.100000E-01      0.139885E-01
      0.150000E-01      0.137500E-01
      0.200000E-01      0.134226E-01
      0.250000E-01      0.130123E-01
      0.300000E-01      0.125269E-01
      0.350000E-01      0.119752E-01
      0.400000E-01      0.113671E-01
      0.450000E-01      0.107131E-01
      0.500000E-01      0.100241E-01
      0.550000E-01      0.931126E-02
      0.600000E-01      0.858549E-02
      0.650000E-01      0.785734E-02
      0.700000E-01      0.713670E-02
      0.750000E-01      0.643261E-02
      0.800000E-01      0.575315E-02
      0.850000E-01      0.510523E-02
      0.900000E-01      0.449458E-02
      0.950000E-01      0.392568E-02
      0.100000          0.340179E-02
      0.105000          0.292493E-02
      0.110000          0.249603E-02
      0.115000          0.211497E-02
      0.120000          0.178069E-02
      0.125000          0.149139E-02
      0.130000          0.124458E-02
      0.135000          0.103729E-02
      0.140000          0.866172E-03
      0.145000          0.727653E-03
      0.150000          0.618037E-03
      0.155000          0.533623E-03
      0.160000          0.470794E-03
      0.165000          0.426090E-03
      0.170000          0.396272E-03
      0.175000          0.378359E-03
      0.180000          0.369661E-03
      0.185000          0.367793E-03
      0.190000          0.370680E-03
      0.195000          0.376551E-03
      0.200000          0.383927E-03
      0.205000          0.391606E-03
      0.210000          0.398637E-03
      0.215000          0.404301E-03
      0.220000          0.408081E-03
      0.225000          0.409642E-03
      0.230000          0.408803E-03
      0.235000          0.405514E-03
      0.240000          0.399835E-03
      0.245000          0.391913E-03
      0.250000          0.381965E-03
      0.255000          0.370259E-03
      0.260000          0.357098E-03
      0.265000          0.342807E-03
      0.270000          0.327717E-03
      0.275000          0.312155E-03
      0.280000          0.296436E-03
      0.285000          0.280850E-03
      0.290000          0.265660E-03
      0.295000          0.251090E-03
      0.300000          0.237331E-03
      0.305000          0.224528E-03
      0.310000          0.212787E-03
      0.315000          0.202173E-03
      0.320000          0.192713E-03
      0.325000          0.184397E-03
      0.330000          0.177185E-03
      0.335000          0.171009E-03
      0.340000          0.165781E-03
      0.345000          0.161396E-03
      0.350000          0.157740E-03
      0.355000          0.154692E-03
      0.360000          0.152131E-03
      0.365000          0.149942E-03
      0.370000          0.148014E-03
      0.375000          0.146249E-03
      0.380000          0.144560E-03
      0.385000          0.142875E-03
      0.390000          0.141137E-03
      0.395000          0.139304E-03
      0.400000          0.137346E-03
      0.405000          0.135250E-03
      0.410000          0.133014E-03
      0.415000          0.130646E-03
      0.420000          0.128164E-03
      0.425000          0.125594E-03
      0.430000          0.122966E-03
      0.435000          0.120315E-03
      0.440000          0.117675E-03
      0.445000          0.115084E-03
      0.450000          0.112576E-03
      0.455000          0.110183E-03
      0.460000          0.107934E-03
      0.465000          0.105852E-03
      0.470000          0.103955E-03
      0.475000          0.102257E-03
      0.480000          0.100764E-03
      0.485000          0.994769E-04
      0.490000          0.983896E-04
      0.495000          0.974917E-04
      0.500000          0.967673E-04
