 I_abs(s)[cm^-1]/c[mg/ml]
       0.00000          0.135089E-01
      0.500000E-02      0.134313E-01
      0.100000E-01      0.132015E-01
      0.150000E-01      0.128283E-01
      0.200000E-01      0.123258E-01
      0.250000E-01      0.117126E-01
      0.300000E-01      0.110109E-01
      0.350000E-01      0.102449E-01
      0.400000E-01      0.943988E-02
      0.450000E-01      0.862089E-02
      0.500000E-01      0.781123E-02
      0.550000E-01      0.703164E-02
      0.600000E-01      0.629938E-02
      0.650000E-01      0.562766E-02
      0.700000E-01      0.502535E-02
      0.750000E-01      0.449696E-02
      0.800000E-01      0.404288E-02
      0.850000E-01      0.365992E-02
      0.900000E-01      0.334190E-02
      0.950000E-01      0.308049E-02
      0.100000          0.286599E-02
      0.105000          0.268822E-02
      0.110000          0.253718E-02
      0.115000          0.240378E-02
      0.120000          0.228028E-02
      0.125000          0.216061E-02
      0.130000          0.204055E-02
      0.135000          0.191771E-02
      0.140000          0.179136E-02
      0.145000          0.166216E-02
      0.150000          0.153186E-02
      0.155000          0.140287E-02
      0.160000          0.127791E-02
      0.165000          0.115965E-02
      0.170000          0.105042E-02
      0.175000          0.951999E-03
      0.180000          0.865473E-03
      0.185000          0.791187E-03
      0.190000          0.728778E-03
      0.195000          0.677266E-03
      0.200000          0.635195E-03
      0.205000          0.600800E-03
      0.210000          0.572187E-03
      0.215000          0.547500E-03
      0.220000          0.525064E-03
      0.225000          0.503495E-03
      0.230000          0.481773E-03
      0.235000          0.459266E-03
      0.240000          0.435718E-03
      0.245000          0.411211E-03
      0.250000          0.386089E-03
      0.255000          0.360879E-03
      0.260000          0.336199E-03
      0.265000          0.312678E-03
      0.270000          0.290875E-03
      0.275000          0.271232E-03
      0.280000          0.254031E-03
      0.285000          0.239380E-03
      0.290000          0.227218E-03
      0.295000          0.217337E-03
      0.300000          0.209412E-03
      0.305000          0.203041E-03
      0.310000          0.197789E-03
      0.315000          0.193230E-03
      0.320000          0.188979E-03
      0.325000          0.184718E-03
      0.330000          0.180217E-03
      0.335000          0.175334E-03
      0.340000          0.170017E-03
      0.345000          0.164292E-03
      0.350000          0.158244E-03
      0.355000          0.152000E-03
      0.360000          0.145709E-03
      0.365000          0.139516E-03
      0.370000          0.133555E-03
      0.375000          0.127929E-03
      0.380000          0.122708E-03
      0.385000          0.117923E-03
      0.390000          0.113572E-03
      0.395000          0.109621E-03
      0.400000          0.106019E-03
      0.405000          0.102699E-03
      0.410000          0.995973E-04
      0.415000          0.966532E-04
      0.420000          0.938217E-04
      0.425000          0.910750E-04
      0.430000          0.884047E-04
      0.435000          0.858208E-04
      0.440000          0.833480E-04
      0.445000          0.810213E-04
      0.450000          0.788796E-04
      0.455000          0.769600E-04
      0.460000          0.752917E-04
      0.465000          0.738918E-04
      0.470000          0.727623E-04
      0.475000          0.718888E-04
      0.480000          0.712413E-04
      0.485000          0.707769E-04
      0.490000          0.704430E-04
      0.495000          0.701826E-04
      0.500000          0.699394E-04
