 I_abs(s)[cm^-1]/c[mg/ml]
       0.00000          0.134250E-01
      0.500000E-02      0.133439E-01
      0.100000E-01      0.131041E-01
      0.150000E-01      0.127150E-01
      0.200000E-01      0.121920E-01
      0.250000E-01      0.115552E-01
      0.300000E-01      0.108285E-01
      0.350000E-01      0.100380E-01
      0.400000E-01      0.921066E-02
      0.450000E-01      0.837297E-02
      0.500000E-01      0.754945E-02
      0.550000E-01      0.676162E-02
      0.600000E-01      0.602707E-02
      0.650000E-01      0.535894E-02
      0.700000E-01      0.476561E-02
      0.750000E-01      0.425079E-02
      0.800000E-01      0.381389E-02
      0.850000E-01      0.345056E-02
      0.900000E-01      0.315349E-02
      0.950000E-01      0.291329E-02
      0.100000          0.271937E-02
      0.105000          0.256084E-02
      0.110000          0.242725E-02
      0.115000          0.230927E-02
      0.120000          0.219912E-02
      0.125000          0.209085E-02
      0.130000          0.198047E-02
      0.135000          0.186581E-02
      0.140000          0.174640E-02
      0.145000          0.162309E-02
      0.150000          0.149772E-02
      0.155000          0.137272E-02
      0.160000          0.125074E-02
      0.165000          0.113435E-02
      0.170000          0.102573E-02
      0.175000          0.926542E-03
      0.180000          0.837797E-03
      0.185000          0.759865E-03
      0.190000          0.692506E-03
      0.195000          0.634975E-03
      0.200000          0.586155E-03
      0.205000          0.544701E-03
      0.210000          0.509188E-03
      0.215000          0.478231E-03
      0.220000          0.450598E-03
      0.225000          0.425270E-03
      0.230000          0.401485E-03
      0.235000          0.378742E-03
      0.240000          0.356780E-03
      0.245000          0.335539E-03
      0.250000          0.315108E-03
      0.255000          0.295669E-03
      0.260000          0.277442E-03
      0.265000          0.260641E-03
      0.270000          0.245434E-03
      0.275000          0.231919E-03
      0.280000          0.220114E-03
      0.285000          0.209958E-03
      0.290000          0.201315E-03
      0.295000          0.193996E-03
      0.300000          0.187771E-03
      0.305000          0.182393E-03
      0.310000          0.177617E-03
      0.315000          0.173215E-03
      0.320000          0.168991E-03
      0.325000          0.164784E-03
      0.330000          0.160481E-03
      0.335000          0.156009E-03
      0.340000          0.151341E-03
      0.345000          0.146486E-03
      0.350000          0.141485E-03
      0.355000          0.136406E-03
      0.360000          0.131331E-03
      0.365000          0.126353E-03
      0.370000          0.121567E-03
      0.375000          0.117062E-03
      0.380000          0.112916E-03
      0.385000          0.109186E-03
      0.390000          0.105912E-03
      0.395000          0.103105E-03
      0.400000          0.100752E-03
      0.405000          0.988145E-04
      0.410000          0.972317E-04
      0.415000          0.959245E-04
      0.420000          0.948017E-04
      0.425000          0.937673E-04
      0.430000          0.927276E-04
      0.435000          0.915992E-04
      0.440000          0.903157E-04
      0.445000          0.888333E-04
      0.450000          0.871347E-04
      0.455000          0.852302E-04
      0.460000          0.831569E-04
      0.465000          0.809758E-04
      0.470000          0.787661E-04
      0.475000          0.766183E-04
      0.480000          0.746265E-04
      0.485000          0.728800E-04
      0.490000          0.714560E-04
      0.495000          0.704120E-04
      0.500000          0.697821E-04
