 I_abs(s)[cm^-1]/c[mg/ml]
       0.00000          0.146081E-01
      0.500000E-02      0.145640E-01
      0.100000E-01      0.144324E-01
      0.150000E-01      0.142159E-01
      0.200000E-01      0.139189E-01
      0.250000E-01      0.135469E-01
      0.300000E-01      0.131071E-01
      0.350000E-01      0.126074E-01
      0.400000E-01      0.120569E-01
      0.450000E-01      0.114648E-01
      0.500000E-01      0.108410E-01
      0.550000E-01      0.101949E-01
      0.600000E-01      0.953613E-02
      0.650000E-01      0.887341E-02
      0.700000E-01      0.821499E-02
      0.750000E-01      0.756824E-02
      0.800000E-01      0.693958E-02
      0.850000E-01      0.633442E-02
      0.900000E-01      0.575715E-02
      0.950000E-01      0.521110E-02
      0.100000          0.469867E-02
      0.105000          0.422132E-02
      0.110000          0.377970E-02
      0.115000          0.337376E-02
      0.120000          0.300283E-02
      0.125000          0.266577E-02
      0.130000          0.236104E-02
      0.135000          0.208686E-02
      0.140000          0.184123E-02
      0.145000          0.162205E-02
      0.150000          0.142721E-02
      0.155000          0.125458E-02
      0.160000          0.110213E-02
      0.165000          0.967881E-03
      0.170000          0.850005E-03
      0.175000          0.746778E-03
      0.180000          0.656618E-03
      0.185000          0.578072E-03
      0.190000          0.509823E-03
      0.195000          0.450678E-03
      0.200000          0.399560E-03
      0.205000          0.355504E-03
      0.210000          0.317644E-03
      0.215000          0.285203E-03
      0.220000          0.257489E-03
      0.225000          0.233882E-03
      0.230000          0.213829E-03
      0.235000          0.196836E-03
      0.240000          0.182465E-03
      0.245000          0.170327E-03
      0.250000          0.160078E-03
      0.255000          0.151421E-03
      0.260000          0.144094E-03
      0.265000          0.137876E-03
      0.270000          0.132581E-03
      0.275000          0.128055E-03
      0.280000          0.124175E-03
      0.285000          0.120846E-03
      0.290000          0.117996E-03
      0.295000          0.115572E-03
      0.300000          0.113538E-03
      0.305000          0.111869E-03
      0.310000          0.110547E-03
      0.315000          0.109555E-03
      0.320000          0.108878E-03
      0.325000          0.108496E-03
      0.330000          0.108383E-03
      0.335000          0.108506E-03
      0.340000          0.108827E-03
      0.345000          0.109298E-03
      0.350000          0.109869E-03
      0.355000          0.110486E-03
      0.360000          0.111095E-03
      0.365000          0.111645E-03
      0.370000          0.112089E-03
      0.375000          0.112388E-03
      0.380000          0.112512E-03
      0.385000          0.112441E-03
      0.390000          0.112168E-03
      0.395000          0.111694E-03
      0.400000          0.111031E-03
      0.405000          0.110199E-03
      0.410000          0.109226E-03
      0.415000          0.108141E-03
      0.420000          0.106979E-03
      0.425000          0.105771E-03
      0.430000          0.104550E-03
      0.435000          0.103343E-03
      0.440000          0.102172E-03
      0.445000          0.101055E-03
      0.450000          0.100002E-03
      0.455000          0.990208E-04
      0.460000          0.981100E-04
      0.465000          0.972656E-04
      0.470000          0.964799E-04
      0.475000          0.957420E-04
      0.480000          0.950398E-04
      0.485000          0.943605E-04
      0.490000          0.936915E-04
      0.495000          0.930212E-04
      0.500000          0.923398E-04
