 I_abs(s)[cm^-1]/c[mg/ml]
       0.00000          0.145288E-01
      0.500000E-02      0.144690E-01
      0.100000E-01      0.142914E-01
      0.150000E-01      0.140006E-01
      0.200000E-01      0.136044E-01
      0.250000E-01      0.131131E-01
      0.300000E-01      0.125390E-01
      0.350000E-01      0.118963E-01
      0.400000E-01      0.111999E-01
      0.450000E-01      0.104653E-01
      0.500000E-01      0.970803E-02
      0.550000E-01      0.894260E-02
      0.600000E-01      0.818256E-02
      0.650000E-01      0.743993E-02
      0.700000E-01      0.672492E-02
      0.750000E-01      0.604581E-02
      0.800000E-01      0.540885E-02
      0.850000E-01      0.481838E-02
      0.900000E-01      0.427688E-02
      0.950000E-01      0.378521E-02
      0.100000          0.334284E-02
      0.105000          0.294811E-02
      0.110000          0.259850E-02
      0.115000          0.229090E-02
      0.120000          0.202184E-02
      0.125000          0.178770E-02
      0.130000          0.158485E-02
      0.135000          0.140980E-02
      0.140000          0.125927E-02
      0.145000          0.113020E-02
      0.150000          0.101983E-02
      0.155000          0.925647E-03
      0.160000          0.845390E-03
      0.165000          0.777023E-03
      0.170000          0.718711E-03
      0.175000          0.668797E-03
      0.180000          0.625795E-03
      0.185000          0.588375E-03
      0.190000          0.555364E-03
      0.195000          0.525750E-03
      0.200000          0.498680E-03
      0.205000          0.473470E-03
      0.210000          0.449595E-03
      0.215000          0.426690E-03
      0.220000          0.404538E-03
      0.225000          0.383046E-03
      0.230000          0.362230E-03
      0.235000          0.342182E-03
      0.240000          0.323047E-03
      0.245000          0.304987E-03
      0.250000          0.288164E-03
      0.255000          0.272711E-03
      0.260000          0.258721E-03
      0.265000          0.246234E-03
      0.270000          0.235232E-03
      0.275000          0.225648E-03
      0.280000          0.217366E-03
      0.285000          0.210236E-03
      0.290000          0.204088E-03
      0.295000          0.198744E-03
      0.300000          0.194028E-03
      0.305000          0.189783E-03
      0.310000          0.185875E-03
      0.315000          0.182197E-03
      0.320000          0.178673E-03
      0.325000          0.175252E-03
      0.330000          0.171911E-03
      0.335000          0.168642E-03
      0.340000          0.165450E-03
      0.345000          0.162345E-03
      0.350000          0.159337E-03
      0.355000          0.156432E-03
      0.360000          0.153627E-03
      0.365000          0.150912E-03
      0.370000          0.148267E-03
      0.375000          0.145666E-03
      0.380000          0.143080E-03
      0.385000          0.140475E-03
      0.390000          0.137823E-03
      0.395000          0.135098E-03
      0.400000          0.132282E-03
      0.405000          0.129364E-03
      0.410000          0.126345E-03
      0.415000          0.123234E-03
      0.420000          0.120048E-03
      0.425000          0.116813E-03
      0.430000          0.113559E-03
      0.435000          0.110321E-03
      0.440000          0.107138E-03
      0.445000          0.104046E-03
      0.450000          0.101081E-03
      0.455000          0.982787E-04
      0.460000          0.956686E-04
      0.465000          0.932770E-04
      0.470000          0.911251E-04
      0.475000          0.892285E-04
      0.480000          0.875972E-04
      0.485000          0.862348E-04
      0.490000          0.851390E-04
      0.495000          0.843013E-04
      0.500000          0.837071E-04
