 I_abs(s)[cm^-1]/c[mg/ml]
       0.00000          0.143077E-01
      0.500000E-02      0.142666E-01
      0.100000E-01      0.141441E-01
      0.150000E-01      0.139423E-01
      0.200000E-01      0.136645E-01
      0.250000E-01      0.133154E-01
      0.300000E-01      0.129005E-01
      0.350000E-01      0.124266E-01
      0.400000E-01      0.119012E-01
      0.450000E-01      0.113322E-01
      0.500000E-01      0.107281E-01
      0.550000E-01      0.100976E-01
      0.600000E-01      0.944936E-02
      0.650000E-01      0.879186E-02
      0.700000E-01      0.813325E-02
      0.750000E-01      0.748114E-02
      0.800000E-01      0.684251E-02
      0.850000E-01      0.622358E-02
      0.900000E-01      0.562971E-02
      0.950000E-01      0.506539E-02
      0.100000          0.453418E-02
      0.105000          0.403871E-02
      0.110000          0.358073E-02
      0.115000          0.316114E-02
      0.120000          0.278004E-02
      0.125000          0.243686E-02
      0.130000          0.213042E-02
      0.135000          0.185902E-02
      0.140000          0.162057E-02
      0.145000          0.141269E-02
      0.150000          0.123278E-02
      0.155000          0.107815E-02
      0.160000          0.946082E-03
      0.165000          0.833911E-03
      0.170000          0.739073E-03
      0.175000          0.659165E-03
      0.180000          0.591972E-03
      0.185000          0.535496E-03
      0.190000          0.487966E-03
      0.195000          0.447840E-03
      0.200000          0.413796E-03
      0.205000          0.384727E-03
      0.210000          0.359714E-03
      0.215000          0.338013E-03
      0.220000          0.319023E-03
      0.225000          0.302273E-03
      0.230000          0.287389E-03
      0.235000          0.274077E-03
      0.240000          0.262108E-03
      0.245000          0.251291E-03
      0.250000          0.241472E-03
      0.255000          0.232512E-03
      0.260000          0.224290E-03
      0.265000          0.216691E-03
      0.270000          0.209604E-03
      0.275000          0.202928E-03
      0.280000          0.196561E-03
      0.285000          0.190415E-03
      0.290000          0.184405E-03
      0.295000          0.178460E-03
      0.300000          0.172524E-03
      0.305000          0.166552E-03
      0.310000          0.160517E-03
      0.315000          0.154406E-03
      0.320000          0.148224E-03
      0.325000          0.141989E-03
      0.330000          0.135730E-03
      0.335000          0.129491E-03
      0.340000          0.123319E-03
      0.345000          0.117271E-03
      0.350000          0.111405E-03
      0.355000          0.105778E-03
      0.360000          0.100447E-03
      0.365000          0.954643E-04
      0.370000          0.908748E-04
      0.375000          0.867169E-04
      0.380000          0.830199E-04
      0.385000          0.798038E-04
      0.390000          0.770788E-04
      0.395000          0.748455E-04
      0.400000          0.730950E-04
      0.405000          0.718099E-04
      0.410000          0.709644E-04
      0.415000          0.705259E-04
      0.420000          0.704557E-04
      0.425000          0.707103E-04
      0.430000          0.712423E-04
      0.435000          0.720022E-04
      0.440000          0.729390E-04
      0.445000          0.740015E-04
      0.450000          0.751396E-04
      0.455000          0.763052E-04
      0.460000          0.774531E-04
      0.465000          0.785422E-04
      0.470000          0.795356E-04
      0.475000          0.804020E-04
      0.480000          0.811155E-04
      0.485000          0.816564E-04
      0.490000          0.820112E-04
      0.495000          0.821729E-04
      0.500000          0.821403E-04
