 I_abs(s)[cm^-1]/c[mg/ml]
       0.00000          0.144259E-01
      0.500000E-02      0.143818E-01
      0.100000E-01      0.142504E-01
      0.150000E-01      0.140337E-01
      0.200000E-01      0.137355E-01
      0.250000E-01      0.133604E-01
      0.300000E-01      0.129147E-01
      0.350000E-01      0.124054E-01
      0.400000E-01      0.118405E-01
      0.450000E-01      0.112287E-01
      0.500000E-01      0.105791E-01
      0.550000E-01      0.990110E-02
      0.600000E-01      0.920432E-02
      0.650000E-01      0.849810E-02
      0.700000E-01      0.779150E-02
      0.750000E-01      0.709311E-02
      0.800000E-01      0.641086E-02
      0.850000E-01      0.575187E-02
      0.900000E-01      0.512242E-02
      0.950000E-01      0.452778E-02
      0.100000          0.397222E-02
      0.105000          0.345896E-02
      0.110000          0.299019E-02
      0.115000          0.256711E-02
      0.120000          0.218994E-02
      0.125000          0.185805E-02
      0.130000          0.157001E-02
      0.135000          0.132374E-02
      0.140000          0.111656E-02
      0.145000          0.945384E-03
      0.150000          0.806772E-03
      0.155000          0.697091E-03
      0.160000          0.612611E-03
      0.165000          0.549610E-03
      0.170000          0.504466E-03
      0.175000          0.473736E-03
      0.180000          0.454223E-03
      0.185000          0.443024E-03
      0.190000          0.437571E-03
      0.195000          0.435649E-03
      0.200000          0.435406E-03
      0.205000          0.435353E-03
      0.210000          0.434343E-03
      0.215000          0.431555E-03
      0.220000          0.426461E-03
      0.225000          0.418790E-03
      0.230000          0.408492E-03
      0.235000          0.395697E-03
      0.240000          0.380671E-03
      0.245000          0.363786E-03
      0.250000          0.345475E-03
      0.255000          0.326203E-03
      0.260000          0.306441E-03
      0.265000          0.286639E-03
      0.270000          0.267208E-03
      0.275000          0.248507E-03
      0.280000          0.230833E-03
      0.285000          0.214416E-03
      0.290000          0.199417E-03
      0.295000          0.185934E-03
      0.300000          0.174000E-03
      0.305000          0.163597E-03
      0.310000          0.154659E-03
      0.315000          0.147084E-03
      0.320000          0.140743E-03
      0.325000          0.135488E-03
      0.330000          0.131160E-03
      0.335000          0.127600E-03
      0.340000          0.124654E-03
      0.345000          0.122176E-03
      0.350000          0.120036E-03
      0.355000          0.118123E-03
      0.360000          0.116341E-03
      0.365000          0.114617E-03
      0.370000          0.112897E-03
      0.375000          0.111144E-03
      0.380000          0.109339E-03
      0.385000          0.107475E-03
      0.390000          0.105560E-03
      0.395000          0.103609E-03
      0.400000          0.101642E-03
      0.405000          0.996864E-04
      0.410000          0.977688E-04
      0.415000          0.959166E-04
      0.420000          0.941552E-04
      0.425000          0.925068E-04
      0.430000          0.909897E-04
      0.435000          0.896176E-04
      0.440000          0.883996E-04
      0.445000          0.873399E-04
      0.450000          0.864386E-04
      0.455000          0.856917E-04
      0.460000          0.850922E-04
      0.465000          0.846302E-04
      0.470000          0.842942E-04
      0.475000          0.840714E-04
      0.480000          0.839488E-04
      0.485000          0.839133E-04
      0.490000          0.839523E-04
      0.495000          0.840546E-04
      0.500000          0.842097E-04
