 I_abs(s)[cm^-1]/c[mg/ml]
       0.00000          0.133869E-01
      0.500000E-02      0.133133E-01
      0.100000E-01      0.130950E-01
      0.150000E-01      0.127394E-01
      0.200000E-01      0.122584E-01
      0.250000E-01      0.116680E-01
      0.300000E-01      0.109871E-01
      0.350000E-01      0.102371E-01
      0.400000E-01      0.944051E-02
      0.450000E-01      0.862003E-02
      0.500000E-01      0.779767E-02
      0.550000E-01      0.699373E-02
      0.600000E-01      0.622606E-02
      0.650000E-01      0.550947E-02
      0.700000E-01      0.485532E-02
      0.750000E-01      0.427131E-02
      0.800000E-01      0.376148E-02
      0.850000E-01      0.332645E-02
      0.900000E-01      0.296372E-02
      0.950000E-01      0.266816E-02
      0.100000          0.243265E-02
      0.105000          0.224862E-02
      0.110000          0.210673E-02
      0.115000          0.199747E-02
      0.120000          0.191167E-02
      0.125000          0.184097E-02
      0.130000          0.177814E-02
      0.135000          0.171731E-02
      0.140000          0.165409E-02
      0.145000          0.158557E-02
      0.150000          0.151021E-02
      0.155000          0.142772E-02
      0.160000          0.133879E-02
      0.165000          0.124488E-02
      0.170000          0.114798E-02
      0.175000          0.105031E-02
      0.180000          0.954122E-03
      0.185000          0.861533E-03
      0.190000          0.774360E-03
      0.195000          0.694030E-03
      0.200000          0.621528E-03
      0.205000          0.557392E-03
      0.210000          0.501737E-03
      0.215000          0.454304E-03
      0.220000          0.414538E-03
      0.225000          0.381663E-03
      0.230000          0.354768E-03
      0.235000          0.332880E-03
      0.240000          0.315033E-03
      0.245000          0.300327E-03
      0.250000          0.287959E-03
      0.255000          0.277253E-03
      0.260000          0.267669E-03
      0.265000          0.258803E-03
      0.270000          0.250375E-03
      0.275000          0.242212E-03
      0.280000          0.234229E-03
      0.285000          0.226405E-03
      0.290000          0.218764E-03
      0.295000          0.211354E-03
      0.300000          0.204231E-03
      0.305000          0.197451E-03
      0.310000          0.191056E-03
      0.315000          0.185072E-03
      0.320000          0.179511E-03
      0.325000          0.174363E-03
      0.330000          0.169605E-03
      0.335000          0.165203E-03
      0.340000          0.161113E-03
      0.345000          0.157286E-03
      0.350000          0.153672E-03
      0.355000          0.150223E-03
      0.360000          0.146893E-03
      0.365000          0.143644E-03
      0.370000          0.140442E-03
      0.375000          0.137264E-03
      0.380000          0.134093E-03
      0.385000          0.130921E-03
      0.390000          0.127749E-03
      0.395000          0.124585E-03
      0.400000          0.121443E-03
      0.405000          0.118345E-03
      0.410000          0.115317E-03
      0.415000          0.112388E-03
      0.420000          0.109588E-03
      0.425000          0.106946E-03
      0.430000          0.104490E-03
      0.435000          0.102244E-03
      0.440000          0.100226E-03
      0.445000          0.984443E-04
      0.450000          0.969025E-04
      0.455000          0.955939E-04
      0.460000          0.945034E-04
      0.465000          0.936077E-04
      0.470000          0.928764E-04
      0.475000          0.922737E-04
      0.480000          0.917597E-04
      0.485000          0.912931E-04
      0.490000          0.908329E-04
      0.495000          0.903405E-04
      0.500000          0.897823E-04
