 I_abs(s)[cm^-1]/c[mg/ml]
       0.00000          0.135319E-01
      0.500000E-02      0.134619E-01
      0.100000E-01      0.132543E-01
      0.150000E-01      0.129159E-01
      0.200000E-01      0.124575E-01
      0.250000E-01      0.118938E-01
      0.300000E-01      0.112421E-01
      0.350000E-01      0.105222E-01
      0.400000E-01      0.975470E-02
      0.450000E-01      0.896085E-02
      0.500000E-01      0.816113E-02
      0.550000E-01      0.737465E-02
      0.600000E-01      0.661838E-02
      0.650000E-01      0.590656E-02
      0.700000E-01      0.525038E-02
      0.750000E-01      0.465768E-02
      0.800000E-01      0.413300E-02
      0.850000E-01      0.367766E-02
      0.900000E-01      0.329009E-02
      0.950000E-01      0.296623E-02
      0.100000          0.270003E-02
      0.105000          0.248404E-02
      0.110000          0.230995E-02
      0.115000          0.216915E-02
      0.120000          0.205324E-02
      0.125000          0.195448E-02
      0.130000          0.186606E-02
      0.135000          0.178241E-02
      0.140000          0.169927E-02
      0.145000          0.161375E-02
      0.150000          0.152425E-02
      0.155000          0.143032E-02
      0.160000          0.133248E-02
      0.165000          0.123201E-02
      0.170000          0.113065E-02
      0.175000          0.103044E-02
      0.180000          0.933426E-03
      0.185000          0.841538E-03
      0.190000          0.756402E-03
      0.195000          0.679255E-03
      0.200000          0.610890E-03
      0.205000          0.551641E-03
      0.210000          0.501408E-03
      0.215000          0.459711E-03
      0.220000          0.425764E-03
      0.225000          0.398561E-03
      0.230000          0.376970E-03
      0.235000          0.359811E-03
      0.240000          0.345942E-03
      0.245000          0.334312E-03
      0.250000          0.324012E-03
      0.255000          0.314304E-03
      0.260000          0.304628E-03
      0.265000          0.294606E-03
      0.270000          0.284023E-03
      0.275000          0.272807E-03
      0.280000          0.261001E-03
      0.285000          0.248731E-03
      0.290000          0.236179E-03
      0.295000          0.223553E-03
      0.300000          0.211067E-03
      0.305000          0.198923E-03
      0.310000          0.187296E-03
      0.315000          0.176328E-03
      0.320000          0.166123E-03
      0.325000          0.156748E-03
      0.330000          0.148235E-03
      0.335000          0.140584E-03
      0.340000          0.133770E-03
      0.345000          0.127744E-03
      0.350000          0.122443E-03
      0.355000          0.117790E-03
      0.360000          0.113702E-03
      0.365000          0.110088E-03
      0.370000          0.106859E-03
      0.375000          0.103924E-03
      0.380000          0.101197E-03
      0.385000          0.986001E-04
      0.390000          0.960614E-04
      0.395000          0.935226E-04
      0.400000          0.909382E-04
      0.405000          0.882782E-04
      0.410000          0.855290E-04
      0.415000          0.826936E-04
      0.420000          0.797912E-04
      0.425000          0.768558E-04
      0.430000          0.739335E-04
      0.435000          0.710797E-04
      0.440000          0.683551E-04
      0.445000          0.658213E-04
      0.450000          0.635372E-04
      0.455000          0.615543E-04
      0.460000          0.599135E-04
      0.465000          0.586424E-04
      0.470000          0.577531E-04
      0.475000          0.572420E-04
      0.480000          0.570897E-04
      0.485000          0.572628E-04
      0.490000          0.577158E-04
      0.495000          0.583945E-04
      0.500000          0.592394E-04
