 I_abs(s)[cm^-1]/c[mg/ml]
       0.00000          0.139248E-01
      0.500000E-02      0.138597E-01
      0.100000E-01      0.136665E-01
      0.150000E-01      0.133513E-01
      0.200000E-01      0.129236E-01
      0.250000E-01      0.123966E-01
      0.300000E-01      0.117857E-01
      0.350000E-01      0.111084E-01
      0.400000E-01      0.103831E-01
      0.450000E-01      0.962850E-02
      0.500000E-01      0.886278E-02
      0.550000E-01      0.810283E-02
      0.600000E-01      0.736368E-02
      0.650000E-01      0.665802E-02
      0.700000E-01      0.599587E-02
      0.750000E-01      0.538446E-02
      0.800000E-01      0.482823E-02
      0.850000E-01      0.432894E-02
      0.900000E-01      0.388603E-02
      0.950000E-01      0.349692E-02
      0.100000          0.315749E-02
      0.105000          0.286253E-02
      0.110000          0.260622E-02
      0.115000          0.238254E-02
      0.120000          0.218569E-02
      0.125000          0.201035E-02
      0.130000          0.185190E-02
      0.135000          0.170661E-02
      0.140000          0.157164E-02
      0.145000          0.144500E-02
      0.150000          0.132552E-02
      0.155000          0.121268E-02
      0.160000          0.110646E-02
      0.165000          0.100715E-02
      0.170000          0.915211E-03
      0.175000          0.831126E-03
      0.180000          0.755262E-03
      0.185000          0.687797E-03
      0.190000          0.628667E-03
      0.195000          0.577555E-03
      0.200000          0.533901E-03
      0.205000          0.496946E-03
      0.210000          0.465789E-03
      0.215000          0.439451E-03
      0.220000          0.416942E-03
      0.225000          0.397324E-03
      0.230000          0.379765E-03
      0.235000          0.363570E-03
      0.240000          0.348209E-03
      0.245000          0.333316E-03
      0.250000          0.318688E-03
      0.255000          0.304261E-03
      0.260000          0.290080E-03
      0.265000          0.276270E-03
      0.270000          0.262998E-03
      0.275000          0.250442E-03
      0.280000          0.238768E-03
      0.285000          0.228099E-03
      0.290000          0.218513E-03
      0.295000          0.210026E-03
      0.300000          0.202599E-03
      0.305000          0.196142E-03
      0.310000          0.190525E-03
      0.315000          0.185590E-03
      0.320000          0.181167E-03
      0.325000          0.177085E-03
      0.330000          0.173186E-03
      0.335000          0.169335E-03
      0.340000          0.165423E-03
      0.345000          0.161377E-03
      0.350000          0.157154E-03
      0.355000          0.152743E-03
      0.360000          0.148161E-03
      0.365000          0.143445E-03
      0.370000          0.138650E-03
      0.375000          0.133842E-03
      0.380000          0.129090E-03
      0.385000          0.124463E-03
      0.390000          0.120027E-03
      0.395000          0.115840E-03
      0.400000          0.111949E-03
      0.405000          0.108392E-03
      0.410000          0.105193E-03
      0.415000          0.102367E-03
      0.420000          0.999154E-04
      0.425000          0.978290E-04
      0.430000          0.960889E-04
      0.435000          0.946675E-04
      0.440000          0.935293E-04
      0.445000          0.926324E-04
      0.450000          0.919304E-04
      0.455000          0.913737E-04
      0.460000          0.909119E-04
      0.465000          0.904951E-04
      0.470000          0.900767E-04
      0.475000          0.896148E-04
      0.480000          0.890742E-04
      0.485000          0.884281E-04
      0.490000          0.876592E-04
      0.495000          0.867602E-04
      0.500000          0.857339E-04
