 I_abs(s)[cm^-1]/c[mg/ml]
       0.00000          0.147436E-01
      0.500000E-02      0.146916E-01
      0.100000E-01      0.145369E-01
      0.150000E-01      0.142827E-01
      0.200000E-01      0.139342E-01
      0.250000E-01      0.134986E-01
      0.300000E-01      0.129847E-01
      0.350000E-01      0.124025E-01
      0.400000E-01      0.117633E-01
      0.450000E-01      0.110788E-01
      0.500000E-01      0.103613E-01
      0.550000E-01      0.962289E-02
      0.600000E-01      0.887546E-02
      0.650000E-01      0.813019E-02
      0.700000E-01      0.739736E-02
      0.750000E-01      0.668616E-02
      0.800000E-01      0.600446E-02
      0.850000E-01      0.535878E-02
      0.900000E-01      0.475417E-02
      0.950000E-01      0.419427E-02
      0.100000          0.368130E-02
      0.105000          0.321623E-02
      0.110000          0.279882E-02
      0.115000          0.242786E-02
      0.120000          0.210127E-02
      0.125000          0.181633E-02
      0.130000          0.156983E-02
      0.135000          0.135828E-02
      0.140000          0.117801E-02
      0.145000          0.102536E-02
      0.150000          0.896775E-03
      0.155000          0.788901E-03
      0.160000          0.698655E-03
      0.165000          0.623262E-03
      0.170000          0.560285E-03
      0.175000          0.507622E-03
      0.180000          0.463496E-03
      0.185000          0.426426E-03
      0.190000          0.395201E-03
      0.195000          0.368832E-03
      0.200000          0.346520E-03
      0.205000          0.327617E-03
      0.210000          0.311589E-03
      0.215000          0.297988E-03
      0.220000          0.286428E-03
      0.225000          0.276568E-03
      0.230000          0.268100E-03
      0.235000          0.260742E-03
      0.240000          0.254237E-03
      0.245000          0.248350E-03
      0.250000          0.242876E-03
      0.255000          0.237641E-03
      0.260000          0.232503E-03
      0.265000          0.227360E-03
      0.270000          0.222145E-03
      0.275000          0.216826E-03
      0.280000          0.211409E-03
      0.285000          0.205923E-03
      0.290000          0.200423E-03
      0.295000          0.194977E-03
      0.300000          0.189661E-03
      0.305000          0.184549E-03
      0.310000          0.179710E-03
      0.315000          0.175196E-03
      0.320000          0.171043E-03
      0.325000          0.167265E-03
      0.330000          0.163854E-03
      0.335000          0.160782E-03
      0.340000          0.157999E-03
      0.345000          0.155441E-03
      0.350000          0.153035E-03
      0.355000          0.150700E-03
      0.360000          0.148355E-03
      0.365000          0.145927E-03
      0.370000          0.143351E-03
      0.375000          0.140578E-03
      0.380000          0.137576E-03
      0.385000          0.134330E-03
      0.390000          0.130849E-03
      0.395000          0.127155E-03
      0.400000          0.123292E-03
      0.405000          0.119316E-03
      0.410000          0.115291E-03
      0.415000          0.111289E-03
      0.420000          0.107385E-03
      0.425000          0.103648E-03
      0.430000          0.100144E-03
      0.435000          0.969259E-04
      0.440000          0.940357E-04
      0.445000          0.915011E-04
      0.450000          0.893342E-04
      0.455000          0.875325E-04
      0.460000          0.860794E-04
      0.465000          0.849464E-04
      0.470000          0.840948E-04
      0.475000          0.834795E-04
      0.480000          0.830512E-04
      0.485000          0.827599E-04
      0.490000          0.825579E-04
      0.495000          0.824022E-04
      0.500000          0.822566E-04
