 I_abs(s)[cm^-1]/c[mg/ml]
       0.00000          0.146081E-01
      0.500000E-02      0.145529E-01
      0.100000E-01      0.143887E-01
      0.150000E-01      0.141197E-01
      0.200000E-01      0.137526E-01
      0.250000E-01      0.132965E-01
      0.300000E-01      0.127624E-01
      0.350000E-01      0.121628E-01
      0.400000E-01      0.115110E-01
      0.450000E-01      0.108210E-01
      0.500000E-01      0.101067E-01
      0.550000E-01      0.938127E-02
      0.600000E-01      0.865723E-02
      0.650000E-01      0.794568E-02
      0.700000E-01      0.725619E-02
      0.750000E-01      0.659665E-02
      0.800000E-01      0.597315E-02
      0.850000E-01      0.539000E-02
      0.900000E-01      0.484986E-02
      0.950000E-01      0.435381E-02
      0.100000          0.390165E-02
      0.105000          0.349207E-02
      0.110000          0.312291E-02
      0.115000          0.279143E-02
      0.120000          0.249451E-02
      0.125000          0.222890E-02
      0.130000          0.199137E-02
      0.135000          0.177884E-02
      0.140000          0.158847E-02
      0.145000          0.141776E-02
      0.150000          0.126453E-02
      0.155000          0.112691E-02
      0.160000          0.100337E-02
      0.165000          0.892615E-03
      0.170000          0.793558E-03
      0.175000          0.705280E-03
      0.180000          0.626971E-03
      0.185000          0.557888E-03
      0.190000          0.497323E-03
      0.195000          0.444586E-03
      0.200000          0.398985E-03
      0.205000          0.359833E-03
      0.210000          0.326442E-03
      0.215000          0.298140E-03
      0.220000          0.274275E-03
      0.225000          0.254236E-03
      0.230000          0.237459E-03
      0.235000          0.223435E-03
      0.240000          0.211718E-03
      0.245000          0.201926E-03
      0.250000          0.193740E-03
      0.255000          0.186895E-03
      0.260000          0.181181E-03
      0.265000          0.176424E-03
      0.270000          0.172487E-03
      0.275000          0.169254E-03
      0.280000          0.166624E-03
      0.285000          0.164508E-03
      0.290000          0.162817E-03
      0.295000          0.161468E-03
      0.300000          0.160377E-03
      0.305000          0.159462E-03
      0.310000          0.158644E-03
      0.315000          0.157850E-03
      0.320000          0.157015E-03
      0.325000          0.156087E-03
      0.330000          0.155027E-03
      0.335000          0.153808E-03
      0.340000          0.152421E-03
      0.345000          0.150870E-03
      0.350000          0.149171E-03
      0.355000          0.147351E-03
      0.360000          0.145443E-03
      0.365000          0.143482E-03
      0.370000          0.141504E-03
      0.375000          0.139541E-03
      0.380000          0.137618E-03
      0.385000          0.135751E-03
      0.390000          0.133946E-03
      0.395000          0.132201E-03
      0.400000          0.130502E-03
      0.405000          0.128830E-03
      0.410000          0.127160E-03
      0.415000          0.125462E-03
      0.420000          0.123710E-03
      0.425000          0.121878E-03
      0.430000          0.119947E-03
      0.435000          0.117905E-03
      0.440000          0.115747E-03
      0.445000          0.113479E-03
      0.450000          0.111114E-03
      0.455000          0.108670E-03
      0.460000          0.106172E-03
      0.465000          0.103650E-03
      0.470000          0.101130E-03
      0.475000          0.986402E-04
      0.480000          0.962035E-04
      0.485000          0.938383E-04
      0.490000          0.915573E-04
      0.495000          0.893671E-04
      0.500000          0.872691E-04
