 I_abs(s)[cm^-1]/c[mg/ml]
       0.00000          0.146559E-01
      0.500000E-02      0.146068E-01
      0.100000E-01      0.144607E-01
      0.150000E-01      0.142206E-01
      0.200000E-01      0.138918E-01
      0.250000E-01      0.134810E-01
      0.300000E-01      0.129966E-01
      0.350000E-01      0.124484E-01
      0.400000E-01      0.118470E-01
      0.450000E-01      0.112035E-01
      0.500000E-01      0.105292E-01
      0.550000E-01      0.983549E-02
      0.600000E-01      0.913317E-02
      0.650000E-01      0.843237E-02
      0.700000E-01      0.774229E-02
      0.750000E-01      0.707099E-02
      0.800000E-01      0.642531E-02
      0.850000E-01      0.581078E-02
      0.900000E-01      0.523161E-02
      0.950000E-01      0.469076E-02
      0.100000          0.418997E-02
      0.105000          0.372989E-02
      0.110000          0.331028E-02
      0.115000          0.293006E-02
      0.120000          0.258755E-02
      0.125000          0.228063E-02
      0.130000          0.200682E-02
      0.135000          0.176350E-02
      0.140000          0.154796E-02
      0.145000          0.135753E-02
      0.150000          0.118964E-02
      0.155000          0.104190E-02
      0.160000          0.912092E-03
      0.165000          0.798197E-03
      0.170000          0.698423E-03
      0.175000          0.611173E-03
      0.180000          0.535039E-03
      0.185000          0.468781E-03
      0.190000          0.411306E-03
      0.195000          0.361647E-03
      0.200000          0.318948E-03
      0.205000          0.282441E-03
      0.210000          0.251436E-03
      0.215000          0.225312E-03
      0.220000          0.203503E-03
      0.225000          0.185497E-03
      0.230000          0.170829E-03
      0.235000          0.159079E-03
      0.240000          0.149867E-03
      0.245000          0.142848E-03
      0.250000          0.137715E-03
      0.255000          0.134190E-03
      0.260000          0.132023E-03
      0.265000          0.130990E-03
      0.270000          0.130888E-03
      0.275000          0.131531E-03
      0.280000          0.132754E-03
      0.285000          0.134403E-03
      0.290000          0.136341E-03
      0.295000          0.138444E-03
      0.300000          0.140602E-03
      0.305000          0.142718E-03
      0.310000          0.144711E-03
      0.315000          0.146514E-03
      0.320000          0.148074E-03
      0.325000          0.149354E-03
      0.330000          0.150327E-03
      0.335000          0.150983E-03
      0.340000          0.151320E-03
      0.345000          0.151344E-03
      0.350000          0.151070E-03
      0.355000          0.150517E-03
      0.360000          0.149705E-03
      0.365000          0.148658E-03
      0.370000          0.147398E-03
      0.375000          0.145946E-03
      0.380000          0.144322E-03
      0.385000          0.142541E-03
      0.390000          0.140621E-03
      0.395000          0.138575E-03
      0.400000          0.136418E-03
      0.405000          0.134164E-03
      0.410000          0.131825E-03
      0.415000          0.129419E-03
      0.420000          0.126962E-03
      0.425000          0.124471E-03
      0.430000          0.121965E-03
      0.435000          0.119463E-03
      0.440000          0.116985E-03
      0.445000          0.114550E-03
      0.450000          0.112173E-03
      0.455000          0.109872E-03
      0.460000          0.107658E-03
      0.465000          0.105541E-03
      0.470000          0.103529E-03
      0.475000          0.101627E-03
      0.480000          0.998340E-04
      0.485000          0.981511E-04
      0.490000          0.965748E-04
      0.495000          0.951008E-04
      0.500000          0.937237E-04
