 I_abs(s)[cm^-1]/c[mg/ml]
       0.00000          0.136930E-01
      0.500000E-02      0.136077E-01
      0.100000E-01      0.133556E-01
      0.150000E-01      0.129472E-01
      0.200000E-01      0.123995E-01
      0.250000E-01      0.117347E-01
      0.300000E-01      0.109790E-01
      0.350000E-01      0.101607E-01
      0.400000E-01      0.930884E-02
      0.450000E-01      0.845143E-02
      0.500000E-01      0.761397E-02
      0.550000E-01      0.681828E-02
      0.600000E-01      0.608158E-02
      0.650000E-01      0.541599E-02
      0.700000E-01      0.482840E-02
      0.750000E-01      0.432069E-02
      0.800000E-01      0.389032E-02
      0.850000E-01      0.353107E-02
      0.900000E-01      0.323407E-02
      0.950000E-01      0.298877E-02
      0.100000          0.278402E-02
      0.105000          0.260894E-02
      0.110000          0.245374E-02
      0.115000          0.231025E-02
      0.120000          0.217225E-02
      0.125000          0.203563E-02
      0.130000          0.189830E-02
      0.135000          0.175993E-02
      0.140000          0.162159E-02
      0.145000          0.148532E-02
      0.150000          0.135365E-02
      0.155000          0.122924E-02
      0.160000          0.111443E-02
      0.165000          0.101105E-02
      0.170000          0.920186E-03
      0.175000          0.842154E-03
      0.180000          0.776512E-03
      0.185000          0.722172E-03
      0.190000          0.677560E-03
      0.195000          0.640802E-03
      0.200000          0.609927E-03
      0.205000          0.583037E-03
      0.210000          0.558464E-03
      0.215000          0.534865E-03
      0.220000          0.511287E-03
      0.225000          0.487173E-03
      0.230000          0.462334E-03
      0.235000          0.436888E-03
      0.240000          0.411181E-03
      0.245000          0.385697E-03
      0.250000          0.360972E-03
      0.255000          0.337518E-03
      0.260000          0.315758E-03
      0.265000          0.295994E-03
      0.270000          0.278383E-03
      0.275000          0.262937E-03
      0.280000          0.249542E-03
      0.285000          0.237980E-03
      0.290000          0.227966E-03
      0.295000          0.219183E-03
      0.300000          0.211315E-03
      0.305000          0.204070E-03
      0.310000          0.197208E-03
      0.315000          0.190548E-03
      0.320000          0.183970E-03
      0.325000          0.177421E-03
      0.330000          0.170896E-03
      0.335000          0.164435E-03
      0.340000          0.158102E-03
      0.345000          0.151977E-03
      0.350000          0.146138E-03
      0.355000          0.140655E-03
      0.360000          0.135580E-03
      0.365000          0.130944E-03
      0.370000          0.126751E-03
      0.375000          0.122989E-03
      0.380000          0.119621E-03
      0.385000          0.116600E-03
      0.390000          0.113868E-03
      0.395000          0.111366E-03
      0.400000          0.109035E-03
      0.405000          0.106824E-03
      0.410000          0.104690E-03
      0.415000          0.102603E-03
      0.420000          0.100546E-03
      0.425000          0.985106E-04
      0.430000          0.965011E-04
      0.435000          0.945288E-04
      0.440000          0.926101E-04
      0.445000          0.907637E-04
      0.450000          0.890080E-04
      0.455000          0.873584E-04
      0.460000          0.858262E-04
      0.465000          0.844169E-04
      0.470000          0.831302E-04
      0.475000          0.819601E-04
      0.480000          0.808958E-04
      0.485000          0.799226E-04
      0.490000          0.790236E-04
      0.495000          0.781808E-04
      0.500000          0.773765E-04
