 I_abs(s)[cm^-1]/c[mg/ml]
       0.00000          0.138628E-01
      0.500000E-02      0.138032E-01
      0.100000E-01      0.136259E-01
      0.150000E-01      0.133358E-01
      0.200000E-01      0.129406E-01
      0.250000E-01      0.124508E-01
      0.300000E-01      0.118790E-01
      0.350000E-01      0.112395E-01
      0.400000E-01      0.105477E-01
      0.450000E-01      0.981971E-02
      0.500000E-01      0.907146E-02
      0.550000E-01      0.831826E-02
      0.600000E-01      0.757435E-02
      0.650000E-01      0.685239E-02
      0.700000E-01      0.616320E-02
      0.750000E-01      0.551550E-02
      0.800000E-01      0.491582E-02
      0.850000E-01      0.436847E-02
      0.900000E-01      0.387565E-02
      0.950000E-01      0.343762E-02
      0.100000          0.305294E-02
      0.105000          0.271876E-02
      0.110000          0.243117E-02
      0.115000          0.218550E-02
      0.120000          0.197665E-02
      0.125000          0.179939E-02
      0.130000          0.164860E-02
      0.135000          0.151950E-02
      0.140000          0.140779E-02
      0.145000          0.130974E-02
      0.150000          0.122226E-02
      0.155000          0.114289E-02
      0.160000          0.106979E-02
      0.165000          0.100161E-02
      0.170000          0.937479E-03
      0.175000          0.876876E-03
      0.180000          0.819529E-03
      0.185000          0.765338E-03
      0.190000          0.714290E-03
      0.195000          0.666398E-03
      0.200000          0.621655E-03
      0.205000          0.580010E-03
      0.210000          0.541350E-03
      0.215000          0.505507E-03
      0.220000          0.472269E-03
      0.225000          0.441398E-03
      0.230000          0.412651E-03
      0.235000          0.385800E-03
      0.240000          0.360652E-03
      0.245000          0.337062E-03
      0.250000          0.314933E-03
      0.255000          0.294223E-03
      0.260000          0.274934E-03
      0.265000          0.257105E-03
      0.270000          0.240792E-03
      0.275000          0.226059E-03
      0.280000          0.212954E-03
      0.285000          0.201506E-03
      0.290000          0.191704E-03
      0.295000          0.183498E-03
      0.300000          0.176789E-03
      0.305000          0.171441E-03
      0.310000          0.167278E-03
      0.315000          0.164095E-03
      0.320000          0.161675E-03
      0.325000          0.159793E-03
      0.330000          0.158233E-03
      0.335000          0.156798E-03
      0.340000          0.155319E-03
      0.345000          0.153662E-03
      0.350000          0.151730E-03
      0.355000          0.149467E-03
      0.360000          0.146853E-03
      0.365000          0.143902E-03
      0.370000          0.140656E-03
      0.375000          0.137177E-03
      0.380000          0.133538E-03
      0.385000          0.129820E-03
      0.390000          0.126103E-03
      0.395000          0.122459E-03
      0.400000          0.118950E-03
      0.405000          0.115624E-03
      0.410000          0.112513E-03
      0.415000          0.109637E-03
      0.420000          0.107000E-03
      0.425000          0.104597E-03
      0.430000          0.102412E-03
      0.435000          0.100423E-03
      0.440000          0.986052E-04
      0.445000          0.969336E-04
      0.450000          0.953826E-04
      0.455000          0.939295E-04
      0.460000          0.925544E-04
      0.465000          0.912408E-04
      0.470000          0.899755E-04
      0.475000          0.887477E-04
      0.480000          0.875488E-04
      0.485000          0.863716E-04
      0.490000          0.852096E-04
      0.495000          0.840564E-04
      0.500000          0.829059E-04
