 I_abs(s)[cm^-1]/c[mg/ml]
       0.00000          0.139481E-01
      0.500000E-02      0.138946E-01
      0.100000E-01      0.137356E-01
      0.150000E-01      0.134750E-01
      0.200000E-01      0.131193E-01
      0.250000E-01      0.126774E-01
      0.300000E-01      0.121597E-01
      0.350000E-01      0.115785E-01
      0.400000E-01      0.109468E-01
      0.450000E-01      0.102782E-01
      0.500000E-01      0.958643E-02
      0.550000E-01      0.888465E-02
      0.600000E-01      0.818528E-02
      0.650000E-01      0.749950E-02
      0.700000E-01      0.683701E-02
      0.750000E-01      0.620585E-02
      0.800000E-01      0.561226E-02
      0.850000E-01      0.506065E-02
      0.900000E-01      0.455372E-02
      0.950000E-01      0.409248E-02
      0.100000          0.367654E-02
      0.105000          0.330427E-02
      0.110000          0.297308E-02
      0.115000          0.267965E-02
      0.120000          0.242026E-02
      0.125000          0.219095E-02
      0.130000          0.198780E-02
      0.135000          0.180705E-02
      0.140000          0.164530E-02
      0.145000          0.149954E-02
      0.150000          0.136724E-02
      0.155000          0.124637E-02
      0.160000          0.113534E-02
      0.165000          0.103299E-02
      0.170000          0.938510E-03
      0.175000          0.851371E-03
      0.180000          0.771243E-03
      0.185000          0.697920E-03
      0.190000          0.631253E-03
      0.195000          0.571092E-03
      0.200000          0.517248E-03
      0.205000          0.469464E-03
      0.210000          0.427402E-03
      0.215000          0.390649E-03
      0.220000          0.358721E-03
      0.225000          0.331088E-03
      0.230000          0.307196E-03
      0.235000          0.286490E-03
      0.240000          0.268443E-03
      0.245000          0.252573E-03
      0.250000          0.238459E-03
      0.255000          0.225755E-03
      0.260000          0.214191E-03
      0.265000          0.203570E-03
      0.270000          0.193767E-03
      0.275000          0.184713E-03
      0.280000          0.176383E-03
      0.285000          0.168784E-03
      0.290000          0.161939E-03
      0.295000          0.155873E-03
      0.300000          0.150605E-03
      0.305000          0.146135E-03
      0.310000          0.142444E-03
      0.315000          0.139488E-03
      0.320000          0.137201E-03
      0.325000          0.135495E-03
      0.330000          0.134269E-03
      0.335000          0.133411E-03
      0.340000          0.132805E-03
      0.345000          0.132340E-03
      0.350000          0.131913E-03
      0.355000          0.131432E-03
      0.360000          0.130824E-03
      0.365000          0.130031E-03
      0.370000          0.129017E-03
      0.375000          0.127761E-03
      0.380000          0.126258E-03
      0.385000          0.124518E-03
      0.390000          0.122559E-03
      0.395000          0.120409E-03
      0.400000          0.118098E-03
      0.405000          0.115658E-03
      0.410000          0.113121E-03
      0.415000          0.110516E-03
      0.420000          0.107868E-03
      0.425000          0.105198E-03
      0.430000          0.102524E-03
      0.435000          0.998600E-04
      0.440000          0.972154E-04
      0.445000          0.945989E-04
      0.450000          0.920176E-04
      0.455000          0.894778E-04
      0.460000          0.869862E-04
      0.465000          0.845502E-04
      0.470000          0.821784E-04
      0.475000          0.798803E-04
      0.480000          0.776666E-04
      0.485000          0.755490E-04
      0.490000          0.735396E-04
      0.495000          0.716506E-04
      0.500000          0.698938E-04
