 I_abs(s)[cm^-1]/c[mg/ml]
       0.00000          0.146320E-01
      0.500000E-02      0.145737E-01
      0.100000E-01      0.144003E-01
      0.150000E-01      0.141164E-01
      0.200000E-01      0.137297E-01
      0.250000E-01      0.132500E-01
      0.300000E-01      0.126894E-01
      0.350000E-01      0.120615E-01
      0.400000E-01      0.113809E-01
      0.450000E-01      0.106624E-01
      0.500000E-01      0.992079E-02
      0.550000E-01      0.916989E-02
      0.600000E-01      0.842252E-02
      0.650000E-01      0.768993E-02
      0.700000E-01      0.698162E-02
      0.750000E-01      0.630520E-02
      0.800000E-01      0.566640E-02
      0.850000E-01      0.506912E-02
      0.900000E-01      0.451558E-02
      0.950000E-01      0.400657E-02
      0.100000          0.354169E-02
      0.105000          0.311961E-02
      0.110000          0.273835E-02
      0.115000          0.239552E-02
      0.120000          0.208853E-02
      0.125000          0.181476E-02
      0.130000          0.157165E-02
      0.135000          0.135685E-02
      0.140000          0.116814E-02
      0.145000          0.100354E-02
      0.150000          0.861185E-03
      0.155000          0.739363E-03
      0.160000          0.636417E-03
      0.165000          0.550723E-03
      0.170000          0.480651E-03
      0.175000          0.424553E-03
      0.180000          0.380755E-03
      0.185000          0.347571E-03
      0.190000          0.323331E-03
      0.195000          0.306413E-03
      0.200000          0.295283E-03
      0.205000          0.288531E-03
      0.210000          0.284905E-03
      0.215000          0.283336E-03
      0.220000          0.282947E-03
      0.225000          0.283060E-03
      0.230000          0.283179E-03
      0.235000          0.282974E-03
      0.240000          0.282255E-03
      0.245000          0.280934E-03
      0.250000          0.278998E-03
      0.255000          0.276477E-03
      0.260000          0.273416E-03
      0.265000          0.269858E-03
      0.270000          0.265827E-03
      0.275000          0.261329E-03
      0.280000          0.256349E-03
      0.285000          0.250859E-03
      0.290000          0.244827E-03
      0.295000          0.238233E-03
      0.300000          0.231073E-03
      0.305000          0.223373E-03
      0.310000          0.215194E-03
      0.315000          0.206630E-03
      0.320000          0.197811E-03
      0.325000          0.188888E-03
      0.330000          0.180033E-03
      0.335000          0.171418E-03
      0.340000          0.163211E-03
      0.345000          0.155558E-03
      0.350000          0.148577E-03
      0.355000          0.142350E-03
      0.360000          0.136920E-03
      0.365000          0.132291E-03
      0.370000          0.128427E-03
      0.375000          0.125263E-03
      0.380000          0.122712E-03
      0.385000          0.120669E-03
      0.390000          0.119025E-03
      0.395000          0.117673E-03
      0.400000          0.116517E-03
      0.405000          0.115472E-03
      0.410000          0.114474E-03
      0.415000          0.113475E-03
      0.420000          0.112448E-03
      0.425000          0.111379E-03
      0.430000          0.110266E-03
      0.435000          0.109119E-03
      0.440000          0.107951E-03
      0.445000          0.106777E-03
      0.450000          0.105611E-03
      0.455000          0.104468E-03
      0.460000          0.103359E-03
      0.465000          0.102292E-03
      0.470000          0.101275E-03
      0.475000          0.100315E-03
      0.480000          0.994202E-04
      0.485000          0.985995E-04
      0.490000          0.978640E-04
      0.495000          0.972256E-04
      0.500000          0.966967E-04
