 I_abs(s)[cm^-1]/c[mg/ml]
       0.00000          0.136468E-01
      0.500000E-02      0.135977E-01
      0.100000E-01      0.134513E-01
      0.150000E-01      0.132108E-01
      0.200000E-01      0.128812E-01
      0.250000E-01      0.124693E-01
      0.300000E-01      0.119837E-01
      0.350000E-01      0.114339E-01
      0.400000E-01      0.108308E-01
      0.450000E-01      0.101858E-01
      0.500000E-01      0.951078E-02
      0.550000E-01      0.881749E-02
      0.600000E-01      0.811749E-02
      0.650000E-01      0.742172E-02
      0.700000E-01      0.674025E-02
      0.750000E-01      0.608207E-02
      0.800000E-01      0.545492E-02
      0.850000E-01      0.486516E-02
      0.900000E-01      0.431770E-02
      0.950000E-01      0.381598E-02
      0.100000          0.336202E-02
      0.105000          0.295647E-02
      0.110000          0.259876E-02
      0.115000          0.228724E-02
      0.120000          0.201933E-02
      0.125000          0.179173E-02
      0.130000          0.160061E-02
      0.135000          0.144179E-02
      0.140000          0.131093E-02
      0.145000          0.120369E-02
      0.150000          0.111587E-02
      0.155000          0.104357E-02
      0.160000          0.983208E-03
      0.165000          0.931671E-03
      0.170000          0.886298E-03
      0.175000          0.844919E-03
      0.180000          0.805844E-03
      0.185000          0.767837E-03
      0.190000          0.730074E-03
      0.195000          0.692091E-03
      0.200000          0.653727E-03
      0.205000          0.615055E-03
      0.210000          0.576323E-03
      0.215000          0.537894E-03
      0.220000          0.500189E-03
      0.225000          0.463645E-03
      0.230000          0.428672E-03
      0.235000          0.395628E-03
      0.240000          0.364793E-03
      0.245000          0.336367E-03
      0.250000          0.310458E-03
      0.255000          0.287089E-03
      0.260000          0.266207E-03
      0.265000          0.247693E-03
      0.270000          0.231375E-03
      0.275000          0.217048E-03
      0.280000          0.204486E-03
      0.285000          0.193458E-03
      0.290000          0.183736E-03
      0.295000          0.175113E-03
      0.300000          0.167402E-03
      0.305000          0.160446E-03
      0.310000          0.154120E-03
      0.315000          0.148328E-03
      0.320000          0.143001E-03
      0.325000          0.138097E-03
      0.330000          0.133594E-03
      0.335000          0.129483E-03
      0.340000          0.125765E-03
      0.345000          0.122445E-03
      0.350000          0.119527E-03
      0.355000          0.117010E-03
      0.360000          0.114885E-03
      0.365000          0.113135E-03
      0.370000          0.111729E-03
      0.375000          0.110629E-03
      0.380000          0.109786E-03
      0.385000          0.109142E-03
      0.390000          0.108635E-03
      0.395000          0.108199E-03
      0.400000          0.107769E-03
      0.405000          0.107282E-03
      0.410000          0.106682E-03
      0.415000          0.105917E-03
      0.420000          0.104950E-03
      0.425000          0.103753E-03
      0.430000          0.102311E-03
      0.435000          0.100621E-03
      0.440000          0.986935E-04
      0.445000          0.965511E-04
      0.450000          0.942266E-04
      0.455000          0.917616E-04
      0.460000          0.892050E-04
      0.465000          0.866100E-04
      0.470000          0.840324E-04
      0.475000          0.815275E-04
      0.480000          0.791483E-04
      0.485000          0.769431E-04
      0.490000          0.749539E-04
      0.495000          0.732144E-04
      0.500000          0.717493E-04
