 I_abs(s)[cm^-1]/c[mg/ml]
       0.00000          0.138318E-01
      0.500000E-02      0.137650E-01
      0.100000E-01      0.135667E-01
      0.150000E-01      0.132436E-01
      0.200000E-01      0.128063E-01
      0.250000E-01      0.122688E-01
      0.300000E-01      0.116480E-01
      0.350000E-01      0.109628E-01
      0.400000E-01      0.102329E-01
      0.450000E-01      0.947825E-02
      0.500000E-01      0.871809E-02
      0.550000E-01      0.796999E-02
      0.600000E-01      0.724934E-02
      0.650000E-01      0.656879E-02
      0.700000E-01      0.593794E-02
      0.750000E-01      0.536322E-02
      0.800000E-01      0.484792E-02
      0.850000E-01      0.439245E-02
      0.900000E-01      0.399464E-02
      0.950000E-01      0.365028E-02
      0.100000          0.335358E-02
      0.105000          0.309776E-02
      0.110000          0.287563E-02
      0.115000          0.268002E-02
      0.120000          0.250427E-02
      0.125000          0.234254E-02
      0.130000          0.219004E-02
      0.135000          0.204317E-02
      0.140000          0.189953E-02
      0.145000          0.175785E-02
      0.150000          0.161788E-02
      0.155000          0.148014E-02
      0.160000          0.134575E-02
      0.165000          0.121618E-02
      0.170000          0.109302E-02
      0.175000          0.977801E-03
      0.180000          0.871806E-03
      0.185000          0.775985E-03
      0.190000          0.690874E-03
      0.195000          0.616576E-03
      0.200000          0.552780E-03
      0.205000          0.498816E-03
      0.210000          0.453729E-03
      0.215000          0.416368E-03
      0.220000          0.385485E-03
      0.225000          0.359818E-03
      0.230000          0.338174E-03
      0.235000          0.319489E-03
      0.240000          0.302872E-03
      0.245000          0.287625E-03
      0.250000          0.273250E-03
      0.255000          0.259437E-03
      0.260000          0.246038E-03
      0.265000          0.233039E-03
      0.270000          0.220515E-03
      0.275000          0.208600E-03
      0.280000          0.197452E-03
      0.285000          0.187218E-03
      0.290000          0.178018E-03
      0.295000          0.169927E-03
      0.300000          0.162968E-03
      0.305000          0.157112E-03
      0.310000          0.152283E-03
      0.315000          0.148368E-03
      0.320000          0.145224E-03
      0.325000          0.142695E-03
      0.330000          0.140620E-03
      0.335000          0.138846E-03
      0.340000          0.137236E-03
      0.345000          0.135672E-03
      0.350000          0.134060E-03
      0.355000          0.132333E-03
      0.360000          0.130446E-03
      0.365000          0.128376E-03
      0.370000          0.126117E-03
      0.375000          0.123679E-03
      0.380000          0.121081E-03
      0.385000          0.118348E-03
      0.390000          0.115510E-03
      0.395000          0.112596E-03
      0.400000          0.109637E-03
      0.405000          0.106662E-03
      0.410000          0.103696E-03
      0.415000          0.100765E-03
      0.420000          0.978923E-04
      0.425000          0.950986E-04
      0.430000          0.924047E-04
      0.435000          0.898299E-04
      0.440000          0.873927E-04
      0.445000          0.851102E-04
      0.450000          0.829978E-04
      0.455000          0.810687E-04
      0.460000          0.793335E-04
      0.465000          0.777988E-04
      0.470000          0.764673E-04
      0.475000          0.753371E-04
      0.480000          0.744013E-04
      0.485000          0.736479E-04
      0.490000          0.730603E-04
      0.495000          0.726174E-04
      0.500000          0.722950E-04
