 I_abs(s)[cm^-1]/c[mg/ml]
       0.00000          0.133261E-01
      0.500000E-02      0.132406E-01
      0.100000E-01      0.129881E-01
      0.150000E-01      0.125802E-01
      0.200000E-01      0.120356E-01
      0.250000E-01      0.113783E-01
      0.300000E-01      0.106364E-01
      0.350000E-01      0.983961E-02
      0.400000E-01      0.901803E-02
      0.450000E-01      0.819974E-02
      0.500000E-01      0.740950E-02
      0.550000E-01      0.666749E-02
      0.600000E-01      0.598852E-02
      0.650000E-01      0.538176E-02
      0.700000E-01      0.485094E-02
      0.750000E-01      0.439485E-02
      0.800000E-01      0.400826E-02
      0.850000E-01      0.368298E-02
      0.900000E-01      0.340902E-02
      0.950000E-01      0.317571E-02
      0.100000          0.297269E-02
      0.105000          0.279073E-02
      0.110000          0.262224E-02
      0.115000          0.246160E-02
      0.120000          0.230517E-02
      0.125000          0.215115E-02
      0.130000          0.199925E-02
      0.135000          0.185028E-02
      0.140000          0.170572E-02
      0.145000          0.156729E-02
      0.150000          0.143661E-02
      0.155000          0.131497E-02
      0.160000          0.120314E-02
      0.165000          0.110139E-02
      0.170000          0.100945E-02
      0.175000          0.926698E-03
      0.180000          0.852239E-03
      0.185000          0.785080E-03
      0.190000          0.724250E-03
      0.195000          0.668897E-03
      0.200000          0.618351E-03
      0.205000          0.572132E-03
      0.210000          0.529936E-03
      0.215000          0.491587E-03
      0.220000          0.456982E-03
      0.225000          0.426025E-03
      0.230000          0.398585E-03
      0.235000          0.374461E-03
      0.240000          0.353369E-03
      0.245000          0.334947E-03
      0.250000          0.318786E-03
      0.255000          0.304454E-03
      0.260000          0.291540E-03
      0.265000          0.279678E-03
      0.270000          0.268581E-03
      0.275000          0.258045E-03
      0.280000          0.247954E-03
      0.285000          0.238264E-03
      0.290000          0.228987E-03
      0.295000          0.220165E-03
      0.300000          0.211844E-03
      0.305000          0.204057E-03
      0.310000          0.196805E-03
      0.315000          0.190057E-03
      0.320000          0.183747E-03
      0.325000          0.177785E-03
      0.330000          0.172071E-03
      0.335000          0.166508E-03
      0.340000          0.161020E-03
      0.345000          0.155560E-03
      0.350000          0.150117E-03
      0.355000          0.144717E-03
      0.360000          0.139418E-03
      0.365000          0.134301E-03
      0.370000          0.129457E-03
      0.375000          0.124974E-03
      0.380000          0.120925E-03
      0.385000          0.117358E-03
      0.390000          0.114289E-03
      0.395000          0.111702E-03
      0.400000          0.109548E-03
      0.405000          0.107754E-03
      0.410000          0.106229E-03
      0.415000          0.104871E-03
      0.420000          0.103585E-03
      0.425000          0.102281E-03
      0.430000          0.100889E-03
      0.435000          0.993622E-04
      0.440000          0.976745E-04
      0.445000          0.958255E-04
      0.450000          0.938347E-04
      0.455000          0.917388E-04
      0.460000          0.895854E-04
      0.465000          0.874278E-04
      0.470000          0.853196E-04
      0.475000          0.833098E-04
      0.480000          0.814387E-04
      0.485000          0.797357E-04
      0.490000          0.782176E-04
      0.495000          0.768884E-04
      0.500000          0.757404E-04
