 I_abs(s)[cm^-1]/c[mg/ml]
       0.00000          0.137007E-01
      0.500000E-02      0.136372E-01
      0.100000E-01      0.134486E-01
      0.150000E-01      0.131412E-01
      0.200000E-01      0.127245E-01
      0.250000E-01      0.122114E-01
      0.300000E-01      0.116175E-01
      0.350000E-01      0.109599E-01
      0.400000E-01      0.102567E-01
      0.450000E-01      0.952639E-02
      0.500000E-01      0.878649E-02
      0.550000E-01      0.805329E-02
      0.600000E-01      0.734113E-02
      0.650000E-01      0.666189E-02
      0.700000E-01      0.602484E-02
      0.750000E-01      0.543643E-02
      0.800000E-01      0.490041E-02
      0.850000E-01      0.441800E-02
      0.900000E-01      0.398823E-02
      0.950000E-01      0.360834E-02
      0.100000          0.327421E-02
      0.105000          0.298086E-02
      0.110000          0.272290E-02
      0.115000          0.249490E-02
      0.120000          0.229174E-02
      0.125000          0.210890E-02
      0.130000          0.194254E-02
      0.135000          0.178965E-02
      0.140000          0.164800E-02
      0.145000          0.151611E-02
      0.150000          0.139307E-02
      0.155000          0.127847E-02
      0.160000          0.117215E-02
      0.165000          0.107414E-02
      0.170000          0.984450E-03
      0.175000          0.903022E-03
      0.180000          0.829624E-03
      0.185000          0.763837E-03
      0.190000          0.705056E-03
      0.195000          0.652524E-03
      0.200000          0.605383E-03
      0.205000          0.562742E-03
      0.210000          0.523741E-03
      0.215000          0.487617E-03
      0.220000          0.453753E-03
      0.225000          0.421705E-03
      0.230000          0.391217E-03
      0.235000          0.362215E-03
      0.240000          0.334778E-03
      0.245000          0.309099E-03
      0.250000          0.285442E-03
      0.255000          0.264086E-03
      0.260000          0.245277E-03
      0.265000          0.229191E-03
      0.270000          0.215899E-03
      0.275000          0.205350E-03
      0.280000          0.197369E-03
      0.285000          0.191665E-03
      0.290000          0.187852E-03
      0.295000          0.185478E-03
      0.300000          0.184059E-03
      0.305000          0.183118E-03
      0.310000          0.182215E-03
      0.315000          0.180976E-03
      0.320000          0.179116E-03
      0.325000          0.176451E-03
      0.330000          0.172899E-03
      0.335000          0.168478E-03
      0.340000          0.163289E-03
      0.345000          0.157497E-03
      0.350000          0.151312E-03
      0.355000          0.144960E-03
      0.360000          0.138663E-03
      0.365000          0.132619E-03
      0.370000          0.126987E-03
      0.375000          0.121874E-03
      0.380000          0.117337E-03
      0.385000          0.113377E-03
      0.390000          0.109952E-03
      0.395000          0.106985E-03
      0.400000          0.104374E-03
      0.405000          0.102012E-03
      0.410000          0.997914E-04
      0.415000          0.976229E-04
      0.420000          0.954403E-04
      0.425000          0.932067E-04
      0.430000          0.909161E-04
      0.435000          0.885919E-04
      0.440000          0.862821E-04
      0.445000          0.840522E-04
      0.450000          0.819769E-04
      0.455000          0.801311E-04
      0.460000          0.785817E-04
      0.465000          0.773799E-04
      0.470000          0.765564E-04
      0.475000          0.761178E-04
      0.480000          0.760466E-04
      0.485000          0.763025E-04
      0.490000          0.768266E-04
      0.495000          0.775465E-04
      0.500000          0.783827E-04
