 I_abs(s)[cm^-1]/c[mg/ml]
       0.00000          0.144812E-01
      0.500000E-02      0.144333E-01
      0.100000E-01      0.142903E-01
      0.150000E-01      0.140553E-01
      0.200000E-01      0.137332E-01
      0.250000E-01      0.133303E-01
      0.300000E-01      0.128547E-01
      0.350000E-01      0.123156E-01
      0.400000E-01      0.117231E-01
      0.450000E-01      0.110880E-01
      0.500000E-01      0.104212E-01
      0.550000E-01      0.973375E-02
      0.600000E-01      0.903635E-02
      0.650000E-01      0.833904E-02
      0.700000E-01      0.765105E-02
      0.750000E-01      0.698060E-02
      0.800000E-01      0.633475E-02
      0.850000E-01      0.571932E-02
      0.900000E-01      0.513886E-02
      0.950000E-01      0.459664E-02
      0.100000          0.409475E-02
      0.105000          0.363414E-02
      0.110000          0.321477E-02
      0.115000          0.283577E-02
      0.120000          0.249556E-02
      0.125000          0.219200E-02
      0.130000          0.192259E-02
      0.135000          0.168461E-02
      0.140000          0.147518E-02
      0.145000          0.129146E-02
      0.150000          0.113071E-02
      0.155000          0.990326E-03
      0.160000          0.867926E-03
      0.165000          0.761367E-03
      0.170000          0.668748E-03
      0.175000          0.588412E-03
      0.180000          0.518926E-03
      0.185000          0.459059E-03
      0.190000          0.407751E-03
      0.195000          0.364087E-03
      0.200000          0.327264E-03
      0.205000          0.296567E-03
      0.210000          0.271342E-03
      0.215000          0.250988E-03
      0.220000          0.234933E-03
      0.225000          0.222636E-03
      0.230000          0.213578E-03
      0.235000          0.207264E-03
      0.240000          0.203227E-03
      0.245000          0.201028E-03
      0.250000          0.200263E-03
      0.255000          0.200567E-03
      0.260000          0.201614E-03
      0.265000          0.203124E-03
      0.270000          0.204859E-03
      0.275000          0.206622E-03
      0.280000          0.208255E-03
      0.285000          0.209636E-03
      0.290000          0.210673E-03
      0.295000          0.211299E-03
      0.300000          0.211469E-03
      0.305000          0.211154E-03
      0.310000          0.210336E-03
      0.315000          0.209008E-03
      0.320000          0.207169E-03
      0.325000          0.204826E-03
      0.330000          0.201988E-03
      0.335000          0.198673E-03
      0.340000          0.194901E-03
      0.345000          0.190701E-03
      0.350000          0.186109E-03
      0.355000          0.181165E-03
      0.360000          0.175920E-03
      0.365000          0.170430E-03
      0.370000          0.164757E-03
      0.375000          0.158967E-03
      0.380000          0.153130E-03
      0.385000          0.147317E-03
      0.390000          0.141595E-03
      0.395000          0.136030E-03
      0.400000          0.130682E-03
      0.405000          0.125600E-03
      0.410000          0.120828E-03
      0.415000          0.116397E-03
      0.420000          0.112328E-03
      0.425000          0.108630E-03
      0.430000          0.105303E-03
      0.435000          0.102336E-03
      0.440000          0.997100E-04
      0.445000          0.973988E-04
      0.450000          0.953713E-04
      0.455000          0.935934E-04
      0.460000          0.920289E-04
      0.465000          0.906423E-04
      0.470000          0.893997E-04
      0.475000          0.882701E-04
      0.480000          0.872266E-04
      0.485000          0.862469E-04
      0.490000          0.853136E-04
      0.495000          0.844144E-04
      0.500000          0.835414E-04
