 I_abs(s)[cm^-1]/c[mg/ml]
       0.00000          0.144575E-01
      0.500000E-02      0.144032E-01
      0.100000E-01      0.142417E-01
      0.150000E-01      0.139766E-01
      0.200000E-01      0.136139E-01
      0.250000E-01      0.131619E-01
      0.300000E-01      0.126305E-01
      0.350000E-01      0.120311E-01
      0.400000E-01      0.113762E-01
      0.450000E-01      0.106790E-01
      0.500000E-01      0.995273E-02
      0.550000E-01      0.921068E-02
      0.600000E-01      0.846543E-02
      0.650000E-01      0.772868E-02
      0.700000E-01      0.701096E-02
      0.750000E-01      0.632136E-02
      0.800000E-01      0.566745E-02
      0.850000E-01      0.505514E-02
      0.900000E-01      0.448871E-02
      0.950000E-01      0.397082E-02
      0.100000          0.350267E-02
      0.105000          0.308407E-02
      0.110000          0.271371E-02
      0.115000          0.238927E-02
      0.120000          0.210770E-02
      0.125000          0.186540E-02
      0.130000          0.165842E-02
      0.135000          0.148265E-02
      0.140000          0.133398E-02
      0.145000          0.120843E-02
      0.150000          0.110226E-02
      0.155000          0.101204E-02
      0.160000          0.934722E-03
      0.165000          0.867634E-03
      0.170000          0.808514E-03
      0.175000          0.755486E-03
      0.180000          0.707044E-03
      0.185000          0.662014E-03
      0.190000          0.619521E-03
      0.195000          0.578945E-03
      0.200000          0.539881E-03
      0.205000          0.502101E-03
      0.210000          0.465516E-03
      0.215000          0.430146E-03
      0.220000          0.396084E-03
      0.225000          0.363479E-03
      0.230000          0.332506E-03
      0.235000          0.303352E-03
      0.240000          0.276197E-03
      0.245000          0.251203E-03
      0.250000          0.228501E-03
      0.255000          0.208184E-03
      0.260000          0.190300E-03
      0.265000          0.174851E-03
      0.270000          0.161786E-03
      0.275000          0.151007E-03
      0.280000          0.142373E-03
      0.285000          0.135700E-03
      0.290000          0.130774E-03
      0.295000          0.127354E-03
      0.300000          0.125187E-03
      0.305000          0.124014E-03
      0.310000          0.123580E-03
      0.315000          0.123647E-03
      0.320000          0.123997E-03
      0.325000          0.124441E-03
      0.330000          0.124824E-03
      0.335000          0.125027E-03
      0.340000          0.124969E-03
      0.345000          0.124604E-03
      0.350000          0.123919E-03
      0.355000          0.122932E-03
      0.360000          0.121682E-03
      0.365000          0.120227E-03
      0.370000          0.118636E-03
      0.375000          0.116982E-03
      0.380000          0.115338E-03
      0.385000          0.113773E-03
      0.390000          0.112343E-03
      0.395000          0.111094E-03
      0.400000          0.110056E-03
      0.405000          0.109245E-03
      0.410000          0.108662E-03
      0.415000          0.108292E-03
      0.420000          0.108113E-03
      0.425000          0.108089E-03
      0.430000          0.108180E-03
      0.435000          0.108343E-03
      0.440000          0.108531E-03
      0.445000          0.108702E-03
      0.450000          0.108817E-03
      0.455000          0.108841E-03
      0.460000          0.108749E-03
      0.465000          0.108521E-03
      0.470000          0.108147E-03
      0.475000          0.107626E-03
      0.480000          0.106961E-03
      0.485000          0.106165E-03
      0.490000          0.105255E-03
      0.495000          0.104252E-03
      0.500000          0.103179E-03
