 I_abs(s)[cm^-1]/c[mg/ml]
       0.00000          0.146877E-01
      0.500000E-02      0.146465E-01
      0.100000E-01      0.145233E-01
      0.150000E-01      0.143202E-01
      0.200000E-01      0.140404E-01
      0.250000E-01      0.136882E-01
      0.300000E-01      0.132690E-01
      0.350000E-01      0.127891E-01
      0.400000E-01      0.122557E-01
      0.450000E-01      0.116765E-01
      0.500000E-01      0.110598E-01
      0.550000E-01      0.104140E-01
      0.600000E-01      0.974761E-02
      0.650000E-01      0.906915E-02
      0.700000E-01      0.838682E-02
      0.750000E-01      0.770840E-02
      0.800000E-01      0.704116E-02
      0.850000E-01      0.639168E-02
      0.900000E-01      0.576581E-02
      0.950000E-01      0.516854E-02
      0.100000          0.460404E-02
      0.105000          0.407554E-02
      0.110000          0.358544E-02
      0.115000          0.313522E-02
      0.120000          0.272558E-02
      0.125000          0.235646E-02
      0.130000          0.202710E-02
      0.135000          0.173618E-02
      0.140000          0.148183E-02
      0.145000          0.126181E-02
      0.150000          0.107355E-02
      0.155000          0.914282E-03
      0.160000          0.781092E-03
      0.165000          0.671038E-03
      0.170000          0.581205E-03
      0.175000          0.508773E-03
      0.180000          0.451072E-03
      0.185000          0.405623E-03
      0.190000          0.370168E-03
      0.195000          0.342689E-03
      0.200000          0.321423E-03
      0.205000          0.304857E-03
      0.210000          0.291725E-03
      0.215000          0.280993E-03
      0.220000          0.271843E-03
      0.225000          0.263652E-03
      0.230000          0.255961E-03
      0.235000          0.248462E-03
      0.240000          0.240959E-03
      0.245000          0.233357E-03
      0.250000          0.225629E-03
      0.255000          0.217801E-03
      0.260000          0.209934E-03
      0.265000          0.202107E-03
      0.270000          0.194407E-03
      0.275000          0.186919E-03
      0.280000          0.179716E-03
      0.285000          0.172863E-03
      0.290000          0.166405E-03
      0.295000          0.160373E-03
      0.300000          0.154783E-03
      0.305000          0.149636E-03
      0.310000          0.144922E-03
      0.315000          0.140621E-03
      0.320000          0.136709E-03
      0.325000          0.133157E-03
      0.330000          0.129933E-03
      0.335000          0.127007E-03
      0.340000          0.124352E-03
      0.345000          0.121941E-03
      0.350000          0.119751E-03
      0.355000          0.117764E-03
      0.360000          0.115963E-03
      0.365000          0.114335E-03
      0.370000          0.112870E-03
      0.375000          0.111556E-03
      0.380000          0.110385E-03
      0.385000          0.109348E-03
      0.390000          0.108433E-03
      0.395000          0.107629E-03
      0.400000          0.106924E-03
      0.405000          0.106301E-03
      0.410000          0.105743E-03
      0.415000          0.105232E-03
      0.420000          0.104748E-03
      0.425000          0.104270E-03
      0.430000          0.103775E-03
      0.435000          0.103243E-03
      0.440000          0.102653E-03
      0.445000          0.101985E-03
      0.450000          0.101224E-03
      0.455000          0.100355E-03
      0.460000          0.993666E-04
      0.465000          0.982511E-04
      0.470000          0.970049E-04
      0.475000          0.956281E-04
      0.480000          0.941248E-04
      0.485000          0.925028E-04
      0.490000          0.907739E-04
      0.495000          0.889528E-04
      0.500000          0.870573E-04
