 I_abs(s)[cm^-1]/c[mg/ml]
       0.00000          0.146479E-01
      0.500000E-02      0.146035E-01
      0.100000E-01      0.144713E-01
      0.150000E-01      0.142538E-01
      0.200000E-01      0.139551E-01
      0.250000E-01      0.135808E-01
      0.300000E-01      0.131380E-01
      0.350000E-01      0.126347E-01
      0.400000E-01      0.120795E-01
      0.450000E-01      0.114820E-01
      0.500000E-01      0.108519E-01
      0.550000E-01      0.101988E-01
      0.600000E-01      0.953230E-02
      0.650000E-01      0.886140E-02
      0.700000E-01      0.819450E-02
      0.750000E-01      0.753921E-02
      0.800000E-01      0.690218E-02
      0.850000E-01      0.628907E-02
      0.900000E-01      0.570449E-02
      0.950000E-01      0.515198E-02
      0.100000          0.463408E-02
      0.105000          0.415238E-02
      0.110000          0.370759E-02
      0.115000          0.329966E-02
      0.120000          0.292789E-02
      0.125000          0.259105E-02
      0.130000          0.228751E-02
      0.135000          0.201532E-02
      0.140000          0.177233E-02
      0.145000          0.155629E-02
      0.150000          0.136494E-02
      0.155000          0.119602E-02
      0.160000          0.104737E-02
      0.165000          0.916931E-03
      0.170000          0.802799E-03
      0.175000          0.703208E-03
      0.180000          0.616550E-03
      0.185000          0.541364E-03
      0.190000          0.476335E-03
      0.195000          0.420280E-03
      0.200000          0.372139E-03
      0.205000          0.330960E-03
      0.210000          0.295890E-03
      0.215000          0.266163E-03
      0.220000          0.241092E-03
      0.225000          0.220062E-03
      0.230000          0.202520E-03
      0.235000          0.187973E-03
      0.240000          0.175981E-03
      0.245000          0.166154E-03
      0.250000          0.158149E-03
      0.255000          0.151664E-03
      0.260000          0.146434E-03
      0.265000          0.142233E-03
      0.270000          0.138863E-03
      0.275000          0.136156E-03
      0.280000          0.133968E-03
      0.285000          0.132175E-03
      0.290000          0.130674E-03
      0.295000          0.129375E-03
      0.300000          0.128205E-03
      0.305000          0.127099E-03
      0.310000          0.126005E-03
      0.315000          0.124880E-03
      0.320000          0.123688E-03
      0.325000          0.122401E-03
      0.330000          0.121002E-03
      0.335000          0.119478E-03
      0.340000          0.117824E-03
      0.345000          0.116043E-03
      0.350000          0.114145E-03
      0.355000          0.112144E-03
      0.360000          0.110062E-03
      0.365000          0.107926E-03
      0.370000          0.105763E-03
      0.375000          0.103607E-03
      0.380000          0.101491E-03
      0.385000          0.994474E-04
      0.390000          0.975077E-04
      0.395000          0.957005E-04
      0.400000          0.940498E-04
      0.405000          0.925745E-04
      0.410000          0.912874E-04
      0.415000          0.901941E-04
      0.420000          0.892937E-04
      0.425000          0.885779E-04
      0.430000          0.880321E-04
      0.435000          0.876358E-04
      0.440000          0.873636E-04
      0.445000          0.871866E-04
      0.450000          0.870738E-04
      0.455000          0.869933E-04
      0.460000          0.869144E-04
      0.465000          0.868085E-04
      0.470000          0.866508E-04
      0.475000          0.864211E-04
      0.480000          0.861051E-04
      0.485000          0.856940E-04
      0.490000          0.851858E-04
      0.495000          0.845842E-04
      0.500000          0.838984E-04
