 I_abs(s)[cm^-1]/c[mg/ml]
       0.00000          0.137855E-01
      0.500000E-02      0.137174E-01
      0.100000E-01      0.135154E-01
      0.150000E-01      0.131861E-01
      0.200000E-01      0.127401E-01
      0.250000E-01      0.121916E-01
      0.300000E-01      0.115575E-01
      0.350000E-01      0.108569E-01
      0.400000E-01      0.101098E-01
      0.450000E-01      0.933657E-02
      0.500000E-01      0.855683E-02
      0.550000E-01      0.778876E-02
      0.600000E-01      0.704837E-02
      0.650000E-01      0.634899E-02
      0.700000E-01      0.570092E-02
      0.750000E-01      0.511126E-02
      0.800000E-01      0.458390E-02
      0.850000E-01      0.411972E-02
      0.900000E-01      0.371694E-02
      0.950000E-01      0.337150E-02
      0.100000          0.307766E-02
      0.105000          0.282850E-02
      0.110000          0.261649E-02
      0.115000          0.243406E-02
      0.120000          0.227399E-02
      0.125000          0.212985E-02
      0.130000          0.199626E-02
      0.135000          0.186903E-02
      0.140000          0.174523E-02
      0.145000          0.162317E-02
      0.150000          0.150226E-02
      0.155000          0.138282E-02
      0.160000          0.126584E-02
      0.165000          0.115280E-02
      0.170000          0.104532E-02
      0.175000          0.945016E-03
      0.180000          0.853291E-03
      0.185000          0.771175E-03
      0.190000          0.699253E-03
      0.195000          0.637618E-03
      0.200000          0.585891E-03
      0.205000          0.543266E-03
      0.210000          0.508604E-03
      0.215000          0.480532E-03
      0.220000          0.457565E-03
      0.225000          0.438218E-03
      0.230000          0.421108E-03
      0.235000          0.405039E-03
      0.240000          0.389062E-03
      0.245000          0.372510E-03
      0.250000          0.355001E-03
      0.255000          0.336428E-03
      0.260000          0.316916E-03
      0.265000          0.296776E-03
      0.270000          0.276444E-03
      0.275000          0.256419E-03
      0.280000          0.237206E-03
      0.285000          0.219262E-03
      0.290000          0.202959E-03
      0.295000          0.188556E-03
      0.300000          0.176184E-03
      0.305000          0.165847E-03
      0.310000          0.157434E-03
      0.315000          0.150738E-03
      0.320000          0.145481E-03
      0.325000          0.141345E-03
      0.330000          0.138001E-03
      0.335000          0.135134E-03
      0.340000          0.132467E-03
      0.345000          0.129774E-03
      0.350000          0.126895E-03
      0.355000          0.123732E-03
      0.360000          0.120252E-03
      0.365000          0.116475E-03
      0.370000          0.112463E-03
      0.375000          0.108312E-03
      0.380000          0.104128E-03
      0.385000          0.100025E-03
      0.390000          0.961033E-04
      0.395000          0.924485E-04
      0.400000          0.891218E-04
      0.405000          0.861590E-04
      0.410000          0.835703E-04
      0.415000          0.813431E-04
      0.420000          0.794471E-04
      0.425000          0.778394E-04
      0.430000          0.764706E-04
      0.435000          0.752907E-04
      0.440000          0.742537E-04
      0.445000          0.733213E-04
      0.450000          0.724648E-04
      0.455000          0.716663E-04
      0.460000          0.709172E-04
      0.465000          0.702171E-04
      0.470000          0.695712E-04
      0.475000          0.689870E-04
      0.480000          0.684720E-04
      0.485000          0.680308E-04
      0.490000          0.676636E-04
      0.495000          0.673646E-04
      0.500000          0.671225E-04
