 I_abs(s)[cm^-1]/c[mg/ml]
       0.00000          0.137546E-01
      0.500000E-02      0.136982E-01
      0.100000E-01      0.135306E-01
      0.150000E-01      0.132561E-01
      0.200000E-01      0.128818E-01
      0.250000E-01      0.124173E-01
      0.300000E-01      0.118740E-01
      0.350000E-01      0.112653E-01
      0.400000E-01      0.106053E-01
      0.450000E-01      0.990881E-02
      0.500000E-01      0.919076E-02
      0.550000E-01      0.846544E-02
      0.600000E-01      0.774627E-02
      0.650000E-01      0.704529E-02
      0.700000E-01      0.637291E-02
      0.750000E-01      0.573765E-02
      0.800000E-01      0.514604E-02
      0.850000E-01      0.460255E-02
      0.900000E-01      0.410971E-02
      0.950000E-01      0.366820E-02
      0.100000          0.327706E-02
      0.105000          0.293397E-02
      0.110000          0.263551E-02
      0.115000          0.237748E-02
      0.120000          0.215519E-02
      0.125000          0.196373E-02
      0.130000          0.179825E-02
      0.135000          0.165412E-02
      0.140000          0.152718E-02
      0.145000          0.141377E-02
      0.150000          0.131085E-02
      0.155000          0.121602E-02
      0.160000          0.112747E-02
      0.165000          0.104397E-02
      0.170000          0.964781E-03
      0.175000          0.889555E-03
      0.180000          0.818247E-03
      0.185000          0.751011E-03
      0.190000          0.688110E-03
      0.195000          0.629833E-03
      0.200000          0.576430E-03
      0.205000          0.528062E-03
      0.210000          0.484771E-03
      0.215000          0.446468E-03
      0.220000          0.412930E-03
      0.225000          0.383813E-03
      0.230000          0.358680E-03
      0.235000          0.337026E-03
      0.240000          0.318310E-03
      0.245000          0.301986E-03
      0.250000          0.287534E-03
      0.255000          0.274481E-03
      0.260000          0.262422E-03
      0.265000          0.251031E-03
      0.270000          0.240067E-03
      0.275000          0.229372E-03
      0.280000          0.218868E-03
      0.285000          0.208544E-03
      0.290000          0.198443E-03
      0.295000          0.188651E-03
      0.300000          0.179277E-03
      0.305000          0.170440E-03
      0.310000          0.162259E-03
      0.315000          0.154835E-03
      0.320000          0.148248E-03
      0.325000          0.142549E-03
      0.330000          0.137757E-03
      0.335000          0.133857E-03
      0.340000          0.130803E-03
      0.345000          0.128521E-03
      0.350000          0.126915E-03
      0.355000          0.125868E-03
      0.360000          0.125254E-03
      0.365000          0.124943E-03
      0.370000          0.124802E-03
      0.375000          0.124709E-03
      0.380000          0.124549E-03
      0.385000          0.124225E-03
      0.390000          0.123655E-03
      0.395000          0.122777E-03
      0.400000          0.121550E-03
      0.405000          0.119953E-03
      0.410000          0.117981E-03
      0.415000          0.115649E-03
      0.420000          0.112987E-03
      0.425000          0.110034E-03
      0.430000          0.106844E-03
      0.435000          0.103472E-03
      0.440000          0.999819E-04
      0.445000          0.964360E-04
      0.450000          0.928968E-04
      0.455000          0.894231E-04
      0.460000          0.860688E-04
      0.465000          0.828817E-04
      0.470000          0.799021E-04
      0.475000          0.771623E-04
      0.480000          0.746864E-04
      0.485000          0.724905E-04
      0.490000          0.705824E-04
      0.495000          0.689628E-04
      0.500000          0.676258E-04
