 I_abs(s)[cm^-1]/c[mg/ml]
       0.00000          0.145129E-01
      0.500000E-02      0.144590E-01
      0.100000E-01      0.142985E-01
      0.150000E-01      0.140356E-01
      0.200000E-01      0.136769E-01
      0.250000E-01      0.132312E-01
      0.300000E-01      0.127092E-01
      0.350000E-01      0.121229E-01
      0.400000E-01      0.114855E-01
      0.450000E-01      0.108102E-01
      0.500000E-01      0.101105E-01
      0.550000E-01      0.939902E-02
      0.600000E-01      0.868774E-02
      0.650000E-01      0.798722E-02
      0.700000E-01      0.730659E-02
      0.750000E-01      0.665335E-02
      0.800000E-01      0.603332E-02
      0.850000E-01      0.545069E-02
      0.900000E-01      0.490809E-02
      0.950000E-01      0.440678E-02
      0.100000          0.394683E-02
      0.105000          0.352732E-02
      0.110000          0.314661E-02
      0.115000          0.280253E-02
      0.120000          0.249257E-02
      0.125000          0.221409E-02
      0.130000          0.196439E-02
      0.135000          0.174090E-02
      0.140000          0.154116E-02
      0.145000          0.136295E-02
      0.150000          0.120422E-02
      0.155000          0.106315E-02
      0.160000          0.938105E-03
      0.165000          0.827606E-03
      0.170000          0.730326E-03
      0.175000          0.645047E-03
      0.180000          0.570650E-03
      0.185000          0.506090E-03
      0.190000          0.450394E-03
      0.195000          0.402650E-03
      0.200000          0.362004E-03
      0.205000          0.327664E-03
      0.210000          0.298894E-03
      0.215000          0.275020E-03
      0.220000          0.255422E-03
      0.225000          0.239535E-03
      0.230000          0.226844E-03
      0.235000          0.216876E-03
      0.240000          0.209199E-03
      0.245000          0.203411E-03
      0.250000          0.199141E-03
      0.255000          0.196044E-03
      0.260000          0.193800E-03
      0.265000          0.192114E-03
      0.270000          0.190725E-03
      0.275000          0.189399E-03
      0.280000          0.187943E-03
      0.285000          0.186202E-03
      0.290000          0.184063E-03
      0.295000          0.181456E-03
      0.300000          0.178355E-03
      0.305000          0.174771E-03
      0.310000          0.170748E-03
      0.315000          0.166356E-03
      0.320000          0.161687E-03
      0.325000          0.156841E-03
      0.330000          0.151919E-03
      0.335000          0.147021E-03
      0.340000          0.142232E-03
      0.345000          0.137624E-03
      0.350000          0.133250E-03
      0.355000          0.129145E-03
      0.360000          0.125325E-03
      0.365000          0.121791E-03
      0.370000          0.118531E-03
      0.375000          0.115525E-03
      0.380000          0.112748E-03
      0.385000          0.110173E-03
      0.390000          0.107775E-03
      0.395000          0.105534E-03
      0.400000          0.103432E-03
      0.405000          0.101460E-03
      0.410000          0.996109E-04
      0.415000          0.978844E-04
      0.420000          0.962814E-04
      0.425000          0.948044E-04
      0.430000          0.934556E-04
      0.435000          0.922360E-04
      0.440000          0.911438E-04
      0.445000          0.901744E-04
      0.450000          0.893204E-04
      0.455000          0.885717E-04
      0.460000          0.879161E-04
      0.465000          0.873405E-04
      0.470000          0.868319E-04
      0.475000          0.863779E-04
      0.480000          0.859682E-04
      0.485000          0.855947E-04
      0.490000          0.852521E-04
      0.495000          0.849381E-04
      0.500000          0.846527E-04
