 I_abs(s)[cm^-1]/c[mg/ml]
       0.00000          0.134707E-01
      0.500000E-02      0.134099E-01
      0.100000E-01      0.132291E-01
      0.150000E-01      0.129333E-01
      0.200000E-01      0.125307E-01
      0.250000E-01      0.120322E-01
      0.300000E-01      0.114511E-01
      0.350000E-01      0.108023E-01
      0.400000E-01      0.101021E-01
      0.450000E-01      0.936719E-02
      0.500000E-01      0.861439E-02
      0.550000E-01      0.785971E-02
      0.600000E-01      0.711801E-02
      0.650000E-01      0.640250E-02
      0.700000E-01      0.572439E-02
      0.750000E-01      0.509262E-02
      0.800000E-01      0.451375E-02
      0.850000E-01      0.399194E-02
      0.900000E-01      0.352903E-02
      0.950000E-01      0.312475E-02
      0.100000          0.277694E-02
      0.105000          0.248190E-02
      0.110000          0.223476E-02
      0.115000          0.202980E-02
      0.120000          0.186087E-02
      0.125000          0.172170E-02
      0.130000          0.160621E-02
      0.135000          0.150875E-02
      0.140000          0.142431E-02
      0.145000          0.134866E-02
      0.150000          0.127836E-02
      0.155000          0.121085E-02
      0.160000          0.114437E-02
      0.165000          0.107788E-02
      0.170000          0.101097E-02
      0.175000          0.943745E-03
      0.180000          0.876650E-03
      0.185000          0.810384E-03
      0.190000          0.745756E-03
      0.195000          0.683584E-03
      0.200000          0.624617E-03
      0.205000          0.569466E-03
      0.210000          0.518573E-03
      0.215000          0.472194E-03
      0.220000          0.430400E-03
      0.225000          0.393101E-03
      0.230000          0.360068E-03
      0.235000          0.330977E-03
      0.240000          0.305441E-03
      0.245000          0.283050E-03
      0.250000          0.263402E-03
      0.255000          0.246129E-03
      0.260000          0.230915E-03
      0.265000          0.217503E-03
      0.270000          0.205700E-03
      0.275000          0.195372E-03
      0.280000          0.186430E-03
      0.285000          0.178821E-03
      0.290000          0.172511E-03
      0.295000          0.167469E-03
      0.300000          0.163656E-03
      0.305000          0.161010E-03
      0.310000          0.159444E-03
      0.315000          0.158837E-03
      0.320000          0.159041E-03
      0.325000          0.159878E-03
      0.330000          0.161150E-03
      0.335000          0.162647E-03
      0.340000          0.164159E-03
      0.345000          0.165484E-03
      0.350000          0.166436E-03
      0.355000          0.166857E-03
      0.360000          0.166621E-03
      0.365000          0.165641E-03
      0.370000          0.163867E-03
      0.375000          0.161292E-03
      0.380000          0.157941E-03
      0.385000          0.153878E-03
      0.390000          0.149191E-03
      0.395000          0.143992E-03
      0.400000          0.138406E-03
      0.405000          0.132567E-03
      0.410000          0.126612E-03
      0.415000          0.120672E-03
      0.420000          0.114867E-03
      0.425000          0.109307E-03
      0.430000          0.104082E-03
      0.435000          0.992651E-04
      0.440000          0.949095E-04
      0.445000          0.910485E-04
      0.450000          0.876968E-04
      0.455000          0.848517E-04
      0.460000          0.824954E-04
      0.465000          0.805968E-04
      0.470000          0.791147E-04
      0.475000          0.780001E-04
      0.480000          0.771990E-04
      0.485000          0.766547E-04
      0.490000          0.763107E-04
      0.495000          0.761121E-04
      0.500000          0.760078E-04
