 I_abs(s)[cm^-1]/c[mg/ml]
       0.00000          0.133337E-01
      0.500000E-02      0.132737E-01
      0.100000E-01      0.130952E-01
      0.150000E-01      0.128030E-01
      0.200000E-01      0.124049E-01
      0.250000E-01      0.119114E-01
      0.300000E-01      0.113350E-01
      0.350000E-01      0.106904E-01
      0.400000E-01      0.999324E-02
      0.450000E-01      0.925989E-02
      0.500000E-01      0.850685E-02
      0.550000E-01      0.775010E-02
      0.600000E-01      0.700465E-02
      0.650000E-01      0.628402E-02
      0.700000E-01      0.559994E-02
      0.750000E-01      0.496199E-02
      0.800000E-01      0.437752E-02
      0.850000E-01      0.385148E-02
      0.900000E-01      0.338654E-02
      0.950000E-01      0.298314E-02
      0.100000          0.263975E-02
      0.105000          0.235307E-02
      0.110000          0.211843E-02
      0.115000          0.193007E-02
      0.120000          0.178152E-02
      0.125000          0.166595E-02
      0.130000          0.157652E-02
      0.135000          0.150661E-02
      0.140000          0.145016E-02
      0.145000          0.140179E-02
      0.150000          0.135695E-02
      0.155000          0.131204E-02
      0.160000          0.126440E-02
      0.165000          0.121228E-02
      0.170000          0.115482E-02
      0.175000          0.109191E-02
      0.180000          0.102406E-02
      0.185000          0.952313E-03
      0.190000          0.878034E-03
      0.195000          0.802811E-03
      0.200000          0.728304E-03
      0.205000          0.656129E-03
      0.210000          0.587759E-03
      0.215000          0.524447E-03
      0.220000          0.467171E-03
      0.225000          0.416605E-03
      0.230000          0.373111E-03
      0.235000          0.336743E-03
      0.240000          0.307283E-03
      0.245000          0.284269E-03
      0.250000          0.267050E-03
      0.255000          0.254834E-03
      0.260000          0.246742E-03
      0.265000          0.241861E-03
      0.270000          0.239289E-03
      0.275000          0.238179E-03
      0.280000          0.237769E-03
      0.285000          0.237409E-03
      0.290000          0.236577E-03
      0.295000          0.234885E-03
      0.300000          0.232080E-03
      0.305000          0.228037E-03
      0.310000          0.222742E-03
      0.315000          0.216283E-03
      0.320000          0.208822E-03
      0.325000          0.200577E-03
      0.330000          0.191803E-03
      0.335000          0.182767E-03
      0.340000          0.173733E-03
      0.345000          0.164944E-03
      0.350000          0.156613E-03
      0.355000          0.148909E-03
      0.360000          0.141957E-03
      0.365000          0.135832E-03
      0.370000          0.130562E-03
      0.375000          0.126130E-03
      0.380000          0.122483E-03
      0.385000          0.119537E-03
      0.390000          0.117185E-03
      0.395000          0.115306E-03
      0.400000          0.113774E-03
      0.405000          0.112464E-03
      0.410000          0.111263E-03
      0.415000          0.110067E-03
      0.420000          0.108793E-03
      0.425000          0.107378E-03
      0.430000          0.105778E-03
      0.435000          0.103970E-03
      0.440000          0.101950E-03
      0.445000          0.997304E-04
      0.450000          0.973350E-04
      0.455000          0.947979E-04
      0.460000          0.921589E-04
      0.465000          0.894602E-04
      0.470000          0.867433E-04
      0.475000          0.840469E-04
      0.480000          0.814051E-04
      0.485000          0.788457E-04
      0.490000          0.763904E-04
      0.495000          0.740547E-04
      0.500000          0.718485E-04
