 I_abs(s)[cm^-1]/c[mg/ml]
       0.00000          0.134631E-01
      0.500000E-02      0.133936E-01
      0.100000E-01      0.131874E-01
      0.150000E-01      0.128511E-01
      0.200000E-01      0.123953E-01
      0.250000E-01      0.118342E-01
      0.300000E-01      0.111848E-01
      0.350000E-01      0.104662E-01
      0.400000E-01      0.969879E-02
      0.450000E-01      0.890337E-02
      0.500000E-01      0.810012E-02
      0.550000E-01      0.730798E-02
      0.600000E-01      0.654388E-02
      0.650000E-01      0.582219E-02
      0.700000E-01      0.515437E-02
      0.750000E-01      0.454871E-02
      0.800000E-01      0.401028E-02
      0.850000E-01      0.354108E-02
      0.900000E-01      0.314025E-02
      0.950000E-01      0.280449E-02
      0.100000          0.252848E-02
      0.105000          0.230542E-02
      0.110000          0.212753E-02
      0.115000          0.198662E-02
      0.120000          0.187449E-02
      0.125000          0.178342E-02
      0.130000          0.170643E-02
      0.135000          0.163756E-02
      0.140000          0.157199E-02
      0.145000          0.150614E-02
      0.150000          0.143757E-02
      0.155000          0.136498E-02
      0.160000          0.128798E-02
      0.165000          0.120697E-02
      0.170000          0.112295E-02
      0.175000          0.103729E-02
      0.180000          0.951551E-03
      0.185000          0.867350E-03
      0.190000          0.786203E-03
      0.195000          0.709433E-03
      0.200000          0.638100E-03
      0.205000          0.572969E-03
      0.210000          0.514502E-03
      0.215000          0.462875E-03
      0.220000          0.418009E-03
      0.225000          0.379617E-03
      0.230000          0.347248E-03
      0.235000          0.320344E-03
      0.240000          0.298277E-03
      0.245000          0.280395E-03
      0.250000          0.266051E-03
      0.255000          0.254628E-03
      0.260000          0.245553E-03
      0.265000          0.238308E-03
      0.270000          0.232437E-03
      0.275000          0.227538E-03
      0.280000          0.223271E-03
      0.285000          0.219348E-03
      0.290000          0.215532E-03
      0.295000          0.211633E-03
      0.300000          0.207507E-03
      0.305000          0.203053E-03
      0.310000          0.198208E-03
      0.315000          0.192950E-03
      0.320000          0.187292E-03
      0.325000          0.181278E-03
      0.330000          0.174980E-03
      0.335000          0.168492E-03
      0.340000          0.161923E-03
      0.345000          0.155393E-03
      0.350000          0.149021E-03
      0.355000          0.142923E-03
      0.360000          0.137201E-03
      0.365000          0.131945E-03
      0.370000          0.127221E-03
      0.375000          0.123076E-03
      0.380000          0.119533E-03
      0.385000          0.116591E-03
      0.390000          0.114231E-03
      0.395000          0.112415E-03
      0.400000          0.111092E-03
      0.405000          0.110199E-03
      0.410000          0.109666E-03
      0.415000          0.109420E-03
      0.420000          0.109385E-03
      0.425000          0.109489E-03
      0.430000          0.109663E-03
      0.435000          0.109840E-03
      0.440000          0.109960E-03
      0.445000          0.109971E-03
      0.450000          0.109824E-03
      0.455000          0.109481E-03
      0.460000          0.108908E-03
      0.465000          0.108082E-03
      0.470000          0.106990E-03
      0.475000          0.105625E-03
      0.480000          0.103993E-03
      0.485000          0.102111E-03
      0.490000          0.100005E-03
      0.495000          0.977100E-04
      0.500000          0.952717E-04
