 I_abs(s)[cm^-1]/c[mg/ml]
       0.00000          0.137855E-01
      0.500000E-02      0.137298E-01
      0.100000E-01      0.135643E-01
      0.150000E-01      0.132933E-01
      0.200000E-01      0.129240E-01
      0.250000E-01      0.124658E-01
      0.300000E-01      0.119302E-01
      0.350000E-01      0.113304E-01
      0.400000E-01      0.106806E-01
      0.450000E-01      0.999522E-02
      0.500000E-01      0.928903E-02
      0.550000E-01      0.857603E-02
      0.600000E-01      0.786928E-02
      0.650000E-01      0.718046E-02
      0.700000E-01      0.651954E-02
      0.750000E-01      0.589461E-02
      0.800000E-01      0.531179E-02
      0.850000E-01      0.477518E-02
      0.900000E-01      0.428695E-02
      0.950000E-01      0.384755E-02
      0.100000          0.345586E-02
      0.105000          0.310952E-02
      0.110000          0.280517E-02
      0.115000          0.253877E-02
      0.120000          0.230591E-02
      0.125000          0.210205E-02
      0.130000          0.192275E-02
      0.135000          0.176389E-02
      0.140000          0.162179E-02
      0.145000          0.149327E-02
      0.150000          0.137575E-02
      0.155000          0.126722E-02
      0.160000          0.116621E-02
      0.165000          0.107171E-02
      0.170000          0.983118E-03
      0.175000          0.900143E-03
      0.180000          0.822695E-03
      0.185000          0.750813E-03
      0.190000          0.684583E-03
      0.195000          0.624077E-03
      0.200000          0.569305E-03
      0.205000          0.520191E-03
      0.210000          0.476554E-03
      0.215000          0.438112E-03
      0.220000          0.404496E-03
      0.225000          0.375266E-03
      0.230000          0.349939E-03
      0.235000          0.328012E-03
      0.240000          0.308991E-03
      0.245000          0.292407E-03
      0.250000          0.277836E-03
      0.255000          0.264907E-03
      0.260000          0.253310E-03
      0.265000          0.242796E-03
      0.270000          0.233168E-03
      0.275000          0.224282E-03
      0.280000          0.216028E-03
      0.285000          0.208330E-03
      0.290000          0.201127E-03
      0.295000          0.194374E-03
      0.300000          0.188027E-03
      0.305000          0.182047E-03
      0.310000          0.176392E-03
      0.315000          0.171019E-03
      0.320000          0.165886E-03
      0.325000          0.160953E-03
      0.330000          0.156185E-03
      0.335000          0.151556E-03
      0.340000          0.147047E-03
      0.345000          0.142653E-03
      0.350000          0.138379E-03
      0.355000          0.134238E-03
      0.360000          0.130254E-03
      0.365000          0.126453E-03
      0.370000          0.122864E-03
      0.375000          0.119515E-03
      0.380000          0.116427E-03
      0.385000          0.113616E-03
      0.390000          0.111085E-03
      0.395000          0.108828E-03
      0.400000          0.106826E-03
      0.405000          0.105050E-03
      0.410000          0.103463E-03
      0.415000          0.102019E-03
      0.420000          0.100670E-03
      0.425000          0.993653E-04
      0.430000          0.980583E-04
      0.435000          0.967057E-04
      0.440000          0.952720E-04
      0.445000          0.937303E-04
      0.450000          0.920642E-04
      0.455000          0.902671E-04
      0.460000          0.883429E-04
      0.465000          0.863044E-04
      0.470000          0.841719E-04
      0.475000          0.819717E-04
      0.480000          0.797337E-04
      0.485000          0.774897E-04
      0.490000          0.752710E-04
      0.495000          0.731074E-04
      0.500000          0.710250E-04
