 I_abs(s)[cm^-1]/c[mg/ml]
       0.00000          0.138938E-01
      0.500000E-02      0.138246E-01
      0.100000E-01      0.136192E-01
      0.150000E-01      0.132841E-01
      0.200000E-01      0.128298E-01
      0.250000E-01      0.122700E-01
      0.300000E-01      0.116217E-01
      0.350000E-01      0.109035E-01
      0.400000E-01      0.101355E-01
      0.450000E-01      0.933802E-02
      0.500000E-01      0.853097E-02
      0.550000E-01      0.773290E-02
      0.600000E-01      0.696044E-02
      0.650000E-01      0.622769E-02
      0.700000E-01      0.554589E-02
      0.750000E-01      0.492318E-02
      0.800000E-01      0.436454E-02
      0.850000E-01      0.387198E-02
      0.900000E-01      0.344472E-02
      0.950000E-01      0.307963E-02
      0.100000          0.277165E-02
      0.105000          0.251436E-02
      0.110000          0.230045E-02
      0.115000          0.212226E-02
      0.120000          0.197225E-02
      0.125000          0.184340E-02
      0.130000          0.172951E-02
      0.135000          0.162539E-02
      0.140000          0.152705E-02
      0.145000          0.143164E-02
      0.150000          0.133744E-02
      0.155000          0.124374E-02
      0.160000          0.115063E-02
      0.165000          0.105882E-02
      0.170000          0.969436E-03
      0.175000          0.883768E-03
      0.180000          0.803117E-03
      0.185000          0.728626E-03
      0.190000          0.661166E-03
      0.195000          0.601261E-03
      0.200000          0.549064E-03
      0.205000          0.504361E-03
      0.210000          0.466617E-03
      0.215000          0.435040E-03
      0.220000          0.408666E-03
      0.225000          0.386445E-03
      0.230000          0.367326E-03
      0.235000          0.350337E-03
      0.240000          0.334639E-03
      0.245000          0.319574E-03
      0.250000          0.304685E-03
      0.255000          0.289718E-03
      0.260000          0.274609E-03
      0.265000          0.259453E-03
      0.270000          0.244470E-03
      0.275000          0.229953E-03
      0.280000          0.216232E-03
      0.285000          0.203626E-03
      0.290000          0.192408E-03
      0.295000          0.182779E-03
      0.300000          0.174850E-03
      0.305000          0.168634E-03
      0.310000          0.164047E-03
      0.315000          0.160921E-03
      0.320000          0.159016E-03
      0.325000          0.158045E-03
      0.330000          0.157695E-03
      0.335000          0.157650E-03
      0.340000          0.157611E-03
      0.345000          0.157317E-03
      0.350000          0.156555E-03
      0.355000          0.155170E-03
      0.360000          0.153068E-03
      0.365000          0.150218E-03
      0.370000          0.146644E-03
      0.375000          0.142419E-03
      0.380000          0.137655E-03
      0.385000          0.132489E-03
      0.390000          0.127076E-03
      0.395000          0.121575E-03
      0.400000          0.116137E-03
      0.405000          0.110903E-03
      0.410000          0.105990E-03
      0.415000          0.101492E-03
      0.420000          0.974753E-04
      0.425000          0.939771E-04
      0.430000          0.910088E-04
      0.435000          0.885570E-04
      0.440000          0.865870E-04
      0.445000          0.850477E-04
      0.450000          0.838759E-04
      0.455000          0.830008E-04
      0.460000          0.823494E-04
      0.465000          0.818503E-04
      0.470000          0.814376E-04
      0.475000          0.810543E-04
      0.480000          0.806541E-04
      0.485000          0.802033E-04
      0.490000          0.796813E-04
      0.495000          0.790802E-04
      0.500000          0.784039E-04
