 I_abs(s)[cm^-1]/c[mg/ml]
       0.00000          0.145129E-01
      0.500000E-02      0.144607E-01
      0.100000E-01      0.143051E-01
      0.150000E-01      0.140494E-01
      0.200000E-01      0.136989E-01
      0.250000E-01      0.132607E-01
      0.300000E-01      0.127435E-01
      0.350000E-01      0.121577E-01
      0.400000E-01      0.115143E-01
      0.450000E-01      0.108253E-01
      0.500000E-01      0.101030E-01
      0.550000E-01      0.935982E-02
      0.600000E-01      0.860772E-02
      0.650000E-01      0.785814E-02
      0.700000E-01      0.712166E-02
      0.750000E-01      0.640775E-02
      0.800000E-01      0.572462E-02
      0.850000E-01      0.507911E-02
      0.900000E-01      0.447661E-02
      0.950000E-01      0.392104E-02
      0.100000          0.341492E-02
      0.105000          0.295940E-02
      0.110000          0.255442E-02
      0.115000          0.219882E-02
      0.120000          0.189051E-02
      0.125000          0.162663E-02
      0.130000          0.140377E-02
      0.135000          0.121807E-02
      0.140000          0.106546E-02
      0.145000          0.941768E-03
      0.150000          0.842852E-03
      0.155000          0.764723E-03
      0.160000          0.703632E-03
      0.165000          0.656138E-03
      0.170000          0.619151E-03
      0.175000          0.589965E-03
      0.180000          0.566266E-03
      0.185000          0.546130E-03
      0.190000          0.528003E-03
      0.195000          0.510682E-03
      0.200000          0.493277E-03
      0.205000          0.475181E-03
      0.210000          0.456028E-03
      0.215000          0.435656E-03
      0.220000          0.414071E-03
      0.225000          0.391408E-03
      0.230000          0.367900E-03
      0.235000          0.343848E-03
      0.240000          0.319595E-03
      0.245000          0.295503E-03
      0.250000          0.271931E-03
      0.255000          0.249222E-03
      0.260000          0.227687E-03
      0.265000          0.207597E-03
      0.270000          0.189175E-03
      0.275000          0.172591E-03
      0.280000          0.157958E-03
      0.285000          0.145337E-03
      0.290000          0.134733E-03
      0.295000          0.126103E-03
      0.300000          0.119360E-03
      0.305000          0.114377E-03
      0.310000          0.110997E-03
      0.315000          0.109042E-03
      0.320000          0.108317E-03
      0.325000          0.108619E-03
      0.330000          0.109747E-03
      0.335000          0.111505E-03
      0.340000          0.113712E-03
      0.345000          0.116200E-03
      0.350000          0.118824E-03
      0.355000          0.121463E-03
      0.360000          0.124016E-03
      0.365000          0.126407E-03
      0.370000          0.128583E-03
      0.375000          0.130509E-03
      0.380000          0.132169E-03
      0.385000          0.133562E-03
      0.390000          0.134694E-03
      0.395000          0.135584E-03
      0.400000          0.136251E-03
      0.405000          0.136718E-03
      0.410000          0.137007E-03
      0.415000          0.137136E-03
      0.420000          0.137122E-03
      0.425000          0.136973E-03
      0.430000          0.136697E-03
      0.435000          0.136294E-03
      0.440000          0.135761E-03
      0.445000          0.135092E-03
      0.450000          0.134280E-03
      0.455000          0.133317E-03
      0.460000          0.132194E-03
      0.465000          0.130908E-03
      0.470000          0.129453E-03
      0.475000          0.127831E-03
      0.480000          0.126047E-03
      0.485000          0.124110E-03
      0.490000          0.122032E-03
      0.495000          0.119830E-03
      0.500000          0.117526E-03
