 I_abs(s)[cm^-1]/c[mg/ml]
       0.00000          0.140103E-01
      0.500000E-02      0.139465E-01
      0.100000E-01      0.137570E-01
      0.150000E-01      0.134473E-01
      0.200000E-01      0.130265E-01
      0.250000E-01      0.125066E-01
      0.300000E-01      0.119021E-01
      0.350000E-01      0.112294E-01
      0.400000E-01      0.105060E-01
      0.450000E-01      0.974982E-02
      0.500000E-01      0.897844E-02
      0.550000E-01      0.820856E-02
      0.600000E-01      0.745529E-02
      0.650000E-01      0.673174E-02
      0.700000E-01      0.604868E-02
      0.750000E-01      0.541432E-02
      0.800000E-01      0.483424E-02
      0.850000E-01      0.431148E-02
      0.900000E-01      0.384671E-02
      0.950000E-01      0.343853E-02
      0.100000          0.308379E-02
      0.105000          0.277802E-02
      0.110000          0.251585E-02
      0.115000          0.229139E-02
      0.120000          0.209865E-02
      0.125000          0.193182E-02
      0.130000          0.178559E-02
      0.135000          0.165528E-02
      0.140000          0.153704E-02
      0.145000          0.142782E-02
      0.150000          0.132540E-02
      0.155000          0.122832E-02
      0.160000          0.113577E-02
      0.165000          0.104743E-02
      0.170000          0.963390E-03
      0.175000          0.883946E-03
      0.180000          0.809501E-03
      0.185000          0.740449E-03
      0.190000          0.677090E-03
      0.195000          0.619575E-03
      0.200000          0.567880E-03
      0.205000          0.521802E-03
      0.210000          0.480981E-03
      0.215000          0.444930E-03
      0.220000          0.413085E-03
      0.225000          0.384847E-03
      0.230000          0.359633E-03
      0.235000          0.336907E-03
      0.240000          0.316220E-03
      0.245000          0.297217E-03
      0.250000          0.279650E-03
      0.255000          0.263370E-03
      0.260000          0.248316E-03
      0.265000          0.234488E-03
      0.270000          0.221930E-03
      0.275000          0.210698E-03
      0.280000          0.200840E-03
      0.285000          0.192375E-03
      0.290000          0.185280E-03
      0.295000          0.179480E-03
      0.300000          0.174849E-03
      0.305000          0.171216E-03
      0.310000          0.168372E-03
      0.315000          0.166088E-03
      0.320000          0.164125E-03
      0.325000          0.162259E-03
      0.330000          0.160286E-03
      0.335000          0.158044E-03
      0.340000          0.155415E-03
      0.345000          0.152331E-03
      0.350000          0.148781E-03
      0.355000          0.144798E-03
      0.360000          0.140459E-03
      0.365000          0.135874E-03
      0.370000          0.131175E-03
      0.375000          0.126501E-03
      0.380000          0.121991E-03
      0.385000          0.117770E-03
      0.390000          0.113941E-03
      0.395000          0.110580E-03
      0.400000          0.107732E-03
      0.405000          0.105407E-03
      0.410000          0.103585E-03
      0.415000          0.102219E-03
      0.420000          0.101237E-03
      0.425000          0.100555E-03
      0.430000          0.100076E-03
      0.435000          0.997031E-04
      0.440000          0.993450E-04
      0.445000          0.989200E-04
      0.450000          0.983619E-04
      0.455000          0.976229E-04
      0.460000          0.966748E-04
      0.465000          0.955094E-04
      0.470000          0.941369E-04
      0.475000          0.925839E-04
      0.480000          0.908898E-04
      0.485000          0.891029E-04
      0.490000          0.872763E-04
      0.495000          0.854642E-04
      0.500000          0.837175E-04
