 I_abs(s)[cm^-1]/c[mg/ml]
       0.00000          0.133717E-01
      0.500000E-02      0.133001E-01
      0.100000E-01      0.130879E-01
      0.150000E-01      0.127421E-01
      0.200000E-01      0.122743E-01
      0.250000E-01      0.116999E-01
      0.300000E-01      0.110371E-01
      0.350000E-01      0.103065E-01
      0.400000E-01      0.952977E-02
      0.450000E-01      0.872860E-02
      0.500000E-01      0.792400E-02
      0.550000E-01      0.713533E-02
      0.600000E-01      0.637955E-02
      0.650000E-01      0.567066E-02
      0.700000E-01      0.501943E-02
      0.750000E-01      0.443313E-02
      0.800000E-01      0.391567E-02
      0.850000E-01      0.346772E-02
      0.900000E-01      0.308718E-02
      0.950000E-01      0.276955E-02
      0.100000          0.250856E-02
      0.105000          0.229672E-02
      0.110000          0.212589E-02
      0.115000          0.198783E-02
      0.120000          0.187466E-02
      0.125000          0.177920E-02
      0.130000          0.169527E-02
      0.135000          0.161787E-02
      0.140000          0.154318E-02
      0.145000          0.146858E-02
      0.150000          0.139256E-02
      0.155000          0.131450E-02
      0.160000          0.123457E-02
      0.165000          0.115345E-02
      0.170000          0.107219E-02
      0.175000          0.991967E-03
      0.180000          0.914005E-03
      0.185000          0.839402E-03
      0.190000          0.769068E-03
      0.195000          0.703680E-03
      0.200000          0.643665E-03
      0.205000          0.589209E-03
      0.210000          0.540293E-03
      0.215000          0.496724E-03
      0.220000          0.458188E-03
      0.225000          0.424291E-03
      0.230000          0.394597E-03
      0.235000          0.368659E-03
      0.240000          0.346044E-03
      0.245000          0.326343E-03
      0.250000          0.309178E-03
      0.255000          0.294205E-03
      0.260000          0.281110E-03
      0.265000          0.269602E-03
      0.270000          0.259414E-03
      0.275000          0.250296E-03
      0.280000          0.242017E-03
      0.285000          0.234367E-03
      0.290000          0.227156E-03
      0.295000          0.220224E-03
      0.300000          0.213439E-03
      0.305000          0.206704E-03
      0.310000          0.199956E-03
      0.315000          0.193166E-03
      0.320000          0.186337E-03
      0.325000          0.179496E-03
      0.330000          0.172691E-03
      0.335000          0.165981E-03
      0.340000          0.159430E-03
      0.345000          0.153098E-03
      0.350000          0.147036E-03
      0.355000          0.141281E-03
      0.360000          0.135856E-03
      0.365000          0.130768E-03
      0.370000          0.126010E-03
      0.375000          0.121562E-03
      0.380000          0.117399E-03
      0.385000          0.113494E-03
      0.390000          0.109818E-03
      0.395000          0.106347E-03
      0.400000          0.103064E-03
      0.405000          0.999594E-04
      0.410000          0.970284E-04
      0.415000          0.942734E-04
      0.420000          0.916999E-04
      0.425000          0.893139E-04
      0.430000          0.871204E-04
      0.435000          0.851201E-04
      0.440000          0.833085E-04
      0.445000          0.816753E-04
      0.450000          0.802038E-04
      0.455000          0.788727E-04
      0.460000          0.776575E-04
      0.465000          0.765325E-04
      0.470000          0.754733E-04
      0.475000          0.744590E-04
      0.480000          0.734740E-04
      0.485000          0.725093E-04
      0.490000          0.715629E-04
      0.495000          0.706397E-04
      0.500000          0.697503E-04
