 I_abs(s)[cm^-1]/c[mg/ml]
       0.00000          0.143707E-01
      0.500000E-02      0.143068E-01
      0.100000E-01      0.141174E-01
      0.150000E-01      0.138085E-01
      0.200000E-01      0.133900E-01
      0.250000E-01      0.128750E-01
      0.300000E-01      0.122789E-01
      0.350000E-01      0.116187E-01
      0.400000E-01      0.109123E-01
      0.450000E-01      0.101775E-01
      0.500000E-01      0.943105E-02
      0.550000E-01      0.868834E-02
      0.600000E-01      0.796264E-02
      0.650000E-01      0.726485E-02
      0.700000E-01      0.660336E-02
      0.750000E-01      0.598402E-02
      0.800000E-01      0.541032E-02
      0.850000E-01      0.488366E-02
      0.900000E-01      0.440368E-02
      0.950000E-01      0.396869E-02
      0.100000          0.357600E-02
      0.105000          0.322233E-02
      0.110000          0.290413E-02
      0.115000          0.261781E-02
      0.120000          0.235997E-02
      0.125000          0.212749E-02
      0.130000          0.191759E-02
      0.135000          0.172790E-02
      0.140000          0.155636E-02
      0.145000          0.140124E-02
      0.150000          0.126106E-02
      0.155000          0.113452E-02
      0.160000          0.102048E-02
      0.165000          0.917905E-03
      0.170000          0.825846E-03
      0.175000          0.743407E-03
      0.180000          0.669752E-03
      0.185000          0.604093E-03
      0.190000          0.545699E-03
      0.195000          0.493889E-03
      0.200000          0.448040E-03
      0.205000          0.407579E-03
      0.210000          0.371988E-03
      0.215000          0.340790E-03
      0.220000          0.313552E-03
      0.225000          0.289873E-03
      0.230000          0.269382E-03
      0.235000          0.251730E-03
      0.240000          0.236591E-03
      0.245000          0.223659E-03
      0.250000          0.212645E-03
      0.255000          0.203281E-03
      0.260000          0.195315E-03
      0.265000          0.188520E-03
      0.270000          0.182687E-03
      0.275000          0.177630E-03
      0.280000          0.173188E-03
      0.285000          0.169219E-03
      0.290000          0.165604E-03
      0.295000          0.162248E-03
      0.300000          0.159072E-03
      0.305000          0.156018E-03
      0.310000          0.153045E-03
      0.315000          0.150123E-03
      0.320000          0.147237E-03
      0.325000          0.144378E-03
      0.330000          0.141545E-03
      0.335000          0.138741E-03
      0.340000          0.135968E-03
      0.345000          0.133232E-03
      0.350000          0.130536E-03
      0.355000          0.127882E-03
      0.360000          0.125271E-03
      0.365000          0.122705E-03
      0.370000          0.120184E-03
      0.375000          0.117711E-03
      0.380000          0.115290E-03
      0.385000          0.112925E-03
      0.390000          0.110622E-03
      0.395000          0.108389E-03
      0.400000          0.106230E-03
      0.405000          0.104151E-03
      0.410000          0.102152E-03
      0.415000          0.100231E-03
      0.420000          0.983830E-04
      0.425000          0.965988E-04
      0.430000          0.948673E-04
      0.435000          0.931768E-04
      0.440000          0.915164E-04
      0.445000          0.898780E-04
      0.450000          0.882581E-04
      0.455000          0.866586E-04
      0.460000          0.850877E-04
      0.465000          0.835595E-04
      0.470000          0.820933E-04
      0.475000          0.807115E-04
      0.480000          0.794381E-04
      0.485000          0.782960E-04
      0.490000          0.773046E-04
      0.495000          0.764783E-04
      0.500000          0.758246E-04
