 I_abs(s)[cm^-1]/c[mg/ml]
       0.00000          0.130918E-01
      0.500000E-02      0.130188E-01
      0.100000E-01      0.128027E-01
      0.150000E-01      0.124518E-01
      0.200000E-01      0.119793E-01
      0.250000E-01      0.114028E-01
      0.300000E-01      0.107430E-01
      0.350000E-01      0.100224E-01
      0.400000E-01      0.926472E-02
      0.450000E-01      0.849287E-02
      0.500000E-01      0.772835E-02
      0.550000E-01      0.699006E-02
      0.600000E-01      0.629366E-02
      0.650000E-01      0.565104E-02
      0.700000E-01      0.507013E-02
      0.750000E-01      0.455497E-02
      0.800000E-01      0.410599E-02
      0.850000E-01      0.372051E-02
      0.900000E-01      0.339337E-02
      0.950000E-01      0.311765E-02
      0.100000          0.288540E-02
      0.105000          0.268832E-02
      0.110000          0.251838E-02
      0.115000          0.236829E-02
      0.120000          0.223188E-02
      0.125000          0.210428E-02
      0.130000          0.198199E-02
      0.135000          0.186283E-02
      0.140000          0.174574E-02
      0.145000          0.163063E-02
      0.150000          0.151802E-02
      0.155000          0.140889E-02
      0.160000          0.130433E-02
      0.165000          0.120541E-02
      0.170000          0.111298E-02
      0.175000          0.102761E-02
      0.180000          0.949510E-03
      0.185000          0.878591E-03
      0.190000          0.814466E-03
      0.195000          0.756549E-03
      0.200000          0.704129E-03
      0.205000          0.656457E-03
      0.210000          0.612821E-03
      0.215000          0.572597E-03
      0.220000          0.535291E-03
      0.225000          0.500547E-03
      0.230000          0.468141E-03
      0.235000          0.437964E-03
      0.240000          0.409983E-03
      0.245000          0.384211E-03
      0.250000          0.360668E-03
      0.255000          0.339351E-03
      0.260000          0.320212E-03
      0.265000          0.303148E-03
      0.270000          0.287997E-03
      0.275000          0.274546E-03
      0.280000          0.262544E-03
      0.285000          0.251722E-03
      0.290000          0.241813E-03
      0.295000          0.232567E-03
      0.300000          0.223771E-03
      0.305000          0.215259E-03
      0.310000          0.206917E-03
      0.315000          0.198681E-03
      0.320000          0.190538E-03
      0.325000          0.182511E-03
      0.330000          0.174652E-03
      0.335000          0.167027E-03
      0.340000          0.159706E-03
      0.345000          0.152752E-03
      0.350000          0.146212E-03
      0.355000          0.140112E-03
      0.360000          0.134454E-03
      0.365000          0.129219E-03
      0.370000          0.124368E-03
      0.375000          0.119849E-03
      0.380000          0.115599E-03
      0.385000          0.111557E-03
      0.390000          0.107665E-03
      0.395000          0.103878E-03
      0.400000          0.100163E-03
      0.405000          0.965046E-04
      0.410000          0.929047E-04
      0.415000          0.893808E-04
      0.420000          0.859636E-04
      0.425000          0.826930E-04
      0.430000          0.796131E-04
      0.435000          0.767676E-04
      0.440000          0.741951E-04
      0.445000          0.719247E-04
      0.450000          0.699737E-04
      0.455000          0.683448E-04
      0.460000          0.670266E-04
      0.465000          0.659940E-04
      0.470000          0.652101E-04
      0.475000          0.646300E-04
      0.480000          0.642034E-04
      0.485000          0.638796E-04
      0.490000          0.636106E-04
      0.495000          0.633550E-04
      0.500000          0.630805E-04
