 I_abs(s)[cm^-1]/c[mg/ml]
       0.00000          0.145446E-01
      0.500000E-02      0.144844E-01
      0.100000E-01      0.143053E-01
      0.150000E-01      0.140119E-01
      0.200000E-01      0.136116E-01
      0.250000E-01      0.131144E-01
      0.300000E-01      0.125322E-01
      0.350000E-01      0.118790E-01
      0.400000E-01      0.111696E-01
      0.450000E-01      0.104196E-01
      0.500000E-01      0.964443E-02
      0.550000E-01      0.885932E-02
      0.600000E-01      0.807839E-02
      0.650000E-01      0.731444E-02
      0.700000E-01      0.657862E-02
      0.750000E-01      0.588015E-02
      0.800000E-01      0.522625E-02
      0.850000E-01      0.462208E-02
      0.900000E-01      0.407077E-02
      0.950000E-01      0.357362E-02
      0.100000          0.313025E-02
      0.105000          0.273886E-02
      0.110000          0.239655E-02
      0.115000          0.209954E-02
      0.120000          0.184354E-02
      0.125000          0.162395E-02
      0.130000          0.143615E-02
      0.135000          0.127568E-02
      0.140000          0.113840E-02
      0.145000          0.102060E-02
      0.150000          0.919060E-03
      0.155000          0.831094E-03
      0.160000          0.754503E-03
      0.165000          0.687559E-03
      0.170000          0.628936E-03
      0.175000          0.577632E-03
      0.180000          0.532897E-03
      0.185000          0.494152E-03
      0.190000          0.460920E-03
      0.195000          0.432771E-03
      0.200000          0.409278E-03
      0.205000          0.389986E-03
      0.210000          0.374401E-03
      0.215000          0.361986E-03
      0.220000          0.352172E-03
      0.225000          0.344374E-03
      0.230000          0.338012E-03
      0.235000          0.332532E-03
      0.240000          0.327431E-03
      0.245000          0.322275E-03
      0.250000          0.316710E-03
      0.255000          0.310477E-03
      0.260000          0.303407E-03
      0.265000          0.295425E-03
      0.270000          0.286540E-03
      0.275000          0.276831E-03
      0.280000          0.266439E-03
      0.285000          0.255544E-03
      0.290000          0.244354E-03
      0.295000          0.233089E-03
      0.300000          0.221963E-03
      0.305000          0.211178E-03
      0.310000          0.200908E-03
      0.315000          0.191301E-03
      0.320000          0.182464E-03
      0.325000          0.174470E-03
      0.330000          0.167355E-03
      0.335000          0.161121E-03
      0.340000          0.155737E-03
      0.345000          0.151149E-03
      0.350000          0.147279E-03
      0.355000          0.144037E-03
      0.360000          0.141320E-03
      0.365000          0.139023E-03
      0.370000          0.137042E-03
      0.375000          0.135279E-03
      0.380000          0.133643E-03
      0.385000          0.132060E-03
      0.390000          0.130467E-03
      0.395000          0.128819E-03
      0.400000          0.127087E-03
      0.405000          0.125260E-03
      0.410000          0.123342E-03
      0.415000          0.121351E-03
      0.420000          0.119314E-03
      0.425000          0.117269E-03
      0.430000          0.115257E-03
      0.435000          0.113323E-03
      0.440000          0.111509E-03
      0.445000          0.109850E-03
      0.450000          0.108379E-03
      0.455000          0.107114E-03
      0.460000          0.106067E-03
      0.465000          0.105236E-03
      0.470000          0.104607E-03
      0.475000          0.104157E-03
      0.480000          0.103853E-03
      0.485000          0.103656E-03
      0.490000          0.103520E-03
      0.495000          0.103397E-03
      0.500000          0.103241E-03
