 I_abs(s)[cm^-1]/c[mg/ml]
       0.00000          0.148155E-01
      0.500000E-02      0.147677E-01
      0.100000E-01      0.146253E-01
      0.150000E-01      0.143912E-01
      0.200000E-01      0.140702E-01
      0.250000E-01      0.136688E-01
      0.300000E-01      0.131949E-01
      0.350000E-01      0.126577E-01
      0.400000E-01      0.120672E-01
      0.450000E-01      0.114340E-01
      0.500000E-01      0.107689E-01
      0.550000E-01      0.100827E-01
      0.600000E-01      0.938581E-02
      0.650000E-01      0.868808E-02
      0.700000E-01      0.799846E-02
      0.750000E-01      0.732493E-02
      0.800000E-01      0.667435E-02
      0.850000E-01      0.605239E-02
      0.900000E-01      0.546347E-02
      0.950000E-01      0.491087E-02
      0.100000          0.439671E-02
      0.105000          0.392208E-02
      0.110000          0.348716E-02
      0.115000          0.309136E-02
      0.120000          0.273340E-02
      0.125000          0.241155E-02
      0.130000          0.212367E-02
      0.135000          0.186740E-02
      0.140000          0.164024E-02
      0.145000          0.143963E-02
      0.150000          0.126305E-02
      0.155000          0.110809E-02
      0.160000          0.972449E-03
      0.165000          0.854002E-03
      0.170000          0.750792E-03
      0.175000          0.661045E-03
      0.180000          0.583165E-03
      0.185000          0.515725E-03
      0.190000          0.457458E-03
      0.195000          0.407237E-03
      0.200000          0.364068E-03
      0.205000          0.327069E-03
      0.210000          0.295462E-03
      0.215000          0.268558E-03
      0.220000          0.245748E-03
      0.225000          0.226491E-03
      0.230000          0.210309E-03
      0.235000          0.196776E-03
      0.240000          0.185517E-03
      0.245000          0.176198E-03
      0.250000          0.168523E-03
      0.255000          0.162230E-03
      0.260000          0.157086E-03
      0.265000          0.152887E-03
      0.270000          0.149453E-03
      0.275000          0.146623E-03
      0.280000          0.144261E-03
      0.285000          0.142246E-03
      0.290000          0.140478E-03
      0.295000          0.138871E-03
      0.300000          0.137358E-03
      0.305000          0.135884E-03
      0.310000          0.134411E-03
      0.315000          0.132915E-03
      0.320000          0.131381E-03
      0.325000          0.129807E-03
      0.330000          0.128203E-03
      0.335000          0.126582E-03
      0.340000          0.124966E-03
      0.345000          0.123380E-03
      0.350000          0.121851E-03
      0.355000          0.120406E-03
      0.360000          0.119068E-03
      0.365000          0.117857E-03
      0.370000          0.116789E-03
      0.375000          0.115871E-03
      0.380000          0.115103E-03
      0.385000          0.114479E-03
      0.390000          0.113981E-03
      0.395000          0.113588E-03
      0.400000          0.113270E-03
      0.405000          0.112993E-03
      0.410000          0.112717E-03
      0.415000          0.112403E-03
      0.420000          0.112013E-03
      0.425000          0.111510E-03
      0.430000          0.110861E-03
      0.435000          0.110041E-03
      0.440000          0.109032E-03
      0.445000          0.107827E-03
      0.450000          0.106426E-03
      0.455000          0.104840E-03
      0.460000          0.103089E-03
      0.465000          0.101203E-03
      0.470000          0.992158E-04
      0.475000          0.971688E-04
      0.480000          0.951056E-04
      0.485000          0.930706E-04
      0.490000          0.911071E-04
      0.495000          0.892548E-04
      0.500000          0.875483E-04
