 I_abs(s)[cm^-1]/c[mg/ml]
       0.00000          0.135855E-01
      0.500000E-02      0.135286E-01
      0.100000E-01      0.133594E-01
      0.150000E-01      0.130826E-01
      0.200000E-01      0.127056E-01
      0.250000E-01      0.122384E-01
      0.300000E-01      0.116931E-01
      0.350000E-01      0.110834E-01
      0.400000E-01      0.104242E-01
      0.450000E-01      0.973080E-02
      0.500000E-01      0.901847E-02
      0.550000E-01      0.830190E-02
      0.600000E-01      0.759466E-02
      0.650000E-01      0.690885E-02
      0.700000E-01      0.625473E-02
      0.750000E-01      0.564052E-02
      0.800000E-01      0.507229E-02
      0.850000E-01      0.455396E-02
      0.900000E-01      0.408734E-02
      0.950000E-01      0.367239E-02
      0.100000          0.330736E-02
      0.105000          0.298918E-02
      0.110000          0.271372E-02
      0.115000          0.247614E-02
      0.120000          0.227123E-02
      0.125000          0.209371E-02
      0.130000          0.193847E-02
      0.135000          0.180083E-02
      0.140000          0.167665E-02
      0.145000          0.156250E-02
      0.150000          0.145563E-02
      0.155000          0.135405E-02
      0.160000          0.125644E-02
      0.165000          0.116207E-02
      0.170000          0.107072E-02
      0.175000          0.982550E-03
      0.180000          0.897992E-03
      0.185000          0.817611E-03
      0.190000          0.742012E-03
      0.195000          0.671757E-03
      0.200000          0.607286E-03
      0.205000          0.548883E-03
      0.210000          0.496645E-03
      0.215000          0.450480E-03
      0.220000          0.410125E-03
      0.225000          0.375169E-03
      0.230000          0.345090E-03
      0.235000          0.319295E-03
      0.240000          0.297163E-03
      0.245000          0.278081E-03
      0.250000          0.261480E-03
      0.255000          0.246852E-03
      0.260000          0.233778E-03
      0.265000          0.221924E-03
      0.270000          0.211050E-03
      0.275000          0.200997E-03
      0.280000          0.191677E-03
      0.285000          0.183057E-03
      0.290000          0.175138E-03
      0.295000          0.167943E-03
      0.300000          0.161497E-03
      0.305000          0.155814E-03
      0.310000          0.150888E-03
      0.315000          0.146689E-03
      0.320000          0.143156E-03
      0.325000          0.140204E-03
      0.330000          0.137728E-03
      0.335000          0.135606E-03
      0.340000          0.133711E-03
      0.345000          0.131917E-03
      0.350000          0.130110E-03
      0.355000          0.128193E-03
      0.360000          0.126092E-03
      0.365000          0.123761E-03
      0.370000          0.121180E-03
      0.375000          0.118358E-03
      0.380000          0.115327E-03
      0.385000          0.112140E-03
      0.390000          0.108868E-03
      0.395000          0.105586E-03
      0.400000          0.102375E-03
      0.405000          0.993141E-04
      0.410000          0.964709E-04
      0.415000          0.939026E-04
      0.420000          0.916501E-04
      0.425000          0.897371E-04
      0.430000          0.881693E-04
      0.435000          0.869356E-04
      0.440000          0.860097E-04
      0.445000          0.853531E-04
      0.450000          0.849182E-04
      0.455000          0.846520E-04
      0.460000          0.844999E-04
      0.465000          0.844094E-04
      0.470000          0.843326E-04
      0.475000          0.842289E-04
      0.480000          0.840670E-04
      0.485000          0.838253E-04
      0.490000          0.834923E-04
      0.495000          0.830662E-04
      0.500000          0.825535E-04
