 I_abs(s)[cm^-1]/c[mg/ml]
       0.00000          0.138164E-01
      0.500000E-02      0.137419E-01
      0.100000E-01      0.135212E-01
      0.150000E-01      0.131621E-01
      0.200000E-01      0.126774E-01
      0.250000E-01      0.120837E-01
      0.300000E-01      0.114011E-01
      0.350000E-01      0.106517E-01
      0.400000E-01      0.985888E-02
      0.450000E-01      0.904568E-02
      0.500000E-01      0.823417E-02
      0.550000E-01      0.744424E-02
      0.600000E-01      0.669295E-02
      0.650000E-01      0.599386E-02
      0.700000E-01      0.535679E-02
      0.750000E-01      0.478764E-02
      0.800000E-01      0.428860E-02
      0.850000E-01      0.385844E-02
      0.900000E-01      0.349303E-02
      0.950000E-01      0.318599E-02
      0.100000          0.292935E-02
      0.105000          0.271429E-02
      0.110000          0.253179E-02
      0.115000          0.237325E-02
      0.120000          0.223096E-02
      0.125000          0.209850E-02
      0.130000          0.197092E-02
      0.135000          0.184484E-02
      0.140000          0.171840E-02
      0.145000          0.159111E-02
      0.150000          0.146358E-02
      0.155000          0.133728E-02
      0.160000          0.121417E-02
      0.165000          0.109644E-02
      0.170000          0.986212E-03
      0.175000          0.885283E-03
      0.180000          0.794999E-03
      0.185000          0.716132E-03
      0.190000          0.648849E-03
      0.195000          0.592737E-03
      0.200000          0.546880E-03
      0.205000          0.509974E-03
      0.210000          0.480456E-03
      0.215000          0.456649E-03
      0.220000          0.436896E-03
      0.225000          0.419672E-03
      0.230000          0.403683E-03
      0.235000          0.387917E-03
      0.240000          0.371680E-03
      0.245000          0.354590E-03
      0.250000          0.336550E-03
      0.255000          0.317705E-03
      0.260000          0.298375E-03
      0.265000          0.278995E-03
      0.270000          0.260047E-03
      0.275000          0.242004E-03
      0.280000          0.225276E-03
      0.285000          0.210183E-03
      0.290000          0.196929E-03
      0.295000          0.185596E-03
      0.300000          0.176154E-03
      0.305000          0.168470E-03
      0.310000          0.162334E-03
      0.315000          0.157483E-03
      0.320000          0.153631E-03
      0.325000          0.150488E-03
      0.330000          0.147785E-03
      0.335000          0.145288E-03
      0.340000          0.142808E-03
      0.345000          0.140210E-03
      0.350000          0.137406E-03
      0.355000          0.134356E-03
      0.360000          0.131062E-03
      0.365000          0.127554E-03
      0.370000          0.123885E-03
      0.375000          0.120122E-03
      0.380000          0.116335E-03
      0.385000          0.112596E-03
      0.390000          0.108967E-03
      0.395000          0.105503E-03
      0.400000          0.102245E-03
      0.405000          0.992255E-04
      0.410000          0.964631E-04
      0.415000          0.939671E-04
      0.420000          0.917380E-04
      0.425000          0.897688E-04
      0.430000          0.880467E-04
      0.435000          0.865548E-04
      0.440000          0.852732E-04
      0.445000          0.841805E-04
      0.450000          0.832546E-04
      0.455000          0.824740E-04
      0.460000          0.818185E-04
      0.465000          0.812702E-04
      0.470000          0.808137E-04
      0.475000          0.804367E-04
      0.480000          0.801303E-04
      0.485000          0.798881E-04
      0.490000          0.797064E-04
      0.495000          0.795830E-04
      0.500000          0.795159E-04
