 I_abs(s)[cm^-1]/c[mg/ml]
       0.00000          0.140337E-01
      0.500000E-02      0.139682E-01
      0.100000E-01      0.137740E-01
      0.150000E-01      0.134568E-01
      0.200000E-01      0.130266E-01
      0.250000E-01      0.124962E-01
      0.300000E-01      0.118812E-01
      0.350000E-01      0.111990E-01
      0.400000E-01      0.104682E-01
      0.450000E-01      0.970778E-02
      0.500000E-01      0.893611E-02
      0.550000E-01      0.817044E-02
      0.600000E-01      0.742619E-02
      0.650000E-01      0.671645E-02
      0.700000E-01      0.605165E-02
      0.750000E-01      0.543937E-02
      0.800000E-01      0.488428E-02
      0.850000E-01      0.438831E-02
      0.900000E-01      0.395088E-02
      0.950000E-01      0.356923E-02
      0.100000          0.323890E-02
      0.105000          0.295419E-02
      0.110000          0.270865E-02
      0.115000          0.249553E-02
      0.120000          0.230826E-02
      0.125000          0.214075E-02
      0.130000          0.198771E-02
      0.135000          0.184479E-02
      0.140000          0.170874E-02
      0.145000          0.157736E-02
      0.150000          0.144946E-02
      0.155000          0.132471E-02
      0.160000          0.120350E-02
      0.165000          0.108671E-02
      0.170000          0.975528E-03
      0.175000          0.871229E-03
      0.180000          0.775018E-03
      0.185000          0.687882E-03
      0.190000          0.610487E-03
      0.195000          0.543123E-03
      0.200000          0.485682E-03
      0.205000          0.437682E-03
      0.210000          0.398317E-03
      0.215000          0.366530E-03
      0.220000          0.341103E-03
      0.225000          0.320751E-03
      0.230000          0.304205E-03
      0.235000          0.290299E-03
      0.240000          0.278026E-03
      0.245000          0.266581E-03
      0.250000          0.255388E-03
      0.255000          0.244097E-03
      0.260000          0.232570E-03
      0.265000          0.220850E-03
      0.270000          0.209116E-03
      0.275000          0.197643E-03
      0.280000          0.186746E-03
      0.285000          0.176738E-03
      0.290000          0.167891E-03
      0.295000          0.160403E-03
      0.300000          0.154383E-03
      0.305000          0.149836E-03
      0.310000          0.146670E-03
      0.315000          0.144706E-03
      0.320000          0.143692E-03
      0.325000          0.143334E-03
      0.330000          0.143313E-03
      0.335000          0.143320E-03
      0.340000          0.143074E-03
      0.345000          0.142342E-03
      0.350000          0.140956E-03
      0.355000          0.138821E-03
      0.360000          0.135918E-03
      0.365000          0.132295E-03
      0.370000          0.128067E-03
      0.375000          0.123393E-03
      0.380000          0.118467E-03
      0.385000          0.113498E-03
      0.390000          0.108693E-03
      0.395000          0.104237E-03
      0.400000          0.100287E-03
      0.405000          0.969548E-04
      0.410000          0.943041E-04
      0.415000          0.923476E-04
      0.420000          0.910485E-04
      0.425000          0.903265E-04
      0.430000          0.900661E-04
      0.435000          0.901274E-04
      0.440000          0.903583E-04
      0.445000          0.906068E-04
      0.450000          0.907328E-04
      0.455000          0.906183E-04
      0.460000          0.901760E-04
      0.465000          0.893540E-04
      0.470000          0.881389E-04
      0.475000          0.865554E-04
      0.480000          0.846623E-04
      0.485000          0.825476E-04
      0.490000          0.803199E-04
      0.495000          0.780998E-04
      0.500000          0.760101E-04
