 I_abs(s)[cm^-1]/c[mg/ml]
       0.00000          0.138318E-01
      0.500000E-02      0.137774E-01
      0.100000E-01      0.136154E-01
      0.150000E-01      0.133500E-01
      0.200000E-01      0.129879E-01
      0.250000E-01      0.125383E-01
      0.300000E-01      0.120122E-01
      0.350000E-01      0.114219E-01
      0.400000E-01      0.107812E-01
      0.450000E-01      0.101039E-01
      0.500000E-01      0.940428E-02
      0.550000E-01      0.869584E-02
      0.600000E-01      0.799131E-02
      0.650000E-01      0.730214E-02
      0.700000E-01      0.663820E-02
      0.750000E-01      0.600764E-02
      0.800000E-01      0.541670E-02
      0.850000E-01      0.486977E-02
      0.900000E-01      0.436940E-02
      0.950000E-01      0.391645E-02
      0.100000          0.351030E-02
      0.105000          0.314906E-02
      0.110000          0.282986E-02
      0.115000          0.254913E-02
      0.120000          0.230284E-02
      0.125000          0.208678E-02
      0.130000          0.189679E-02
      0.135000          0.172890E-02
      0.140000          0.157950E-02
      0.145000          0.144544E-02
      0.150000          0.132408E-02
      0.155000          0.121328E-02
      0.160000          0.111141E-02
      0.165000          0.101728E-02
      0.170000          0.930069E-03
      0.175000          0.849278E-03
      0.180000          0.774611E-03
      0.185000          0.705919E-03
      0.190000          0.643118E-03
      0.195000          0.586137E-03
      0.200000          0.534869E-03
      0.205000          0.489143E-03
      0.210000          0.448708E-03
      0.215000          0.413234E-03
      0.220000          0.382317E-03
      0.225000          0.355498E-03
      0.230000          0.332286E-03
      0.235000          0.312179E-03
      0.240000          0.294689E-03
      0.245000          0.279363E-03
      0.250000          0.265797E-03
      0.255000          0.253648E-03
      0.260000          0.242640E-03
      0.265000          0.232564E-03
      0.270000          0.223271E-03
      0.275000          0.214664E-03
      0.280000          0.206690E-03
      0.285000          0.199322E-03
      0.290000          0.192554E-03
      0.295000          0.186380E-03
      0.300000          0.180795E-03
      0.305000          0.175778E-03
      0.310000          0.171293E-03
      0.315000          0.167289E-03
      0.320000          0.163694E-03
      0.325000          0.160425E-03
      0.330000          0.157387E-03
      0.335000          0.154484E-03
      0.340000          0.151622E-03
      0.345000          0.148715E-03
      0.350000          0.145692E-03
      0.355000          0.142501E-03
      0.360000          0.139110E-03
      0.365000          0.135511E-03
      0.370000          0.131718E-03
      0.375000          0.127766E-03
      0.380000          0.123709E-03
      0.385000          0.119611E-03
      0.390000          0.115549E-03
      0.395000          0.111603E-03
      0.400000          0.107849E-03
      0.405000          0.104359E-03
      0.410000          0.101194E-03
      0.415000          0.983998E-04
      0.420000          0.960077E-04
      0.425000          0.940297E-04
      0.430000          0.924602E-04
      0.435000          0.912762E-04
      0.440000          0.904396E-04
      0.445000          0.898994E-04
      0.450000          0.895952E-04
      0.455000          0.894606E-04
      0.460000          0.894274E-04
      0.465000          0.894287E-04
      0.470000          0.894028E-04
      0.475000          0.892960E-04
      0.480000          0.890650E-04
      0.485000          0.886784E-04
      0.490000          0.881175E-04
      0.495000          0.873764E-04
      0.500000          0.864614E-04
