 I_abs(s)[cm^-1]/c[mg/ml]
       0.00000          0.138087E-01
      0.500000E-02      0.137431E-01
      0.100000E-01      0.135487E-01
      0.150000E-01      0.132315E-01
      0.200000E-01      0.128014E-01
      0.250000E-01      0.122716E-01
      0.300000E-01      0.116580E-01
      0.350000E-01      0.109784E-01
      0.400000E-01      0.102514E-01
      0.450000E-01      0.949603E-02
      0.500000E-01      0.873078E-02
      0.550000E-01      0.797271E-02
      0.600000E-01      0.723697E-02
      0.650000E-01      0.653633E-02
      0.700000E-01      0.588078E-02
      0.750000E-01      0.527746E-02
      0.800000E-01      0.473064E-02
      0.850000E-01      0.424188E-02
      0.900000E-01      0.381032E-02
      0.950000E-01      0.343308E-02
      0.100000          0.310571E-02
      0.105000          0.282264E-02
      0.110000          0.257771E-02
      0.115000          0.236458E-02
      0.120000          0.217713E-02
      0.125000          0.200975E-02
      0.130000          0.185762E-02
      0.135000          0.171681E-02
      0.140000          0.158436E-02
      0.145000          0.145823E-02
      0.150000          0.133725E-02
      0.155000          0.122097E-02
      0.160000          0.110949E-02
      0.165000          0.100332E-02
      0.170000          0.903184E-03
      0.175000          0.809858E-03
      0.180000          0.724062E-03
      0.185000          0.646348E-03
      0.190000          0.577037E-03
      0.195000          0.516187E-03
      0.200000          0.463593E-03
      0.205000          0.418809E-03
      0.210000          0.381191E-03
      0.215000          0.349948E-03
      0.220000          0.324205E-03
      0.225000          0.303056E-03
      0.230000          0.285618E-03
      0.235000          0.271073E-03
      0.240000          0.258699E-03
      0.245000          0.247888E-03
      0.250000          0.238160E-03
      0.255000          0.229151E-03
      0.260000          0.220613E-03
      0.265000          0.212393E-03
      0.270000          0.204417E-03
      0.275000          0.196668E-03
      0.280000          0.189171E-03
      0.285000          0.181970E-03
      0.290000          0.175123E-03
      0.295000          0.168680E-03
      0.300000          0.162686E-03
      0.305000          0.157169E-03
      0.310000          0.152142E-03
      0.315000          0.147602E-03
      0.320000          0.143529E-03
      0.325000          0.139892E-03
      0.330000          0.136650E-03
      0.335000          0.133755E-03
      0.340000          0.131152E-03
      0.345000          0.128789E-03
      0.350000          0.126612E-03
      0.355000          0.124570E-03
      0.360000          0.122619E-03
      0.365000          0.120720E-03
      0.370000          0.118843E-03
      0.375000          0.116969E-03
      0.380000          0.115086E-03
      0.385000          0.113192E-03
      0.390000          0.111295E-03
      0.395000          0.109411E-03
      0.400000          0.107561E-03
      0.405000          0.105771E-03
      0.410000          0.104068E-03
      0.415000          0.102478E-03
      0.420000          0.101025E-03
      0.425000          0.997256E-04
      0.430000          0.985919E-04
      0.435000          0.976260E-04
      0.440000          0.968222E-04
      0.445000          0.961664E-04
      0.450000          0.956375E-04
      0.455000          0.952084E-04
      0.460000          0.948485E-04
      0.465000          0.945255E-04
      0.470000          0.942075E-04
      0.475000          0.938654E-04
      0.480000          0.934742E-04
      0.485000          0.930145E-04
      0.490000          0.924730E-04
      0.495000          0.918426E-04
      0.500000          0.911220E-04
