 I_abs(s)[cm^-1]/c[mg/ml]
       0.00000          0.135166E-01
      0.500000E-02      0.134501E-01
      0.100000E-01      0.132527E-01
      0.150000E-01      0.129306E-01
      0.200000E-01      0.124933E-01
      0.250000E-01      0.119542E-01
      0.300000E-01      0.113287E-01
      0.350000E-01      0.106347E-01
      0.400000E-01      0.989093E-02
      0.450000E-01      0.911668E-02
      0.500000E-01      0.833074E-02
      0.550000E-01      0.755081E-02
      0.600000E-01      0.679282E-02
      0.650000E-01      0.607046E-02
      0.700000E-01      0.539481E-02
      0.750000E-01      0.477414E-02
      0.800000E-01      0.421386E-02
      0.850000E-01      0.371664E-02
      0.900000E-01      0.328261E-02
      0.950000E-01      0.290967E-02
      0.100000          0.259392E-02
      0.105000          0.233007E-02
      0.110000          0.211192E-02
      0.115000          0.193278E-02
      0.120000          0.178586E-02
      0.125000          0.166466E-02
      0.130000          0.156317E-02
      0.135000          0.147615E-02
      0.140000          0.139920E-02
      0.145000          0.132880E-02
      0.150000          0.126235E-02
      0.155000          0.119803E-02
      0.160000          0.113478E-02
      0.165000          0.107208E-02
      0.170000          0.100990E-02
      0.175000          0.948477E-03
      0.180000          0.888269E-03
      0.185000          0.829794E-03
      0.190000          0.773564E-03
      0.195000          0.720022E-03
      0.200000          0.669506E-03
      0.205000          0.622232E-03
      0.210000          0.578295E-03
      0.215000          0.537682E-03
      0.220000          0.500293E-03
      0.225000          0.465967E-03
      0.230000          0.434506E-03
      0.235000          0.405697E-03
      0.240000          0.379329E-03
      0.245000          0.355202E-03
      0.250000          0.333139E-03
      0.255000          0.312982E-03
      0.260000          0.294594E-03
      0.265000          0.277853E-03
      0.270000          0.262647E-03
      0.275000          0.248869E-03
      0.280000          0.236415E-03
      0.285000          0.225182E-03
      0.290000          0.215065E-03
      0.295000          0.205960E-03
      0.300000          0.197766E-03
      0.305000          0.190388E-03
      0.310000          0.183738E-03
      0.315000          0.177739E-03
      0.320000          0.172324E-03
      0.325000          0.167436E-03
      0.330000          0.163030E-03
      0.335000          0.159066E-03
      0.340000          0.155508E-03
      0.345000          0.152322E-03
      0.350000          0.149472E-03
      0.355000          0.146918E-03
      0.360000          0.144615E-03
      0.365000          0.142511E-03
      0.370000          0.140549E-03
      0.375000          0.138670E-03
      0.380000          0.136814E-03
      0.385000          0.134924E-03
      0.390000          0.132948E-03
      0.395000          0.130845E-03
      0.400000          0.128584E-03
      0.405000          0.126150E-03
      0.410000          0.123539E-03
      0.415000          0.120763E-03
      0.420000          0.117847E-03
      0.425000          0.114824E-03
      0.430000          0.111736E-03
      0.435000          0.108631E-03
      0.440000          0.105554E-03
      0.445000          0.102553E-03
      0.450000          0.996682E-04
      0.455000          0.969341E-04
      0.460000          0.943777E-04
      0.465000          0.920177E-04
      0.470000          0.898643E-04
      0.475000          0.879205E-04
      0.480000          0.861829E-04
      0.485000          0.846428E-04
      0.490000          0.832886E-04
      0.495000          0.821061E-04
      0.500000          0.810803E-04
