 I_abs(s)[cm^-1]/c[mg/ml]
       0.00000          0.147595E-01
      0.500000E-02      0.147126E-01
      0.100000E-01      0.145725E-01
      0.150000E-01      0.143419E-01
      0.200000E-01      0.140250E-01
      0.250000E-01      0.136274E-01
      0.300000E-01      0.131562E-01
      0.350000E-01      0.126195E-01
      0.400000E-01      0.120265E-01
      0.450000E-01      0.113870E-01
      0.500000E-01      0.107112E-01
      0.550000E-01      0.100095E-01
      0.600000E-01      0.929225E-02
      0.650000E-01      0.856948E-02
      0.700000E-01      0.785066E-02
      0.750000E-01      0.714456E-02
      0.800000E-01      0.645906E-02
      0.850000E-01      0.580101E-02
      0.900000E-01      0.517619E-02
      0.950000E-01      0.458921E-02
      0.100000          0.404354E-02
      0.105000          0.354152E-02
      0.110000          0.308437E-02
      0.115000          0.267234E-02
      0.120000          0.230478E-02
      0.125000          0.198025E-02
      0.130000          0.169665E-02
      0.135000          0.145137E-02
      0.140000          0.124143E-02
      0.145000          0.106358E-02
      0.150000          0.914458E-03
      0.155000          0.790669E-03
      0.160000          0.688895E-03
      0.165000          0.605972E-03
      0.170000          0.538948E-03
      0.175000          0.485131E-03
      0.180000          0.442115E-03
      0.185000          0.407795E-03
      0.190000          0.380366E-03
      0.195000          0.358313E-03
      0.200000          0.340392E-03
      0.205000          0.325604E-03
      0.210000          0.313167E-03
      0.215000          0.302480E-03
      0.220000          0.293096E-03
      0.225000          0.284689E-03
      0.230000          0.277025E-03
      0.235000          0.269941E-03
      0.240000          0.263320E-03
      0.245000          0.257078E-03
      0.250000          0.251150E-03
      0.255000          0.245482E-03
      0.260000          0.240024E-03
      0.265000          0.234729E-03
      0.270000          0.229551E-03
      0.275000          0.224448E-03
      0.280000          0.219379E-03
      0.285000          0.214312E-03
      0.290000          0.209221E-03
      0.295000          0.204091E-03
      0.300000          0.198915E-03
      0.305000          0.193698E-03
      0.310000          0.188455E-03
      0.315000          0.183208E-03
      0.320000          0.177986E-03
      0.325000          0.172824E-03
      0.330000          0.167759E-03
      0.335000          0.162825E-03
      0.340000          0.158058E-03
      0.345000          0.153486E-03
      0.350000          0.149135E-03
      0.355000          0.145021E-03
      0.360000          0.141156E-03
      0.365000          0.137545E-03
      0.370000          0.134183E-03
      0.375000          0.131063E-03
      0.380000          0.128173E-03
      0.385000          0.125496E-03
      0.390000          0.123014E-03
      0.395000          0.120708E-03
      0.400000          0.118559E-03
      0.405000          0.116550E-03
      0.410000          0.114663E-03
      0.415000          0.112886E-03
      0.420000          0.111208E-03
      0.425000          0.109618E-03
      0.430000          0.108111E-03
      0.435000          0.106681E-03
      0.440000          0.105324E-03
      0.445000          0.104039E-03
      0.450000          0.102821E-03
      0.455000          0.101669E-03
      0.460000          0.100580E-03
      0.465000          0.995503E-04
      0.470000          0.985754E-04
      0.475000          0.976509E-04
      0.480000          0.967712E-04
      0.485000          0.959310E-04
      0.490000          0.951246E-04
      0.495000          0.943468E-04
      0.500000          0.935929E-04
