 I_abs(s)[cm^-1]/c[mg/ml]
       0.00000          0.146320E-01
      0.500000E-02      0.145935E-01
      0.100000E-01      0.144786E-01
      0.150000E-01      0.142890E-01
      0.200000E-01      0.140273E-01
      0.250000E-01      0.136974E-01
      0.300000E-01      0.133037E-01
      0.350000E-01      0.128518E-01
      0.400000E-01      0.123478E-01
      0.450000E-01      0.117986E-01
      0.500000E-01      0.112112E-01
      0.550000E-01      0.105932E-01
      0.600000E-01      0.995230E-02
      0.650000E-01      0.929610E-02
      0.700000E-01      0.863216E-02
      0.750000E-01      0.796776E-02
      0.800000E-01      0.730979E-02
      0.850000E-01      0.666467E-02
      0.900000E-01      0.603822E-02
      0.950000E-01      0.543561E-02
      0.100000          0.486129E-02
      0.105000          0.431899E-02
      0.110000          0.381162E-02
      0.115000          0.334138E-02
      0.120000          0.290966E-02
      0.125000          0.251717E-02
      0.130000          0.216391E-02
      0.135000          0.184929E-02
      0.140000          0.157214E-02
      0.145000          0.133084E-02
      0.150000          0.112335E-02
      0.155000          0.947296E-03
      0.160000          0.800097E-03
      0.165000          0.678990E-03
      0.170000          0.581129E-03
      0.175000          0.503652E-03
      0.180000          0.443741E-03
      0.185000          0.398676E-03
      0.190000          0.365886E-03
      0.195000          0.342980E-03
      0.200000          0.327779E-03
      0.205000          0.318336E-03
      0.210000          0.312945E-03
      0.215000          0.310148E-03
      0.220000          0.308730E-03
      0.225000          0.307710E-03
      0.230000          0.306330E-03
      0.235000          0.304032E-03
      0.240000          0.300443E-03
      0.245000          0.295350E-03
      0.250000          0.288673E-03
      0.255000          0.280449E-03
      0.260000          0.270799E-03
      0.265000          0.259915E-03
      0.270000          0.248032E-03
      0.275000          0.235415E-03
      0.280000          0.222339E-03
      0.285000          0.209077E-03
      0.290000          0.195888E-03
      0.295000          0.183011E-03
      0.300000          0.170653E-03
      0.305000          0.158989E-03
      0.310000          0.148160E-03
      0.315000          0.138269E-03
      0.320000          0.129385E-03
      0.325000          0.121543E-03
      0.330000          0.114748E-03
      0.335000          0.108979E-03
      0.340000          0.104192E-03
      0.345000          0.100325E-03
      0.350000          0.972997E-04
      0.355000          0.950309E-04
      0.360000          0.934253E-04
      0.365000          0.923873E-04
      0.370000          0.918217E-04
      0.375000          0.916364E-04
      0.380000          0.917444E-04
      0.385000          0.920653E-04
      0.390000          0.925271E-04
      0.395000          0.930664E-04
      0.400000          0.936293E-04
      0.405000          0.941709E-04
      0.410000          0.946555E-04
      0.415000          0.950559E-04
      0.420000          0.953528E-04
      0.425000          0.955340E-04
      0.430000          0.955936E-04
      0.435000          0.955306E-04
      0.440000          0.953485E-04
      0.445000          0.950542E-04
      0.450000          0.946567E-04
      0.455000          0.941668E-04
      0.460000          0.935963E-04
      0.465000          0.929569E-04
      0.470000          0.922604E-04
      0.475000          0.915175E-04
      0.480000          0.907383E-04
      0.485000          0.899314E-04
      0.490000          0.891044E-04
      0.495000          0.882632E-04
      0.500000          0.874128E-04
