 I_abs(s)[cm^-1]/c[mg/ml]
       0.00000          0.134478E-01
      0.500000E-02      0.133844E-01
      0.100000E-01      0.131960E-01
      0.150000E-01      0.128879E-01
      0.200000E-01      0.124687E-01
      0.250000E-01      0.119498E-01
      0.300000E-01      0.113452E-01
      0.350000E-01      0.106708E-01
      0.400000E-01      0.994365E-02
      0.450000E-01      0.918155E-02
      0.500000E-01      0.840215E-02
      0.550000E-01      0.762248E-02
      0.600000E-01      0.685829E-02
      0.650000E-01      0.612363E-02
      0.700000E-01      0.543045E-02
      0.750000E-01      0.478831E-02
      0.800000E-01      0.420424E-02
      0.850000E-01      0.368271E-02
      0.900000E-01      0.322574E-02
      0.950000E-01      0.283302E-02
      0.100000          0.250221E-02
      0.105000          0.222926E-02
      0.110000          0.200877E-02
      0.115000          0.183437E-02
      0.120000          0.169912E-02
      0.125000          0.159587E-02
      0.130000          0.151756E-02
      0.135000          0.145755E-02
      0.140000          0.140984E-02
      0.145000          0.136919E-02
      0.150000          0.133127E-02
      0.155000          0.129272E-02
      0.160000          0.125108E-02
      0.165000          0.120482E-02
      0.170000          0.115319E-02
      0.175000          0.109616E-02
      0.180000          0.103424E-02
      0.185000          0.968400E-03
      0.190000          0.899873E-03
      0.195000          0.830078E-03
      0.200000          0.760483E-03
      0.205000          0.692507E-03
      0.210000          0.627447E-03
      0.215000          0.566413E-03
      0.220000          0.510292E-03
      0.225000          0.459727E-03
      0.230000          0.415107E-03
      0.235000          0.376582E-03
      0.240000          0.344078E-03
      0.245000          0.317327E-03
      0.250000          0.295899E-03
      0.255000          0.279240E-03
      0.260000          0.266708E-03
      0.265000          0.257608E-03
      0.270000          0.251230E-03
      0.275000          0.246876E-03
      0.280000          0.243888E-03
      0.285000          0.241669E-03
      0.290000          0.239697E-03
      0.295000          0.237540E-03
      0.300000          0.234857E-03
      0.305000          0.231404E-03
      0.310000          0.227030E-03
      0.315000          0.221665E-03
      0.320000          0.215320E-03
      0.325000          0.208067E-03
      0.330000          0.200032E-03
      0.335000          0.191376E-03
      0.340000          0.182287E-03
      0.345000          0.172963E-03
      0.350000          0.163599E-03
      0.355000          0.154384E-03
      0.360000          0.145486E-03
      0.365000          0.137048E-03
      0.370000          0.129186E-03
      0.375000          0.121986E-03
      0.380000          0.115504E-03
      0.385000          0.109770E-03
      0.390000          0.104785E-03
      0.395000          0.100532E-03
      0.400000          0.969749E-04
      0.405000          0.940652E-04
      0.410000          0.917445E-04
      0.415000          0.899492E-04
      0.420000          0.886128E-04
      0.425000          0.876686E-04
      0.430000          0.870515E-04
      0.435000          0.866988E-04
      0.440000          0.865515E-04
      0.445000          0.865543E-04
      0.450000          0.866557E-04
      0.455000          0.868088E-04
      0.460000          0.869703E-04
      0.465000          0.871020E-04
      0.470000          0.871698E-04
      0.475000          0.871450E-04
      0.480000          0.870046E-04
      0.485000          0.867315E-04
      0.490000          0.863149E-04
      0.495000          0.857509E-04
      0.500000          0.850423E-04
