 I_abs(s)[cm^-1]/c[mg/ml]
       0.00000          0.137855E-01
      0.500000E-02      0.137199E-01
      0.100000E-01      0.135251E-01
      0.150000E-01      0.132074E-01
      0.200000E-01      0.127766E-01
      0.250000E-01      0.122458E-01
      0.300000E-01      0.116310E-01
      0.350000E-01      0.109497E-01
      0.400000E-01      0.102208E-01
      0.450000E-01      0.946325E-02
      0.500000E-01      0.869561E-02
      0.550000E-01      0.793503E-02
      0.600000E-01      0.719680E-02
      0.650000E-01      0.649381E-02
      0.700000E-01      0.583625E-02
      0.750000E-01      0.523142E-02
      0.800000E-01      0.468379E-02
      0.850000E-01      0.419508E-02
      0.900000E-01      0.376461E-02
      0.950000E-01      0.338960E-02
      0.100000          0.306571E-02
      0.105000          0.278744E-02
      0.110000          0.254862E-02
      0.115000          0.234289E-02
      0.120000          0.216406E-02
      0.125000          0.200643E-02
      0.130000          0.186504E-02
      0.135000          0.173578E-02
      0.140000          0.161552E-02
      0.145000          0.150200E-02
      0.150000          0.139385E-02
      0.155000          0.129038E-02
      0.160000          0.119148E-02
      0.165000          0.109741E-02
      0.170000          0.100868E-02
      0.175000          0.925819E-03
      0.180000          0.849348E-03
      0.185000          0.779612E-03
      0.190000          0.716752E-03
      0.195000          0.660678E-03
      0.200000          0.611068E-03
      0.205000          0.567408E-03
      0.210000          0.529036E-03
      0.215000          0.495198E-03
      0.220000          0.465117E-03
      0.225000          0.438044E-03
      0.230000          0.413309E-03
      0.235000          0.390358E-03
      0.240000          0.368769E-03
      0.245000          0.348265E-03
      0.250000          0.328699E-03
      0.255000          0.310040E-03
      0.260000          0.292346E-03
      0.265000          0.275731E-03
      0.270000          0.260331E-03
      0.275000          0.246279E-03
      0.280000          0.233676E-03
      0.285000          0.222573E-03
      0.290000          0.212961E-03
      0.295000          0.204768E-03
      0.300000          0.197863E-03
      0.305000          0.192064E-03
      0.310000          0.187155E-03
      0.315000          0.182902E-03
      0.320000          0.179069E-03
      0.325000          0.175437E-03
      0.330000          0.171818E-03
      0.335000          0.168060E-03
      0.340000          0.164060E-03
      0.345000          0.159765E-03
      0.350000          0.155163E-03
      0.355000          0.150289E-03
      0.360000          0.145206E-03
      0.365000          0.140001E-03
      0.370000          0.134775E-03
      0.375000          0.129629E-03
      0.380000          0.124658E-03
      0.385000          0.119944E-03
      0.390000          0.115546E-03
      0.395000          0.111505E-03
      0.400000          0.107837E-03
      0.405000          0.104536E-03
      0.410000          0.101578E-03
      0.415000          0.989260E-04
      0.420000          0.965336E-04
      0.425000          0.943502E-04
      0.430000          0.923263E-04
      0.435000          0.904171E-04
      0.440000          0.885857E-04
      0.445000          0.868051E-04
      0.450000          0.850588E-04
      0.455000          0.833403E-04
      0.460000          0.816521E-04
      0.465000          0.800037E-04
      0.470000          0.784093E-04
      0.475000          0.768852E-04
      0.480000          0.754477E-04
      0.485000          0.741110E-04
      0.490000          0.728856E-04
      0.495000          0.717778E-04
      0.500000          0.707885E-04
