 I_abs(s)[cm^-1]/c[mg/ml]
       0.00000          0.141899E-01
      0.500000E-02      0.141310E-01
      0.100000E-01      0.139558E-01
      0.150000E-01      0.136687E-01
      0.200000E-01      0.132769E-01
      0.250000E-01      0.127902E-01
      0.300000E-01      0.122203E-01
      0.350000E-01      0.115808E-01
      0.400000E-01      0.108862E-01
      0.450000E-01      0.101520E-01
      0.500000E-01      0.939347E-02
      0.550000E-01      0.862574E-02
      0.600000E-01      0.786296E-02
      0.650000E-01      0.711800E-02
      0.700000E-01      0.640213E-02
      0.750000E-01      0.572475E-02
      0.800000E-01      0.509320E-02
      0.850000E-01      0.451277E-02
      0.900000E-01      0.398664E-02
      0.950000E-01      0.351608E-02
      0.100000          0.310054E-02
      0.105000          0.273795E-02
      0.110000          0.242498E-02
      0.115000          0.215734E-02
      0.120000          0.193009E-02
      0.125000          0.173795E-02
      0.130000          0.157554E-02
      0.135000          0.143768E-02
      0.140000          0.131955E-02
      0.145000          0.121683E-02
      0.150000          0.112587E-02
      0.155000          0.104364E-02
      0.160000          0.967842E-03
      0.165000          0.896796E-03
      0.170000          0.829425E-03
      0.175000          0.765150E-03
      0.180000          0.703790E-03
      0.185000          0.645454E-03
      0.190000          0.590436E-03
      0.195000          0.539118E-03
      0.200000          0.491883E-03
      0.205000          0.449050E-03
      0.210000          0.410827E-03
      0.215000          0.377282E-03
      0.220000          0.348331E-03
      0.225000          0.323748E-03
      0.230000          0.303181E-03
      0.235000          0.286181E-03
      0.240000          0.272235E-03
      0.245000          0.260804E-03
      0.250000          0.251355E-03
      0.255000          0.243393E-03
      0.260000          0.236481E-03
      0.265000          0.230262E-03
      0.270000          0.224463E-03
      0.275000          0.218899E-03
      0.280000          0.213464E-03
      0.285000          0.208123E-03
      0.290000          0.202895E-03
      0.295000          0.197837E-03
      0.300000          0.193023E-03
      0.305000          0.188532E-03
      0.310000          0.184431E-03
      0.315000          0.180766E-03
      0.320000          0.177552E-03
      0.325000          0.174773E-03
      0.330000          0.172381E-03
      0.335000          0.170300E-03
      0.340000          0.168436E-03
      0.345000          0.166680E-03
      0.350000          0.164921E-03
      0.355000          0.163056E-03
      0.360000          0.160994E-03
      0.365000          0.158666E-03
      0.370000          0.156027E-03
      0.375000          0.153064E-03
      0.380000          0.149788E-03
      0.385000          0.146237E-03
      0.390000          0.142473E-03
      0.395000          0.138572E-03
      0.400000          0.134622E-03
      0.405000          0.130713E-03
      0.410000          0.126934E-03
      0.415000          0.123365E-03
      0.420000          0.120072E-03
      0.425000          0.117103E-03
      0.430000          0.114490E-03
      0.435000          0.112242E-03
      0.440000          0.110350E-03
      0.445000          0.108789E-03
      0.450000          0.107518E-03
      0.455000          0.106486E-03
      0.460000          0.105636E-03
      0.465000          0.104908E-03
      0.470000          0.104242E-03
      0.475000          0.103585E-03
      0.480000          0.102890E-03
      0.485000          0.102118E-03
      0.490000          0.101242E-03
      0.495000          0.100245E-03
      0.500000          0.991214E-04
