 I_abs(s)[cm^-1]/c[mg/ml]
       0.00000          0.138473E-01
      0.500000E-02      0.137969E-01
      0.100000E-01      0.136466E-01
      0.150000E-01      0.134001E-01
      0.200000E-01      0.130628E-01
      0.250000E-01      0.126424E-01
      0.300000E-01      0.121481E-01
      0.350000E-01      0.115906E-01
      0.400000E-01      0.109815E-01
      0.450000E-01      0.103330E-01
      0.500000E-01      0.965749E-02
      0.550000E-01      0.896736E-02
      0.600000E-01      0.827432E-02
      0.650000E-01      0.758925E-02
      0.700000E-01      0.692193E-02
      0.750000E-01      0.628081E-02
      0.800000E-01      0.567282E-02
      0.850000E-01      0.510339E-02
      0.900000E-01      0.457634E-02
      0.950000E-01      0.409397E-02
      0.100000          0.365716E-02
      0.105000          0.326551E-02
      0.110000          0.291750E-02
      0.115000          0.261075E-02
      0.120000          0.234214E-02
      0.125000          0.210812E-02
      0.130000          0.190483E-02
      0.135000          0.172836E-02
      0.140000          0.157487E-02
      0.145000          0.144072E-02
      0.150000          0.132260E-02
      0.155000          0.121758E-02
      0.160000          0.112317E-02
      0.165000          0.103731E-02
      0.170000          0.958375E-03
      0.175000          0.885126E-03
      0.180000          0.816683E-03
      0.185000          0.752461E-03
      0.190000          0.692106E-03
      0.195000          0.635439E-03
      0.200000          0.582400E-03
      0.205000          0.532992E-03
      0.210000          0.487243E-03
      0.215000          0.445173E-03
      0.220000          0.406767E-03
      0.225000          0.371968E-03
      0.230000          0.340663E-03
      0.235000          0.312693E-03
      0.240000          0.287852E-03
      0.245000          0.265905E-03
      0.250000          0.246592E-03
      0.255000          0.229649E-03
      0.260000          0.214812E-03
      0.265000          0.201832E-03
      0.270000          0.190482E-03
      0.275000          0.180559E-03
      0.280000          0.171889E-03
      0.285000          0.164325E-03
      0.290000          0.157743E-03
      0.295000          0.152043E-03
      0.300000          0.147136E-03
      0.305000          0.142947E-03
      0.310000          0.139404E-03
      0.315000          0.136436E-03
      0.320000          0.133971E-03
      0.325000          0.131930E-03
      0.330000          0.130231E-03
      0.335000          0.128787E-03
      0.340000          0.127509E-03
      0.345000          0.126305E-03
      0.350000          0.125091E-03
      0.355000          0.123787E-03
      0.360000          0.122325E-03
      0.365000          0.120650E-03
      0.370000          0.118723E-03
      0.375000          0.116524E-03
      0.380000          0.114052E-03
      0.385000          0.111322E-03
      0.390000          0.108369E-03
      0.395000          0.105242E-03
      0.400000          0.102003E-03
      0.405000          0.987198E-04
      0.410000          0.954685E-04
      0.415000          0.923237E-04
      0.420000          0.893573E-04
      0.425000          0.866340E-04
      0.430000          0.842085E-04
      0.435000          0.821226E-04
      0.440000          0.804037E-04
      0.445000          0.790636E-04
      0.450000          0.780985E-04
      0.455000          0.774898E-04
      0.460000          0.772052E-04
      0.465000          0.772013E-04
      0.470000          0.774255E-04
      0.475000          0.778195E-04
      0.480000          0.783219E-04
      0.485000          0.788715E-04
      0.490000          0.794103E-04
      0.495000          0.798856E-04
      0.500000          0.802525E-04
