 I_abs(s)[cm^-1]/c[mg/ml]
       0.00000          0.145446E-01
      0.500000E-02      0.144941E-01
      0.100000E-01      0.143436E-01
      0.150000E-01      0.140960E-01
      0.200000E-01      0.137560E-01
      0.250000E-01      0.133299E-01
      0.300000E-01      0.128258E-01
      0.350000E-01      0.122529E-01
      0.400000E-01      0.116214E-01
      0.450000E-01      0.109423E-01
      0.500000E-01      0.102271E-01
      0.550000E-01      0.948748E-02
      0.600000E-01      0.873491E-02
      0.650000E-01      0.798055E-02
      0.700000E-01      0.723486E-02
      0.750000E-01      0.650746E-02
      0.800000E-01      0.580689E-02
      0.850000E-01      0.514051E-02
      0.900000E-01      0.451438E-02
      0.950000E-01      0.393323E-02
      0.100000          0.340039E-02
      0.105000          0.291791E-02
      0.110000          0.248654E-02
      0.115000          0.210591E-02
      0.120000          0.177457E-02
      0.125000          0.149023E-02
      0.130000          0.124985E-02
      0.135000          0.104985E-02
      0.140000          0.886227E-03
      0.145000          0.754789E-03
      0.150000          0.651244E-03
      0.155000          0.571361E-03
      0.160000          0.511084E-03
      0.165000          0.466627E-03
      0.170000          0.434548E-03
      0.175000          0.411802E-03
      0.180000          0.395768E-03
      0.185000          0.384264E-03
      0.190000          0.375537E-03
      0.195000          0.368241E-03
      0.200000          0.361401E-03
      0.205000          0.354372E-03
      0.210000          0.346789E-03
      0.215000          0.338512E-03
      0.220000          0.329576E-03
      0.225000          0.320140E-03
      0.230000          0.310440E-03
      0.235000          0.300747E-03
      0.240000          0.291336E-03
      0.245000          0.282457E-03
      0.250000          0.274314E-03
      0.255000          0.267056E-03
      0.260000          0.260766E-03
      0.265000          0.255464E-03
      0.270000          0.251111E-03
      0.275000          0.247615E-03
      0.280000          0.244843E-03
      0.285000          0.242630E-03
      0.290000          0.240795E-03
      0.295000          0.239155E-03
      0.300000          0.237527E-03
      0.305000          0.235749E-03
      0.310000          0.233679E-03
      0.315000          0.231205E-03
      0.320000          0.228248E-03
      0.325000          0.224760E-03
      0.330000          0.220728E-03
      0.335000          0.216168E-03
      0.340000          0.211123E-03
      0.345000          0.205657E-03
      0.350000          0.199852E-03
      0.355000          0.193800E-03
      0.360000          0.187596E-03
      0.365000          0.181339E-03
      0.370000          0.175122E-03
      0.375000          0.169027E-03
      0.380000          0.163127E-03
      0.385000          0.157480E-03
      0.390000          0.152129E-03
      0.395000          0.147101E-03
      0.400000          0.142410E-03
      0.405000          0.138052E-03
      0.410000          0.134014E-03
      0.415000          0.130272E-03
      0.420000          0.126793E-03
      0.425000          0.123540E-03
      0.430000          0.120471E-03
      0.435000          0.117548E-03
      0.440000          0.114730E-03
      0.445000          0.111983E-03
      0.450000          0.109277E-03
      0.455000          0.106589E-03
      0.460000          0.103904E-03
      0.465000          0.101214E-03
      0.470000          0.985193E-04
      0.475000          0.958264E-04
      0.480000          0.931492E-04
      0.485000          0.905072E-04
      0.490000          0.879238E-04
      0.495000          0.854258E-04
      0.500000          0.830414E-04
