 I_abs(s)[cm^-1]/c[mg/ml]
       0.00000          0.136392E-01
      0.500000E-02      0.135682E-01
      0.100000E-01      0.133577E-01
      0.150000E-01      0.130147E-01
      0.200000E-01      0.125505E-01
      0.250000E-01      0.119804E-01
      0.300000E-01      0.113223E-01
      0.350000E-01      0.105966E-01
      0.400000E-01      0.982472E-02
      0.450000E-01      0.902818E-02
      0.500000E-01      0.822786E-02
      0.550000E-01      0.744301E-02
      0.600000E-01      0.669054E-02
      0.650000E-01      0.598443E-02
      0.700000E-01      0.533539E-02
      0.750000E-01      0.475067E-02
      0.800000E-01      0.423406E-02
      0.850000E-01      0.378612E-02
      0.900000E-01      0.340450E-02
      0.950000E-01      0.308445E-02
      0.100000          0.281934E-02
      0.105000          0.260132E-02
      0.110000          0.242186E-02
      0.115000          0.227237E-02
      0.120000          0.214467E-02
      0.125000          0.203143E-02
      0.130000          0.192645E-02
      0.135000          0.182484E-02
      0.140000          0.172315E-02
      0.145000          0.161929E-02
      0.150000          0.151243E-02
      0.155000          0.140284E-02
      0.160000          0.129160E-02
      0.165000          0.118043E-02
      0.170000          0.107133E-02
      0.175000          0.966435E-03
      0.180000          0.867726E-03
      0.185000          0.776907E-03
      0.190000          0.695269E-03
      0.195000          0.623626E-03
      0.200000          0.562290E-03
      0.205000          0.511096E-03
      0.210000          0.469462E-03
      0.215000          0.436465E-03
      0.220000          0.410939E-03
      0.225000          0.391579E-03
      0.230000          0.377034E-03
      0.235000          0.365996E-03
      0.240000          0.357269E-03
      0.245000          0.349820E-03
      0.250000          0.342813E-03
      0.255000          0.335617E-03
      0.260000          0.327807E-03
      0.265000          0.319145E-03
      0.270000          0.309549E-03
      0.275000          0.299067E-03
      0.280000          0.287835E-03
      0.285000          0.276051E-03
      0.290000          0.263935E-03
      0.295000          0.251713E-03
      0.300000          0.239595E-03
      0.305000          0.227758E-03
      0.310000          0.216347E-03
      0.315000          0.205467E-03
      0.320000          0.195189E-03
      0.325000          0.185552E-03
      0.330000          0.176570E-03
      0.335000          0.168237E-03
      0.340000          0.160537E-03
      0.345000          0.153446E-03
      0.350000          0.146932E-03
      0.355000          0.140967E-03
      0.360000          0.135519E-03
      0.365000          0.130558E-03
      0.370000          0.126052E-03
      0.375000          0.121970E-03
      0.380000          0.118278E-03
      0.385000          0.114941E-03
      0.390000          0.111923E-03
      0.395000          0.109186E-03
      0.400000          0.106691E-03
      0.405000          0.104402E-03
      0.410000          0.102284E-03
      0.415000          0.100303E-03
      0.420000          0.984321E-04
      0.425000          0.966484E-04
      0.430000          0.949341E-04
      0.435000          0.932766E-04
      0.440000          0.916683E-04
      0.445000          0.901055E-04
      0.450000          0.885873E-04
      0.455000          0.871148E-04
      0.460000          0.856900E-04
      0.465000          0.843145E-04
      0.470000          0.829888E-04
      0.475000          0.817123E-04
      0.480000          0.804826E-04
      0.485000          0.792960E-04
      0.490000          0.781479E-04
      0.495000          0.770334E-04
      0.500000          0.759484E-04
