 I_abs(s)[cm^-1]/c[mg/ml]
       0.00000          0.134250E-01
      0.500000E-02      0.133597E-01
      0.100000E-01      0.131659E-01
      0.150000E-01      0.128497E-01
      0.200000E-01      0.124208E-01
      0.250000E-01      0.118922E-01
      0.300000E-01      0.112796E-01
      0.350000E-01      0.106006E-01
      0.400000E-01      0.987369E-02
      0.450000E-01      0.911796E-02
      0.500000E-01      0.835183E-02
      0.550000E-01      0.759257E-02
      0.600000E-01      0.685560E-02
      0.650000E-01      0.615403E-02
      0.700000E-01      0.549835E-02
      0.750000E-01      0.489620E-02
      0.800000E-01      0.435238E-02
      0.850000E-01      0.386900E-02
      0.900000E-01      0.344571E-02
      0.950000E-01      0.308003E-02
      0.100000          0.276783E-02
      0.105000          0.250372E-02
      0.110000          0.228157E-02
      0.115000          0.209491E-02
      0.120000          0.193734E-02
      0.125000          0.180283E-02
      0.130000          0.168601E-02
      0.135000          0.158229E-02
      0.140000          0.148798E-02
      0.145000          0.140027E-02
      0.150000          0.131719E-02
      0.155000          0.123755E-02
      0.160000          0.116073E-02
      0.165000          0.108660E-02
      0.170000          0.101532E-02
      0.175000          0.947243E-03
      0.180000          0.882770E-03
      0.185000          0.822255E-03
      0.190000          0.765947E-03
      0.195000          0.713951E-03
      0.200000          0.666218E-03
      0.205000          0.622556E-03
      0.210000          0.582657E-03
      0.215000          0.546132E-03
      0.220000          0.512552E-03
      0.225000          0.481487E-03
      0.230000          0.452537E-03
      0.235000          0.425357E-03
      0.240000          0.399675E-03
      0.245000          0.375291E-03
      0.250000          0.352080E-03
      0.255000          0.329981E-03
      0.260000          0.308980E-03
      0.265000          0.289100E-03
      0.270000          0.270379E-03
      0.275000          0.252864E-03
      0.280000          0.236593E-03
      0.285000          0.221593E-03
      0.290000          0.207877E-03
      0.295000          0.195439E-03
      0.300000          0.184261E-03
      0.305000          0.174312E-03
      0.310000          0.165554E-03
      0.315000          0.157943E-03
      0.320000          0.151430E-03
      0.325000          0.145963E-03
      0.330000          0.141484E-03
      0.335000          0.137924E-03
      0.340000          0.135205E-03
      0.345000          0.133236E-03
      0.350000          0.131908E-03
      0.355000          0.131098E-03
      0.360000          0.130669E-03
      0.365000          0.130475E-03
      0.370000          0.130364E-03
      0.375000          0.130189E-03
      0.380000          0.129813E-03
      0.385000          0.129118E-03
      0.390000          0.128013E-03
      0.395000          0.126439E-03
      0.400000          0.124373E-03
      0.405000          0.121827E-03
      0.410000          0.118851E-03
      0.415000          0.115521E-03
      0.420000          0.111942E-03
      0.425000          0.108231E-03
      0.430000          0.104511E-03
      0.435000          0.100903E-03
      0.440000          0.975134E-04
      0.445000          0.944303E-04
      0.450000          0.917149E-04
      0.455000          0.894004E-04
      0.460000          0.874903E-04
      0.465000          0.859614E-04
      0.470000          0.847672E-04
      0.475000          0.838441E-04
      0.480000          0.831181E-04
      0.485000          0.825126E-04
      0.490000          0.819549E-04
      0.495000          0.813826E-04
      0.500000          0.807483E-04
