 I_abs(s)[cm^-1]/c[mg/ml]
       0.00000          0.139326E-01
      0.500000E-02      0.138841E-01
      0.100000E-01      0.137398E-01
      0.150000E-01      0.135023E-01
      0.200000E-01      0.131766E-01
      0.250000E-01      0.127689E-01
      0.300000E-01      0.122871E-01
      0.350000E-01      0.117405E-01
      0.400000E-01      0.111390E-01
      0.450000E-01      0.104936E-01
      0.500000E-01      0.981556E-02
      0.550000E-01      0.911616E-02
      0.600000E-01      0.840660E-02
      0.650000E-01      0.769759E-02
      0.700000E-01      0.699910E-02
      0.750000E-01      0.632021E-02
      0.800000E-01      0.566887E-02
      0.850000E-01      0.505181E-02
      0.900000E-01      0.447444E-02
      0.950000E-01      0.394084E-02
      0.100000          0.345372E-02
      0.105000          0.301451E-02
      0.110000          0.262344E-02
      0.115000          0.227964E-02
      0.120000          0.198129E-02
      0.125000          0.172578E-02
      0.130000          0.150986E-02
      0.135000          0.132985E-02
      0.140000          0.118176E-02
      0.145000          0.106148E-02
      0.150000          0.964890E-03
      0.155000          0.888027E-03
      0.160000          0.827156E-03
      0.165000          0.778859E-03
      0.170000          0.740099E-03
      0.175000          0.708250E-03
      0.180000          0.681116E-03
      0.185000          0.656926E-03
      0.190000          0.634316E-03
      0.195000          0.612294E-03
      0.200000          0.590204E-03
      0.205000          0.567670E-03
      0.210000          0.544551E-03
      0.215000          0.520888E-03
      0.220000          0.496849E-03
      0.225000          0.472689E-03
      0.230000          0.448705E-03
      0.235000          0.425202E-03
      0.240000          0.402469E-03
      0.245000          0.380752E-03
      0.250000          0.360248E-03
      0.255000          0.341089E-03
      0.260000          0.323349E-03
      0.265000          0.307040E-03
      0.270000          0.292122E-03
      0.275000          0.278510E-03
      0.280000          0.266083E-03
      0.285000          0.254699E-03
      0.290000          0.244203E-03
      0.295000          0.234437E-03
      0.300000          0.225248E-03
      0.305000          0.216499E-03
      0.310000          0.208070E-03
      0.315000          0.199864E-03
      0.320000          0.191809E-03
      0.325000          0.183857E-03
      0.330000          0.175984E-03
      0.335000          0.168189E-03
      0.340000          0.160488E-03
      0.345000          0.152913E-03
      0.350000          0.145507E-03
      0.355000          0.138321E-03
      0.360000          0.131409E-03
      0.365000          0.124826E-03
      0.370000          0.118621E-03
      0.375000          0.112841E-03
      0.380000          0.107522E-03
      0.385000          0.102694E-03
      0.390000          0.983740E-04
      0.395000          0.945704E-04
      0.400000          0.912804E-04
      0.405000          0.884915E-04
      0.410000          0.861825E-04
      0.415000          0.843242E-04
      0.420000          0.828815E-04
      0.425000          0.818140E-04
      0.430000          0.810784E-04
      0.435000          0.806296E-04
      0.440000          0.804223E-04
      0.445000          0.804122E-04
      0.450000          0.805576E-04
      0.455000          0.808196E-04
      0.460000          0.811634E-04
      0.465000          0.815587E-04
      0.470000          0.819796E-04
      0.475000          0.824049E-04
      0.480000          0.828179E-04
      0.485000          0.832057E-04
      0.490000          0.835587E-04
      0.495000          0.838703E-04
      0.500000          0.841359E-04
