 I_abs(s)[cm^-1]/c[mg/ml]
       0.00000          0.144496E-01
      0.500000E-02      0.144022E-01
      0.100000E-01      0.142612E-01
      0.150000E-01      0.140295E-01
      0.200000E-01      0.137121E-01
      0.250000E-01      0.133157E-01
      0.300000E-01      0.128485E-01
      0.350000E-01      0.123197E-01
      0.400000E-01      0.117396E-01
      0.450000E-01      0.111190E-01
      0.500000E-01      0.104687E-01
      0.550000E-01      0.979965E-02
      0.600000E-01      0.912208E-02
      0.650000E-01      0.844567E-02
      0.700000E-01      0.777911E-02
      0.750000E-01      0.713004E-02
      0.800000E-01      0.650489E-02
      0.850000E-01      0.590883E-02
      0.900000E-01      0.534582E-02
      0.950000E-01      0.481859E-02
      0.100000          0.432876E-02
      0.105000          0.387698E-02
      0.110000          0.346301E-02
      0.115000          0.308593E-02
      0.120000          0.274423E-02
      0.125000          0.243603E-02
      0.130000          0.215913E-02
      0.135000          0.191122E-02
      0.140000          0.168989E-02
      0.145000          0.149280E-02
      0.150000          0.131767E-02
      0.155000          0.116237E-02
      0.160000          0.102491E-02
      0.165000          0.903488E-03
      0.170000          0.796463E-03
      0.175000          0.702355E-03
      0.180000          0.619838E-03
      0.185000          0.547719E-03
      0.190000          0.484925E-03
      0.195000          0.430486E-03
      0.200000          0.383523E-03
      0.205000          0.343233E-03
      0.210000          0.308883E-03
      0.215000          0.279802E-03
      0.220000          0.255371E-03
      0.225000          0.235025E-03
      0.230000          0.218245E-03
      0.235000          0.204555E-03
      0.240000          0.193522E-03
      0.245000          0.184752E-03
      0.250000          0.177887E-03
      0.255000          0.172606E-03
      0.260000          0.168617E-03
      0.265000          0.165661E-03
      0.270000          0.163507E-03
      0.275000          0.161954E-03
      0.280000          0.160824E-03
      0.285000          0.159968E-03
      0.290000          0.159259E-03
      0.295000          0.158594E-03
      0.300000          0.157893E-03
      0.305000          0.157096E-03
      0.310000          0.156160E-03
      0.315000          0.155061E-03
      0.320000          0.153786E-03
      0.325000          0.152335E-03
      0.330000          0.150713E-03
      0.335000          0.148934E-03
      0.340000          0.147010E-03
      0.345000          0.144957E-03
      0.350000          0.142789E-03
      0.355000          0.140516E-03
      0.360000          0.138148E-03
      0.365000          0.135691E-03
      0.370000          0.133149E-03
      0.375000          0.130527E-03
      0.380000          0.127829E-03
      0.385000          0.125062E-03
      0.390000          0.122235E-03
      0.395000          0.119359E-03
      0.400000          0.116452E-03
      0.405000          0.113534E-03
      0.410000          0.110629E-03
      0.415000          0.107761E-03
      0.420000          0.104956E-03
      0.425000          0.102242E-03
      0.430000          0.996399E-04
      0.435000          0.971708E-04
      0.440000          0.948489E-04
      0.445000          0.926830E-04
      0.450000          0.906756E-04
      0.455000          0.888228E-04
      0.460000          0.871150E-04
      0.465000          0.855373E-04
      0.470000          0.840715E-04
      0.475000          0.826967E-04
      0.480000          0.813917E-04
      0.485000          0.801358E-04
      0.490000          0.789109E-04
      0.495000          0.777021E-04
      0.500000          0.764990E-04
