 I_abs(s)[cm^-1]/c[mg/ml]
       0.00000          0.134097E-01
      0.500000E-02      0.133189E-01
      0.100000E-01      0.130509E-01
      0.150000E-01      0.126189E-01
      0.200000E-01      0.120438E-01
      0.250000E-01      0.113527E-01
      0.300000E-01      0.105767E-01
      0.350000E-01      0.974906E-02
      0.400000E-01      0.890268E-02
      0.450000E-01      0.806815E-02
      0.500000E-01      0.727187E-02
      0.550000E-01      0.653476E-02
      0.600000E-01      0.587145E-02
      0.650000E-01      0.529001E-02
      0.700000E-01      0.479228E-02
      0.750000E-01      0.437460E-02
      0.800000E-01      0.402895E-02
      0.850000E-01      0.374428E-02
      0.900000E-01      0.350788E-02
      0.950000E-01      0.330678E-02
      0.100000          0.312891E-02
      0.105000          0.296396E-02
      0.110000          0.280404E-02
      0.115000          0.264386E-02
      0.120000          0.248073E-02
      0.125000          0.231426E-02
      0.130000          0.214584E-02
      0.135000          0.197809E-02
      0.140000          0.181420E-02
      0.145000          0.165740E-02
      0.150000          0.151048E-02
      0.155000          0.137547E-02
      0.160000          0.125350E-02
      0.165000          0.114471E-02
      0.170000          0.104842E-02
      0.175000          0.963313E-03
      0.180000          0.887644E-03
      0.185000          0.819542E-03
      0.190000          0.757229E-03
      0.195000          0.699206E-03
      0.200000          0.644375E-03
      0.205000          0.592089E-03
      0.210000          0.542136E-03
      0.215000          0.494662E-03
      0.220000          0.450063E-03
      0.225000          0.408859E-03
      0.230000          0.371568E-03
      0.235000          0.338600E-03
      0.240000          0.310176E-03
      0.245000          0.286291E-03
      0.250000          0.266702E-03
      0.255000          0.250960E-03
      0.260000          0.238461E-03
      0.265000          0.228508E-03
      0.270000          0.220390E-03
      0.275000          0.213441E-03
      0.280000          0.207101E-03
      0.285000          0.200947E-03
      0.290000          0.194716E-03
      0.295000          0.188295E-03
      0.300000          0.181709E-03
      0.305000          0.175080E-03
      0.310000          0.168595E-03
      0.315000          0.162462E-03
      0.320000          0.156871E-03
      0.325000          0.151964E-03
      0.330000          0.147817E-03
      0.335000          0.144428E-03
      0.340000          0.141724E-03
      0.345000          0.139566E-03
      0.350000          0.137775E-03
      0.355000          0.136151E-03
      0.360000          0.134499E-03
      0.365000          0.132648E-03
      0.370000          0.130473E-03
      0.375000          0.127902E-03
      0.380000          0.124922E-03
      0.385000          0.121577E-03
      0.390000          0.117956E-03
      0.395000          0.114179E-03
      0.400000          0.110386E-03
      0.405000          0.106712E-03
      0.410000          0.103278E-03
      0.415000          0.100172E-03
      0.420000          0.974478E-04
      0.425000          0.951153E-04
      0.430000          0.931457E-04
      0.435000          0.914764E-04
      0.440000          0.900208E-04
      0.445000          0.886801E-04
      0.450000          0.873554E-04
      0.455000          0.859593E-04
      0.460000          0.844256E-04
      0.465000          0.827153E-04
      0.470000          0.808202E-04
      0.475000          0.787619E-04
      0.480000          0.765881E-04
      0.485000          0.743659E-04
      0.490000          0.721742E-04
      0.495000          0.700940E-04
      0.500000          0.682006E-04
