 I_abs(s)[cm^-1]/c[mg/ml]
       0.00000          0.146240E-01
      0.500000E-02      0.145721E-01
      0.100000E-01      0.144177E-01
      0.150000E-01      0.141642E-01
      0.200000E-01      0.138175E-01
      0.250000E-01      0.133852E-01
      0.300000E-01      0.128768E-01
      0.350000E-01      0.123031E-01
      0.400000E-01      0.116759E-01
      0.450000E-01      0.110075E-01
      0.500000E-01      0.103103E-01
      0.550000E-01      0.959670E-02
      0.600000E-01      0.887821E-02
      0.650000E-01      0.816562E-02
      0.700000E-01      0.746851E-02
      0.750000E-01      0.679513E-02
      0.800000E-01      0.615228E-02
      0.850000E-01      0.554527E-02
      0.900000E-01      0.497790E-02
      0.950000E-01      0.445259E-02
      0.100000          0.397045E-02
      0.105000          0.353144E-02
      0.110000          0.313457E-02
      0.115000          0.277808E-02
      0.120000          0.245962E-02
      0.125000          0.217642E-02
      0.130000          0.192552E-02
      0.135000          0.170382E-02
      0.140000          0.150830E-02
      0.145000          0.133603E-02
      0.150000          0.118430E-02
      0.155000          0.105062E-02
      0.160000          0.932786E-03
      0.165000          0.828832E-03
      0.170000          0.737067E-03
      0.175000          0.656037E-03
      0.180000          0.584497E-03
      0.185000          0.521392E-03
      0.190000          0.465820E-03
      0.195000          0.417009E-03
      0.200000          0.374293E-03
      0.205000          0.337088E-03
      0.210000          0.304877E-03
      0.215000          0.277191E-03
      0.220000          0.253604E-03
      0.225000          0.233720E-03
      0.230000          0.217166E-03
      0.235000          0.203589E-03
      0.240000          0.192651E-03
      0.245000          0.184028E-03
      0.250000          0.177406E-03
      0.255000          0.172482E-03
      0.260000          0.168968E-03
      0.265000          0.166585E-03
      0.270000          0.165073E-03
      0.275000          0.164191E-03
      0.280000          0.163718E-03
      0.285000          0.163462E-03
      0.290000          0.163258E-03
      0.295000          0.162975E-03
      0.300000          0.162513E-03
      0.305000          0.161807E-03
      0.310000          0.160824E-03
      0.315000          0.159561E-03
      0.320000          0.158040E-03
      0.325000          0.156303E-03
      0.330000          0.154405E-03
      0.335000          0.152408E-03
      0.340000          0.150377E-03
      0.345000          0.148368E-03
      0.350000          0.146428E-03
      0.355000          0.144587E-03
      0.360000          0.142860E-03
      0.365000          0.141242E-03
      0.370000          0.139713E-03
      0.375000          0.138236E-03
      0.380000          0.136765E-03
      0.385000          0.135248E-03
      0.390000          0.133630E-03
      0.395000          0.131859E-03
      0.400000          0.129895E-03
      0.405000          0.127706E-03
      0.410000          0.125278E-03
      0.415000          0.122612E-03
      0.420000          0.119726E-03
      0.425000          0.116654E-03
      0.430000          0.113444E-03
      0.435000          0.110153E-03
      0.440000          0.106845E-03
      0.445000          0.103589E-03
      0.450000          0.100447E-03
      0.455000          0.974805E-04
      0.460000          0.947388E-04
      0.465000          0.922607E-04
      0.470000          0.900717E-04
      0.475000          0.881834E-04
      0.480000          0.865936E-04
      0.485000          0.852877E-04
      0.490000          0.842407E-04
      0.495000          0.834192E-04
      0.500000          0.827844E-04
