 I_abs(s)[cm^-1]/c[mg/ml]
       0.00000          0.147037E-01
      0.500000E-02      0.146548E-01
      0.100000E-01      0.145094E-01
      0.150000E-01      0.142703E-01
      0.200000E-01      0.139425E-01
      0.250000E-01      0.135326E-01
      0.300000E-01      0.130486E-01
      0.350000E-01      0.125000E-01
      0.400000E-01      0.118970E-01
      0.450000E-01      0.112503E-01
      0.500000E-01      0.105711E-01
      0.550000E-01      0.987031E-02
      0.600000E-01      0.915871E-02
      0.650000E-01      0.844631E-02
      0.700000E-01      0.774233E-02
      0.750000E-01      0.705497E-02
      0.800000E-01      0.639131E-02
      0.850000E-01      0.575723E-02
      0.900000E-01      0.515739E-02
      0.950000E-01      0.459525E-02
      0.100000          0.407315E-02
      0.105000          0.359236E-02
      0.110000          0.315324E-02
      0.115000          0.275532E-02
      0.120000          0.239750E-02
      0.125000          0.207811E-02
      0.130000          0.179511E-02
      0.135000          0.154613E-02
      0.140000          0.132867E-02
      0.145000          0.114010E-02
      0.150000          0.977784E-03
      0.155000          0.839135E-03
      0.160000          0.721643E-03
      0.165000          0.622919E-03
      0.170000          0.540712E-03
      0.175000          0.472924E-03
      0.180000          0.417620E-03
      0.185000          0.373022E-03
      0.190000          0.337517E-03
      0.195000          0.309649E-03
      0.200000          0.288117E-03
      0.205000          0.271766E-03
      0.210000          0.259586E-03
      0.215000          0.250698E-03
      0.220000          0.244351E-03
      0.225000          0.239911E-03
      0.230000          0.236850E-03
      0.235000          0.234739E-03
      0.240000          0.233231E-03
      0.245000          0.232055E-03
      0.250000          0.231003E-03
      0.255000          0.229919E-03
      0.260000          0.228689E-03
      0.265000          0.227231E-03
      0.270000          0.225490E-03
      0.275000          0.223430E-03
      0.280000          0.221031E-03
      0.285000          0.218282E-03
      0.290000          0.215184E-03
      0.295000          0.211742E-03
      0.300000          0.207971E-03
      0.305000          0.203889E-03
      0.310000          0.199524E-03
      0.315000          0.194905E-03
      0.320000          0.190069E-03
      0.325000          0.185055E-03
      0.330000          0.179907E-03
      0.335000          0.174667E-03
      0.340000          0.169381E-03
      0.345000          0.164091E-03
      0.350000          0.158835E-03
      0.355000          0.153652E-03
      0.360000          0.148572E-03
      0.365000          0.143623E-03
      0.370000          0.138828E-03
      0.375000          0.134205E-03
      0.380000          0.129771E-03
      0.385000          0.125538E-03
      0.390000          0.121518E-03
      0.395000          0.117722E-03
      0.400000          0.114159E-03
      0.405000          0.110840E-03
      0.410000          0.107775E-03
      0.415000          0.104974E-03
      0.420000          0.102445E-03
      0.425000          0.100196E-03
      0.430000          0.982302E-04
      0.435000          0.965479E-04
      0.440000          0.951448E-04
      0.445000          0.940112E-04
      0.450000          0.931312E-04
      0.455000          0.924834E-04
      0.460000          0.920403E-04
      0.465000          0.917696E-04
      0.470000          0.916345E-04
      0.475000          0.915956E-04
      0.480000          0.916115E-04
      0.485000          0.916411E-04
      0.490000          0.916444E-04
      0.495000          0.915846E-04
      0.500000          0.914290E-04
