 I_abs(s)[cm^-1]/c[mg/ml]
       0.00000          0.149680E-01
      0.500000E-02      0.149264E-01
      0.100000E-01      0.148023E-01
      0.150000E-01      0.145977E-01
      0.200000E-01      0.143158E-01
      0.250000E-01      0.139611E-01
      0.300000E-01      0.135390E-01
      0.350000E-01      0.130561E-01
      0.400000E-01      0.125195E-01
      0.450000E-01      0.119371E-01
      0.500000E-01      0.113172E-01
      0.550000E-01      0.106682E-01
      0.600000E-01      0.999867E-02
      0.650000E-01      0.931705E-02
      0.700000E-01      0.863144E-02
      0.750000E-01      0.794953E-02
      0.800000E-01      0.727842E-02
      0.850000E-01      0.662451E-02
      0.900000E-01      0.599345E-02
      0.950000E-01      0.539005E-02
      0.100000          0.481825E-02
      0.105000          0.428114E-02
      0.110000          0.378094E-02
      0.115000          0.331906E-02
      0.120000          0.289613E-02
      0.125000          0.251208E-02
      0.130000          0.216623E-02
      0.135000          0.185736E-02
      0.140000          0.158381E-02
      0.145000          0.134356E-02
      0.150000          0.113433E-02
      0.155000          0.953670E-03
      0.160000          0.799023E-03
      0.165000          0.667810E-03
      0.170000          0.557485E-03
      0.175000          0.465585E-03
      0.180000          0.389773E-03
      0.185000          0.327869E-03
      0.190000          0.277868E-03
      0.195000          0.237957E-03
      0.200000          0.206516E-03
      0.205000          0.182117E-03
      0.210000          0.163521E-03
      0.215000          0.149660E-03
      0.220000          0.139629E-03
      0.225000          0.132665E-03
      0.230000          0.128136E-03
      0.235000          0.125519E-03
      0.240000          0.124386E-03
      0.245000          0.124389E-03
      0.250000          0.125245E-03
      0.255000          0.126724E-03
      0.260000          0.128642E-03
      0.265000          0.130847E-03
      0.270000          0.133214E-03
      0.275000          0.135641E-03
      0.280000          0.138042E-03
      0.285000          0.140346E-03
      0.290000          0.142493E-03
      0.295000          0.144435E-03
      0.300000          0.146129E-03
      0.305000          0.147545E-03
      0.310000          0.148655E-03
      0.315000          0.149444E-03
      0.320000          0.149898E-03
      0.325000          0.150014E-03
      0.330000          0.149793E-03
      0.335000          0.149240E-03
      0.340000          0.148369E-03
      0.345000          0.147195E-03
      0.350000          0.145738E-03
      0.355000          0.144022E-03
      0.360000          0.142073E-03
      0.365000          0.139919E-03
      0.370000          0.137589E-03
      0.375000          0.135114E-03
      0.380000          0.132526E-03
      0.385000          0.129853E-03
      0.390000          0.127125E-03
      0.395000          0.124371E-03
      0.400000          0.121617E-03
      0.405000          0.118887E-03
      0.410000          0.116205E-03
      0.415000          0.113589E-03
      0.420000          0.111056E-03
      0.425000          0.108622E-03
      0.430000          0.106296E-03
      0.435000          0.104089E-03
      0.440000          0.102006E-03
      0.445000          0.100050E-03
      0.450000          0.982227E-04
      0.455000          0.965235E-04
      0.460000          0.949492E-04
      0.465000          0.934955E-04
      0.470000          0.921568E-04
      0.475000          0.909261E-04
      0.480000          0.897961E-04
      0.485000          0.887585E-04
      0.490000          0.878050E-04
      0.495000          0.869271E-04
      0.500000          0.861163E-04
