 I_abs(s)[cm^-1]/c[mg/ml]
       0.00000          0.148476E-01
      0.500000E-02      0.147942E-01
      0.100000E-01      0.146352E-01
      0.150000E-01      0.143739E-01
      0.200000E-01      0.140154E-01
      0.250000E-01      0.135669E-01
      0.300000E-01      0.130372E-01
      0.350000E-01      0.124364E-01
      0.400000E-01      0.117757E-01
      0.450000E-01      0.110670E-01
      0.500000E-01      0.103228E-01
      0.550000E-01      0.955538E-02
      0.600000E-01      0.877694E-02
      0.650000E-01      0.799904E-02
      0.700000E-01      0.723241E-02
      0.750000E-01      0.648675E-02
      0.800000E-01      0.577053E-02
      0.850000E-01      0.509087E-02
      0.900000E-01      0.445347E-02
      0.950000E-01      0.386263E-02
      0.100000          0.332120E-02
      0.105000          0.283075E-02
      0.110000          0.239161E-02
      0.115000          0.200302E-02
      0.120000          0.166328E-02
      0.125000          0.136997E-02
      0.130000          0.112001E-02
      0.135000          0.909955E-03
      0.140000          0.736049E-03
      0.145000          0.594426E-03
      0.150000          0.481214E-03
      0.155000          0.392648E-03
      0.160000          0.325147E-03
      0.165000          0.275380E-03
      0.170000          0.240310E-03
      0.175000          0.217211E-03
      0.180000          0.203683E-03
      0.185000          0.197643E-03
      0.190000          0.197309E-03
      0.195000          0.201182E-03
      0.200000          0.208011E-03
      0.205000          0.216773E-03
      0.210000          0.226636E-03
      0.215000          0.236936E-03
      0.220000          0.247148E-03
      0.225000          0.256866E-03
      0.230000          0.265781E-03
      0.235000          0.273670E-03
      0.240000          0.280375E-03
      0.245000          0.285799E-03
      0.250000          0.289893E-03
      0.255000          0.292653E-03
      0.260000          0.294108E-03
      0.265000          0.294317E-03
      0.270000          0.293363E-03
      0.275000          0.291347E-03
      0.280000          0.288384E-03
      0.285000          0.284594E-03
      0.290000          0.280101E-03
      0.295000          0.275025E-03
      0.300000          0.269480E-03
      0.305000          0.263570E-03
      0.310000          0.257386E-03
      0.315000          0.251004E-03
      0.320000          0.244488E-03
      0.325000          0.237886E-03
      0.330000          0.231233E-03
      0.335000          0.224555E-03
      0.340000          0.217868E-03
      0.345000          0.211183E-03
      0.350000          0.204506E-03
      0.355000          0.197845E-03
      0.360000          0.191207E-03
      0.365000          0.184604E-03
      0.370000          0.178051E-03
      0.375000          0.171568E-03
      0.380000          0.165179E-03
      0.385000          0.158914E-03
      0.390000          0.152803E-03
      0.395000          0.146881E-03
      0.400000          0.141181E-03
      0.405000          0.135735E-03
      0.410000          0.130574E-03
      0.415000          0.125722E-03
      0.420000          0.121200E-03
      0.425000          0.117022E-03
      0.430000          0.113196E-03
      0.435000          0.109721E-03
      0.440000          0.106594E-03
      0.445000          0.103802E-03
      0.450000          0.101329E-03
      0.455000          0.991533E-04
      0.460000          0.972504E-04
      0.465000          0.955931E-04
      0.470000          0.941528E-04
      0.475000          0.929004E-04
      0.480000          0.918069E-04
      0.485000          0.908442E-04
      0.490000          0.899857E-04
      0.495000          0.892066E-04
      0.500000          0.884844E-04
