 I_abs(s)[cm^-1]/c[mg/ml]
       0.00000          0.149358E-01
      0.500000E-02      0.148805E-01
      0.100000E-01      0.147157E-01
      0.150000E-01      0.144450E-01
      0.200000E-01      0.140739E-01
      0.250000E-01      0.136102E-01
      0.300000E-01      0.130634E-01
      0.350000E-01      0.124443E-01
      0.400000E-01      0.117650E-01
      0.450000E-01      0.110383E-01
      0.500000E-01      0.102774E-01
      0.550000E-01      0.949549E-02
      0.600000E-01      0.870549E-02
      0.650000E-01      0.791956E-02
      0.700000E-01      0.714891E-02
      0.750000E-01      0.640355E-02
      0.800000E-01      0.569212E-02
      0.850000E-01      0.502170E-02
      0.900000E-01      0.439780E-02
      0.950000E-01      0.382435E-02
      0.100000          0.330370E-02
      0.105000          0.283676E-02
      0.110000          0.242311E-02
      0.115000          0.206119E-02
      0.120000          0.174843E-02
      0.125000          0.148153E-02
      0.130000          0.125660E-02
      0.135000          0.106939E-02
      0.140000          0.915491E-03
      0.145000          0.790445E-03
      0.150000          0.689948E-03
      0.155000          0.609936E-03
      0.160000          0.546684E-03
      0.165000          0.496866E-03
      0.170000          0.457590E-03
      0.175000          0.426407E-03
      0.180000          0.401304E-03
      0.185000          0.380674E-03
      0.190000          0.363280E-03
      0.195000          0.348207E-03
      0.200000          0.334805E-03
      0.205000          0.322640E-03
      0.210000          0.311444E-03
      0.215000          0.301063E-03
      0.220000          0.291419E-03
      0.225000          0.282481E-03
      0.230000          0.274232E-03
      0.235000          0.266656E-03
      0.240000          0.259726E-03
      0.245000          0.253397E-03
      0.250000          0.247609E-03
      0.255000          0.242287E-03
      0.260000          0.237348E-03
      0.265000          0.232705E-03
      0.270000          0.228280E-03
      0.275000          0.224000E-03
      0.280000          0.219809E-03
      0.285000          0.215668E-03
      0.290000          0.211555E-03
      0.295000          0.207466E-03
      0.300000          0.203409E-03
      0.305000          0.199407E-03
      0.310000          0.195487E-03
      0.315000          0.191680E-03
      0.320000          0.188014E-03
      0.325000          0.184513E-03
      0.330000          0.181193E-03
      0.335000          0.178059E-03
      0.340000          0.175105E-03
      0.345000          0.172316E-03
      0.350000          0.169664E-03
      0.355000          0.167116E-03
      0.360000          0.164633E-03
      0.365000          0.162174E-03
      0.370000          0.159699E-03
      0.375000          0.157169E-03
      0.380000          0.154554E-03
      0.385000          0.151830E-03
      0.390000          0.148984E-03
      0.395000          0.146011E-03
      0.400000          0.142916E-03
      0.405000          0.139717E-03
      0.410000          0.136435E-03
      0.415000          0.133101E-03
      0.420000          0.129751E-03
      0.425000          0.126422E-03
      0.430000          0.123152E-03
      0.435000          0.119978E-03
      0.440000          0.116935E-03
      0.445000          0.114050E-03
      0.450000          0.111348E-03
      0.455000          0.108845E-03
      0.460000          0.106551E-03
      0.465000          0.104469E-03
      0.470000          0.102598E-03
      0.475000          0.100928E-03
      0.480000          0.994480E-04
      0.485000          0.981418E-04
      0.490000          0.969918E-04
      0.495000          0.959792E-04
      0.500000          0.950855E-04
