 I_abs(s)[cm^-1]/c[mg/ml]
       0.00000          0.151051E-01
      0.500000E-02      0.150427E-01
      0.100000E-01      0.148569E-01
      0.150000E-01      0.145522E-01
      0.200000E-01      0.141358E-01
      0.250000E-01      0.136174E-01
      0.300000E-01      0.130087E-01
      0.350000E-01      0.123234E-01
      0.400000E-01      0.115762E-01
      0.450000E-01      0.107825E-01
      0.500000E-01      0.995791E-02
      0.550000E-01      0.911790E-02
      0.600000E-01      0.827704E-02
      0.650000E-01      0.744880E-02
      0.700000E-01      0.664518E-02
      0.750000E-01      0.587645E-02
      0.800000E-01      0.515106E-02
      0.850000E-01      0.447548E-02
      0.900000E-01      0.385428E-02
      0.950000E-01      0.329020E-02
      0.100000          0.278425E-02
      0.105000          0.233599E-02
      0.110000          0.194369E-02
      0.115000          0.160458E-02
      0.120000          0.131514E-02
      0.125000          0.107131E-02
      0.130000          0.868736E-03
      0.135000          0.702930E-03
      0.140000          0.569470E-03
      0.145000          0.464108E-03
      0.150000          0.382869E-03
      0.155000          0.322107E-03
      0.160000          0.278533E-03
      0.165000          0.249225E-03
      0.170000          0.231607E-03
      0.175000          0.223428E-03
      0.180000          0.222721E-03
      0.185000          0.227773E-03
      0.190000          0.237083E-03
      0.195000          0.249335E-03
      0.200000          0.263374E-03
      0.205000          0.278184E-03
      0.210000          0.292882E-03
      0.215000          0.306710E-03
      0.220000          0.319036E-03
      0.225000          0.329350E-03
      0.230000          0.337275E-03
      0.235000          0.342559E-03
      0.240000          0.345074E-03
      0.245000          0.344818E-03
      0.250000          0.341895E-03
      0.255000          0.336507E-03
      0.260000          0.328940E-03
      0.265000          0.319536E-03
      0.270000          0.308681E-03
      0.275000          0.296777E-03
      0.280000          0.284226E-03
      0.285000          0.271410E-03
      0.290000          0.258674E-03
      0.295000          0.246316E-03
      0.300000          0.234580E-03
      0.305000          0.223648E-03
      0.310000          0.213644E-03
      0.315000          0.204636E-03
      0.320000          0.196640E-03
      0.325000          0.189629E-03
      0.330000          0.183545E-03
      0.335000          0.178302E-03
      0.340000          0.173804E-03
      0.345000          0.169945E-03
      0.350000          0.166623E-03
      0.355000          0.163742E-03
      0.360000          0.161216E-03
      0.365000          0.158974E-03
      0.370000          0.156960E-03
      0.375000          0.155131E-03
      0.380000          0.153456E-03
      0.385000          0.151914E-03
      0.390000          0.150494E-03
      0.395000          0.149186E-03
      0.400000          0.147984E-03
      0.405000          0.146882E-03
      0.410000          0.145870E-03
      0.415000          0.144936E-03
      0.420000          0.144062E-03
      0.425000          0.143227E-03
      0.430000          0.142406E-03
      0.435000          0.141570E-03
      0.440000          0.140689E-03
      0.445000          0.139733E-03
      0.450000          0.138670E-03
      0.455000          0.137475E-03
      0.460000          0.136123E-03
      0.465000          0.134595E-03
      0.470000          0.132880E-03
      0.475000          0.130969E-03
      0.480000          0.128864E-03
      0.485000          0.126570E-03
      0.490000          0.124100E-03
      0.495000          0.121471E-03
      0.500000          0.118707E-03
