 I_abs(s)[cm^-1]/c[mg/ml]
       0.00000          0.142998E-01
      0.500000E-02      0.142315E-01
      0.100000E-01      0.140287E-01
      0.150000E-01      0.136972E-01
      0.200000E-01      0.132463E-01
      0.250000E-01      0.126886E-01
      0.300000E-01      0.120393E-01
      0.350000E-01      0.113156E-01
      0.400000E-01      0.105360E-01
      0.450000E-01      0.971963E-02
      0.500000E-01      0.888528E-02
      0.550000E-01      0.805103E-02
      0.600000E-01      0.723343E-02
      0.650000E-01      0.644707E-02
      0.700000E-01      0.570414E-02
      0.750000E-01      0.501424E-02
      0.800000E-01      0.438421E-02
      0.850000E-01      0.381817E-02
      0.900000E-01      0.331765E-02
      0.950000E-01      0.288184E-02
      0.100000          0.250794E-02
      0.105000          0.219152E-02
      0.110000          0.192693E-02
      0.115000          0.170779E-02
      0.120000          0.152732E-02
      0.125000          0.137877E-02
      0.130000          0.125571E-02
      0.135000          0.115229E-02
      0.140000          0.106345E-02
      0.145000          0.984974E-03
      0.150000          0.913582E-03
      0.155000          0.846891E-03
      0.160000          0.783343E-03
      0.165000          0.722100E-03
      0.170000          0.662908E-03
      0.175000          0.605948E-03
      0.180000          0.551688E-03
      0.185000          0.500746E-03
      0.190000          0.453764E-03
      0.195000          0.411313E-03
      0.200000          0.373820E-03
      0.205000          0.341524E-03
      0.210000          0.314456E-03
      0.215000          0.292441E-03
      0.220000          0.275123E-03
      0.225000          0.261999E-03
      0.230000          0.252463E-03
      0.235000          0.245851E-03
      0.240000          0.241488E-03
      0.245000          0.238729E-03
      0.250000          0.236991E-03
      0.255000          0.235777E-03
      0.260000          0.234692E-03
      0.265000          0.233447E-03
      0.270000          0.231853E-03
      0.275000          0.229819E-03
      0.280000          0.227326E-03
      0.285000          0.224421E-03
      0.290000          0.221188E-03
      0.295000          0.217736E-03
      0.300000          0.214182E-03
      0.305000          0.210633E-03
      0.310000          0.207183E-03
      0.315000          0.203900E-03
      0.320000          0.200827E-03
      0.325000          0.197980E-03
      0.330000          0.195354E-03
      0.335000          0.192921E-03
      0.340000          0.190642E-03
      0.345000          0.188469E-03
      0.350000          0.186349E-03
      0.355000          0.184233E-03
      0.360000          0.182078E-03
      0.365000          0.179848E-03
      0.370000          0.177519E-03
      0.375000          0.175077E-03
      0.380000          0.172516E-03
      0.385000          0.169840E-03
      0.390000          0.167061E-03
      0.395000          0.164195E-03
      0.400000          0.161258E-03
      0.405000          0.158270E-03
      0.410000          0.155248E-03
      0.415000          0.152206E-03
      0.420000          0.149155E-03
      0.425000          0.146103E-03
      0.430000          0.143054E-03
      0.435000          0.140008E-03
      0.440000          0.136964E-03
      0.445000          0.133918E-03
      0.450000          0.130869E-03
      0.455000          0.127815E-03
      0.460000          0.124756E-03
      0.465000          0.121698E-03
      0.470000          0.118649E-03
      0.475000          0.115622E-03
      0.480000          0.112633E-03
      0.485000          0.109705E-03
      0.490000          0.106861E-03
      0.495000          0.104129E-03
      0.500000          0.101534E-03
