 I_abs(s)[cm^-1]/c[mg/ml]
       0.00000          0.147276E-01
      0.500000E-02      0.146579E-01
      0.100000E-01      0.144512E-01
      0.150000E-01      0.141135E-01
      0.200000E-01      0.136553E-01
      0.250000E-01      0.130901E-01
      0.300000E-01      0.124340E-01
      0.350000E-01      0.117054E-01
      0.400000E-01      0.109233E-01
      0.450000E-01      0.101073E-01
      0.500000E-01      0.927612E-02
      0.550000E-01      0.844742E-02
      0.600000E-01      0.763679E-02
      0.650000E-01      0.685752E-02
      0.700000E-01      0.612025E-02
      0.750000E-01      0.543287E-02
      0.800000E-01      0.480059E-02
      0.850000E-01      0.422606E-02
      0.900000E-01      0.370972E-02
      0.950000E-01      0.325014E-02
      0.100000          0.284443E-02
      0.105000          0.248868E-02
      0.110000          0.217835E-02
      0.115000          0.190863E-02
      0.120000          0.167472E-02
      0.125000          0.147213E-02
      0.130000          0.129673E-02
      0.135000          0.114492E-02
      0.140000          0.101363E-02
      0.145000          0.900248E-03
      0.150000          0.802636E-03
      0.155000          0.718993E-03
      0.160000          0.647787E-03
      0.165000          0.587669E-03
      0.170000          0.537407E-03
      0.175000          0.495830E-03
      0.180000          0.461801E-03
      0.185000          0.434204E-03
      0.190000          0.411951E-03
      0.195000          0.393998E-03
      0.200000          0.379373E-03
      0.205000          0.367196E-03
      0.210000          0.356710E-03
      0.215000          0.347290E-03
      0.220000          0.338457E-03
      0.225000          0.329874E-03
      0.230000          0.321334E-03
      0.235000          0.312745E-03
      0.240000          0.304107E-03
      0.245000          0.295484E-03
      0.250000          0.286979E-03
      0.255000          0.278713E-03
      0.260000          0.270798E-03
      0.265000          0.263330E-03
      0.270000          0.256373E-03
      0.275000          0.249958E-03
      0.280000          0.244081E-03
      0.285000          0.238709E-03
      0.290000          0.233783E-03
      0.295000          0.229228E-03
      0.300000          0.224963E-03
      0.305000          0.220903E-03
      0.310000          0.216968E-03
      0.315000          0.213089E-03
      0.320000          0.209206E-03
      0.325000          0.205275E-03
      0.330000          0.201263E-03
      0.335000          0.197150E-03
      0.340000          0.192926E-03
      0.345000          0.188587E-03
      0.350000          0.184139E-03
      0.355000          0.179590E-03
      0.360000          0.174953E-03
      0.365000          0.170240E-03
      0.370000          0.165470E-03
      0.375000          0.160658E-03
      0.380000          0.155825E-03
      0.385000          0.150991E-03
      0.390000          0.146178E-03
      0.395000          0.141411E-03
      0.400000          0.136713E-03
      0.405000          0.132112E-03
      0.410000          0.127637E-03
      0.415000          0.123314E-03
      0.420000          0.119174E-03
      0.425000          0.115244E-03
      0.430000          0.111550E-03
      0.435000          0.108116E-03
      0.440000          0.104963E-03
      0.445000          0.102108E-03
      0.450000          0.995630E-04
      0.455000          0.973338E-04
      0.460000          0.954208E-04
      0.465000          0.938179E-04
      0.470000          0.925130E-04
      0.475000          0.914882E-04
      0.480000          0.907208E-04
      0.485000          0.901837E-04
      0.490000          0.898470E-04
      0.495000          0.896794E-04
      0.500000          0.896491E-04
