 I_abs(s)[cm^-1]/c[mg/ml]
       0.00000          0.142291E-01
      0.500000E-02      0.141641E-01
      0.100000E-01      0.139708E-01
      0.150000E-01      0.136537E-01
      0.200000E-01      0.132207E-01
      0.250000E-01      0.126819E-01
      0.300000E-01      0.120501E-01
      0.350000E-01      0.113399E-01
      0.400000E-01      0.105671E-01
      0.450000E-01      0.974848E-02
      0.500000E-01      0.890128E-02
      0.550000E-01      0.804238E-02
      0.600000E-01      0.718799E-02
      0.650000E-01      0.635315E-02
      0.700000E-01      0.555136E-02
      0.750000E-01      0.479422E-02
      0.800000E-01      0.409125E-02
      0.850000E-01      0.344972E-02
      0.900000E-01      0.287462E-02
      0.950000E-01      0.236866E-02
      0.100000          0.193245E-02
      0.105000          0.156462E-02
      0.110000          0.126212E-02
      0.115000          0.102043E-02
      0.120000          0.833951E-03
      0.125000          0.696270E-03
      0.130000          0.600497E-03
      0.135000          0.539559E-03
      0.140000          0.506481E-03
      0.145000          0.494618E-03
      0.150000          0.497850E-03
      0.155000          0.510732E-03
      0.160000          0.528597E-03
      0.165000          0.547608E-03
      0.170000          0.564771E-03
      0.175000          0.577911E-03
      0.180000          0.585614E-03
      0.185000          0.587145E-03
      0.190000          0.582347E-03
      0.195000          0.571536E-03
      0.200000          0.555383E-03
      0.205000          0.534806E-03
      0.210000          0.510866E-03
      0.215000          0.484679E-03
      0.220000          0.457334E-03
      0.225000          0.429836E-03
      0.230000          0.403057E-03
      0.235000          0.377713E-03
      0.240000          0.354342E-03
      0.245000          0.333311E-03
      0.250000          0.314817E-03
      0.255000          0.298909E-03
      0.260000          0.285509E-03
      0.265000          0.274437E-03
      0.270000          0.265441E-03
      0.275000          0.258219E-03
      0.280000          0.252445E-03
      0.285000          0.247792E-03
      0.290000          0.243945E-03
      0.295000          0.240618E-03
      0.300000          0.237560E-03
      0.305000          0.234563E-03
      0.310000          0.231460E-03
      0.315000          0.228131E-03
      0.320000          0.224492E-03
      0.325000          0.220498E-03
      0.330000          0.216135E-03
      0.335000          0.211411E-03
      0.340000          0.206359E-03
      0.345000          0.201022E-03
      0.350000          0.195458E-03
      0.355000          0.189727E-03
      0.360000          0.183894E-03
      0.365000          0.178025E-03
      0.370000          0.172183E-03
      0.375000          0.166427E-03
      0.380000          0.160814E-03
      0.385000          0.155391E-03
      0.390000          0.150204E-03
      0.395000          0.145287E-03
      0.400000          0.140670E-03
      0.405000          0.136375E-03
      0.410000          0.132415E-03
      0.415000          0.128795E-03
      0.420000          0.125516E-03
      0.425000          0.122569E-03
      0.430000          0.119940E-03
      0.435000          0.117608E-03
      0.440000          0.115550E-03
      0.445000          0.113738E-03
      0.450000          0.112144E-03
      0.455000          0.110738E-03
      0.460000          0.109489E-03
      0.465000          0.108372E-03
      0.470000          0.107362E-03
      0.475000          0.106437E-03
      0.480000          0.105581E-03
      0.485000          0.104781E-03
      0.490000          0.104029E-03
      0.495000          0.103320E-03
      0.500000          0.102654E-03
