 I_abs(s)[cm^-1]/c[mg/ml]
       0.00000          0.140337E-01
      0.500000E-02      0.139646E-01
      0.100000E-01      0.137596E-01
      0.150000E-01      0.134246E-01
      0.200000E-01      0.129696E-01
      0.250000E-01      0.124078E-01
      0.300000E-01      0.117551E-01
      0.350000E-01      0.110293E-01
      0.400000E-01      0.102498E-01
      0.450000E-01      0.943613E-02
      0.500000E-01      0.860755E-02
      0.550000E-01      0.778235E-02
      0.600000E-01      0.697706E-02
      0.650000E-01      0.620602E-02
      0.700000E-01      0.548102E-02
      0.750000E-01      0.481102E-02
      0.800000E-01      0.420213E-02
      0.850000E-01      0.365767E-02
      0.900000E-01      0.317836E-02
      0.950000E-01      0.276264E-02
      0.100000          0.240708E-02
      0.105000          0.210675E-02
      0.110000          0.185573E-02
      0.115000          0.164756E-02
      0.120000          0.147557E-02
      0.125000          0.133334E-02
      0.130000          0.121488E-02
      0.135000          0.111493E-02
      0.140000          0.102903E-02
      0.145000          0.953599E-03
      0.150000          0.885913E-03
      0.155000          0.824049E-03
      0.160000          0.766768E-03
      0.165000          0.713387E-03
      0.170000          0.663631E-03
      0.175000          0.617493E-03
      0.180000          0.575104E-03
      0.185000          0.536624E-03
      0.190000          0.502163E-03
      0.195000          0.471726E-03
      0.200000          0.445187E-03
      0.205000          0.422289E-03
      0.210000          0.402661E-03
      0.215000          0.385851E-03
      0.220000          0.371363E-03
      0.225000          0.358699E-03
      0.230000          0.347397E-03
      0.235000          0.337057E-03
      0.240000          0.327365E-03
      0.245000          0.318099E-03
      0.250000          0.309129E-03
      0.255000          0.300405E-03
      0.260000          0.291939E-03
      0.265000          0.283786E-03
      0.270000          0.276018E-03
      0.275000          0.268706E-03
      0.280000          0.261901E-03
      0.285000          0.255620E-03
      0.290000          0.249844E-03
      0.295000          0.244517E-03
      0.300000          0.239549E-03
      0.305000          0.234828E-03
      0.310000          0.230234E-03
      0.315000          0.225649E-03
      0.320000          0.220972E-03
      0.325000          0.216130E-03
      0.330000          0.211083E-03
      0.335000          0.205830E-03
      0.340000          0.200408E-03
      0.345000          0.194884E-03
      0.350000          0.189352E-03
      0.355000          0.183919E-03
      0.360000          0.178694E-03
      0.365000          0.173781E-03
      0.370000          0.169263E-03
      0.375000          0.165198E-03
      0.380000          0.161611E-03
      0.385000          0.158497E-03
      0.390000          0.155814E-03
      0.395000          0.153496E-03
      0.400000          0.151452E-03
      0.405000          0.149578E-03
      0.410000          0.147764E-03
      0.415000          0.145906E-03
      0.420000          0.143910E-03
      0.425000          0.141701E-03
      0.430000          0.139228E-03
      0.435000          0.136465E-03
      0.440000          0.133412E-03
      0.445000          0.130096E-03
      0.450000          0.126562E-03
      0.455000          0.122871E-03
      0.460000          0.119095E-03
      0.465000          0.115309E-03
      0.470000          0.111584E-03
      0.475000          0.107984E-03
      0.480000          0.104562E-03
      0.485000          0.101356E-03
      0.490000          0.983865E-04
      0.495000          0.956593E-04
      0.500000          0.931657E-04
