 I_abs(s)[cm^-1]/c[mg/ml]
       0.00000          0.147356E-01
      0.500000E-02      0.146756E-01
      0.100000E-01      0.144972E-01
      0.150000E-01      0.142047E-01
      0.200000E-01      0.138055E-01
      0.250000E-01      0.133093E-01
      0.300000E-01      0.127278E-01
      0.350000E-01      0.120745E-01
      0.400000E-01      0.113639E-01
      0.450000E-01      0.106112E-01
      0.500000E-01      0.983161E-02
      0.550000E-01      0.903993E-02
      0.600000E-01      0.825004E-02
      0.650000E-01      0.747456E-02
      0.700000E-01      0.672454E-02
      0.750000E-01      0.600925E-02
      0.800000E-01      0.533606E-02
      0.850000E-01      0.471042E-02
      0.900000E-01      0.413590E-02
      0.950000E-01      0.361432E-02
      0.100000          0.314594E-02
      0.105000          0.272969E-02
      0.110000          0.236340E-02
      0.115000          0.204405E-02
      0.120000          0.176803E-02
      0.125000          0.153139E-02
      0.130000          0.132999E-02
      0.135000          0.115972E-02
      0.140000          0.101663E-02
      0.145000          0.896980E-03
      0.150000          0.797362E-03
      0.155000          0.714697E-03
      0.160000          0.646251E-03
      0.165000          0.589630E-03
      0.170000          0.542751E-03
      0.175000          0.503818E-03
      0.180000          0.471282E-03
      0.185000          0.443820E-03
      0.190000          0.420301E-03
      0.195000          0.399766E-03
      0.200000          0.381413E-03
      0.205000          0.364585E-03
      0.210000          0.348760E-03
      0.215000          0.333542E-03
      0.220000          0.318659E-03
      0.225000          0.303948E-03
      0.230000          0.289350E-03
      0.235000          0.274892E-03
      0.240000          0.260674E-03
      0.245000          0.246846E-03
      0.250000          0.233592E-03
      0.255000          0.221108E-03
      0.260000          0.209582E-03
      0.265000          0.199177E-03
      0.270000          0.190016E-03
      0.275000          0.182175E-03
      0.280000          0.175675E-03
      0.285000          0.170485E-03
      0.290000          0.166521E-03
      0.295000          0.163654E-03
      0.300000          0.161724E-03
      0.305000          0.160547E-03
      0.310000          0.159929E-03
      0.315000          0.159680E-03
      0.320000          0.159618E-03
      0.325000          0.159586E-03
      0.330000          0.159452E-03
      0.335000          0.159112E-03
      0.340000          0.158497E-03
      0.345000          0.157565E-03
      0.350000          0.156302E-03
      0.355000          0.154713E-03
      0.360000          0.152822E-03
      0.365000          0.150664E-03
      0.370000          0.148279E-03
      0.375000          0.145709E-03
      0.380000          0.142994E-03
      0.385000          0.140168E-03
      0.390000          0.137264E-03
      0.395000          0.134303E-03
      0.400000          0.131305E-03
      0.405000          0.128285E-03
      0.410000          0.125254E-03
      0.415000          0.122220E-03
      0.420000          0.119194E-03
      0.425000          0.116185E-03
      0.430000          0.113203E-03
      0.435000          0.110261E-03
      0.440000          0.107373E-03
      0.445000          0.104552E-03
      0.450000          0.101812E-03
      0.455000          0.991695E-04
      0.460000          0.966359E-04
      0.465000          0.942238E-04
      0.470000          0.919432E-04
      0.475000          0.898028E-04
      0.480000          0.878095E-04
      0.485000          0.859687E-04
      0.490000          0.842851E-04
      0.495000          0.827624E-04
      0.500000          0.814042E-04
