 I_abs(s)[cm^-1]/c[mg/ml]
       0.00000          0.146002E-01
      0.500000E-02      0.145408E-01
      0.100000E-01      0.143638E-01
      0.150000E-01      0.140735E-01
      0.200000E-01      0.136765E-01
      0.250000E-01      0.131816E-01
      0.300000E-01      0.125998E-01
      0.350000E-01      0.119439E-01
      0.400000E-01      0.112275E-01
      0.450000E-01      0.104653E-01
      0.500000E-01      0.967212E-02
      0.550000E-01      0.886274E-02
      0.600000E-01      0.805132E-02
      0.650000E-01      0.725107E-02
      0.700000E-01      0.647391E-02
      0.750000E-01      0.573026E-02
      0.800000E-01      0.502879E-02
      0.850000E-01      0.437638E-02
      0.900000E-01      0.377801E-02
      0.950000E-01      0.323686E-02
      0.100000          0.275436E-02
      0.105000          0.233036E-02
      0.110000          0.196331E-02
      0.115000          0.165050E-02
      0.120000          0.138825E-02
      0.125000          0.117220E-02
      0.130000          0.997510E-03
      0.135000          0.859102E-03
      0.140000          0.751844E-03
      0.145000          0.670725E-03
      0.150000          0.610997E-03
      0.155000          0.568281E-03
      0.160000          0.538642E-03
      0.165000          0.518636E-03
      0.170000          0.505328E-03
      0.175000          0.496287E-03
      0.180000          0.489565E-03
      0.185000          0.483661E-03
      0.190000          0.477469E-03
      0.195000          0.470232E-03
      0.200000          0.461485E-03
      0.205000          0.451003E-03
      0.210000          0.438747E-03
      0.215000          0.424823E-03
      0.220000          0.409440E-03
      0.225000          0.392874E-03
      0.230000          0.375441E-03
      0.235000          0.357475E-03
      0.240000          0.339307E-03
      0.245000          0.321255E-03
      0.250000          0.303609E-03
      0.255000          0.286629E-03
      0.260000          0.270536E-03
      0.265000          0.255510E-03
      0.270000          0.241691E-03
      0.275000          0.229177E-03
      0.280000          0.218023E-03
      0.285000          0.208248E-03
      0.290000          0.199834E-03
      0.295000          0.192731E-03
      0.300000          0.186860E-03
      0.305000          0.182120E-03
      0.310000          0.178392E-03
      0.315000          0.175542E-03
      0.320000          0.173430E-03
      0.325000          0.171912E-03
      0.330000          0.170846E-03
      0.335000          0.170094E-03
      0.340000          0.169528E-03
      0.345000          0.169032E-03
      0.350000          0.168501E-03
      0.355000          0.167847E-03
      0.360000          0.166996E-03
      0.365000          0.165892E-03
      0.370000          0.164493E-03
      0.375000          0.162773E-03
      0.380000          0.160718E-03
      0.385000          0.158332E-03
      0.390000          0.155629E-03
      0.395000          0.152633E-03
      0.400000          0.149382E-03
      0.405000          0.145919E-03
      0.410000          0.142298E-03
      0.415000          0.138576E-03
      0.420000          0.134816E-03
      0.425000          0.131081E-03
      0.430000          0.127436E-03
      0.435000          0.123943E-03
      0.440000          0.120659E-03
      0.445000          0.117637E-03
      0.450000          0.114918E-03
      0.455000          0.112534E-03
      0.460000          0.110506E-03
      0.465000          0.108841E-03
      0.470000          0.107532E-03
      0.475000          0.106562E-03
      0.480000          0.105897E-03
      0.485000          0.105494E-03
      0.490000          0.105301E-03
      0.495000          0.105257E-03
      0.500000          0.105299E-03
