 I_abs(s)[cm^-1]/c[mg/ml]
       0.00000          0.147037E-01
      0.500000E-02      0.146416E-01
      0.100000E-01      0.144568E-01
      0.150000E-01      0.141539E-01
      0.200000E-01      0.137404E-01
      0.250000E-01      0.132262E-01
      0.300000E-01      0.126235E-01
      0.350000E-01      0.119463E-01
      0.400000E-01      0.112098E-01
      0.450000E-01      0.104298E-01
      0.500000E-01      0.962231E-02
      0.550000E-01      0.880311E-02
      0.600000E-01      0.798704E-02
      0.650000E-01      0.718768E-02
      0.700000E-01      0.641703E-02
      0.750000E-01      0.568525E-02
      0.800000E-01      0.500045E-02
      0.850000E-01      0.436868E-02
      0.900000E-01      0.379387E-02
      0.950000E-01      0.327801E-02
      0.100000          0.282124E-02
      0.105000          0.242212E-02
      0.110000          0.207789E-02
      0.115000          0.178471E-02
      0.120000          0.153800E-02
      0.125000          0.133269E-02
      0.130000          0.116352E-02
      0.135000          0.102523E-02
      0.140000          0.912776E-03
      0.145000          0.821496E-03
      0.150000          0.747203E-03
      0.155000          0.686257E-03
      0.160000          0.635596E-03
      0.165000          0.592730E-03
      0.170000          0.555704E-03
      0.175000          0.523052E-03
      0.180000          0.493718E-03
      0.185000          0.466992E-03
      0.190000          0.442426E-03
      0.195000          0.419764E-03
      0.200000          0.398880E-03
      0.205000          0.379719E-03
      0.210000          0.362259E-03
      0.215000          0.346478E-03
      0.220000          0.332334E-03
      0.225000          0.319758E-03
      0.230000          0.308647E-03
      0.235000          0.298875E-03
      0.240000          0.290295E-03
      0.245000          0.282750E-03
      0.250000          0.276087E-03
      0.255000          0.270159E-03
      0.260000          0.264835E-03
      0.265000          0.260006E-03
      0.270000          0.255581E-03
      0.275000          0.251491E-03
      0.280000          0.247684E-03
      0.285000          0.244121E-03
      0.290000          0.240773E-03
      0.295000          0.237613E-03
      0.300000          0.234614E-03
      0.305000          0.231748E-03
      0.310000          0.228979E-03
      0.315000          0.226266E-03
      0.320000          0.223563E-03
      0.325000          0.220821E-03
      0.330000          0.217989E-03
      0.335000          0.215019E-03
      0.340000          0.211866E-03
      0.345000          0.208496E-03
      0.350000          0.204885E-03
      0.355000          0.201020E-03
      0.360000          0.196904E-03
      0.365000          0.192550E-03
      0.370000          0.187987E-03
      0.375000          0.183254E-03
      0.380000          0.178400E-03
      0.385000          0.173478E-03
      0.390000          0.168546E-03
      0.395000          0.163664E-03
      0.400000          0.158886E-03
      0.405000          0.154263E-03
      0.410000          0.149839E-03
      0.415000          0.145650E-03
      0.420000          0.141720E-03
      0.425000          0.138063E-03
      0.430000          0.134686E-03
      0.435000          0.131582E-03
      0.440000          0.128737E-03
      0.445000          0.126132E-03
      0.450000          0.123738E-03
      0.455000          0.121526E-03
      0.460000          0.119462E-03
      0.465000          0.117514E-03
      0.470000          0.115647E-03
      0.475000          0.113833E-03
      0.480000          0.112044E-03
      0.485000          0.110259E-03
      0.490000          0.108461E-03
      0.495000          0.106637E-03
      0.500000          0.104783E-03
