 I_abs(s)[cm^-1]/c[mg/ml]
       0.00000          0.146399E-01
      0.500000E-02      0.145960E-01
      0.100000E-01      0.144650E-01
      0.150000E-01      0.142490E-01
      0.200000E-01      0.139518E-01
      0.250000E-01      0.135783E-01
      0.300000E-01      0.131348E-01
      0.350000E-01      0.126283E-01
      0.400000E-01      0.120670E-01
      0.450000E-01      0.114595E-01
      0.500000E-01      0.108152E-01
      0.550000E-01      0.101433E-01
      0.600000E-01      0.945340E-02
      0.650000E-01      0.875464E-02
      0.700000E-01      0.805592E-02
      0.750000E-01      0.736557E-02
      0.800000E-01      0.669120E-02
      0.850000E-01      0.603962E-02
      0.900000E-01      0.541669E-02
      0.950000E-01      0.482732E-02
      0.100000          0.427537E-02
      0.105000          0.376371E-02
      0.110000          0.329420E-02
      0.115000          0.286774E-02
      0.120000          0.248436E-02
      0.125000          0.214331E-02
      0.130000          0.184312E-02
      0.135000          0.158175E-02
      0.140000          0.135670E-02
      0.145000          0.116511E-02
      0.150000          0.100389E-02
      0.155000          0.869807E-03
      0.160000          0.759602E-03
      0.165000          0.670063E-03
      0.170000          0.598107E-03
      0.175000          0.540838E-03
      0.180000          0.495589E-03
      0.185000          0.459960E-03
      0.190000          0.431836E-03
      0.195000          0.409393E-03
      0.200000          0.391097E-03
      0.205000          0.375692E-03
      0.210000          0.362179E-03
      0.215000          0.349796E-03
      0.220000          0.337988E-03
      0.225000          0.326377E-03
      0.230000          0.314732E-03
      0.235000          0.302942E-03
      0.240000          0.290986E-03
      0.245000          0.278910E-03
      0.250000          0.266802E-03
      0.255000          0.254777E-03
      0.260000          0.242960E-03
      0.265000          0.231475E-03
      0.270000          0.220433E-03
      0.275000          0.209934E-03
      0.280000          0.200054E-03
      0.285000          0.190851E-03
      0.290000          0.182362E-03
      0.295000          0.174604E-03
      0.300000          0.167577E-03
      0.305000          0.161266E-03
      0.310000          0.155645E-03
      0.315000          0.150676E-03
      0.320000          0.146315E-03
      0.325000          0.142514E-03
      0.330000          0.139218E-03
      0.335000          0.136372E-03
      0.340000          0.133920E-03
      0.345000          0.131804E-03
      0.350000          0.129968E-03
      0.355000          0.128356E-03
      0.360000          0.126915E-03
      0.365000          0.125594E-03
      0.370000          0.124344E-03
      0.375000          0.123120E-03
      0.380000          0.121882E-03
      0.385000          0.120593E-03
      0.390000          0.119224E-03
      0.395000          0.117752E-03
      0.400000          0.116158E-03
      0.405000          0.114432E-03
      0.410000          0.112572E-03
      0.415000          0.110582E-03
      0.420000          0.108472E-03
      0.425000          0.106260E-03
      0.430000          0.103968E-03
      0.435000          0.101625E-03
      0.440000          0.992611E-04
      0.445000          0.969097E-04
      0.450000          0.946052E-04
      0.455000          0.923817E-04
      0.460000          0.902715E-04
      0.465000          0.883039E-04
      0.470000          0.865045E-04
      0.475000          0.848938E-04
      0.480000          0.834869E-04
      0.485000          0.822929E-04
      0.490000          0.813146E-04
      0.495000          0.805487E-04
      0.500000          0.799863E-04
