 I_abs(s)[cm^-1]/c[mg/ml]
       0.00000          0.148395E-01
      0.500000E-02      0.147909E-01
      0.100000E-01      0.146458E-01
      0.150000E-01      0.144070E-01
      0.200000E-01      0.140791E-01
      0.250000E-01      0.136682E-01
      0.300000E-01      0.131818E-01
      0.350000E-01      0.126288E-01
      0.400000E-01      0.120188E-01
      0.450000E-01      0.113623E-01
      0.500000E-01      0.106701E-01
      0.550000E-01      0.995309E-02
      0.600000E-01      0.922203E-02
      0.650000E-01      0.848725E-02
      0.700000E-01      0.775845E-02
      0.750000E-01      0.704448E-02
      0.800000E-01      0.635318E-02
      0.850000E-01      0.569130E-02
      0.900000E-01      0.506439E-02
      0.950000E-01      0.447681E-02
      0.100000          0.393169E-02
      0.105000          0.343102E-02
      0.110000          0.297571E-02
      0.115000          0.256569E-02
      0.120000          0.220003E-02
      0.125000          0.187708E-02
      0.130000          0.159458E-02
      0.135000          0.134987E-02
      0.140000          0.113993E-02
      0.145000          0.961572E-03
      0.150000          0.811541E-03
      0.155000          0.686595E-03
      0.160000          0.583599E-03
      0.165000          0.499588E-03
      0.170000          0.431811E-03
      0.175000          0.377767E-03
      0.180000          0.335218E-03
      0.185000          0.302195E-03
      0.190000          0.276993E-03
      0.195000          0.258157E-03
      0.200000          0.244460E-03
      0.205000          0.234879E-03
      0.210000          0.228572E-03
      0.215000          0.224851E-03
      0.220000          0.223154E-03
      0.225000          0.223023E-03
      0.230000          0.224083E-03
      0.235000          0.226024E-03
      0.240000          0.228588E-03
      0.245000          0.231552E-03
      0.250000          0.234724E-03
      0.255000          0.237936E-03
      0.260000          0.241036E-03
      0.265000          0.243892E-03
      0.270000          0.246384E-03
      0.275000          0.248411E-03
      0.280000          0.249886E-03
      0.285000          0.250738E-03
      0.290000          0.250915E-03
      0.295000          0.250383E-03
      0.300000          0.249126E-03
      0.305000          0.247145E-03
      0.310000          0.244459E-03
      0.315000          0.241103E-03
      0.320000          0.237124E-03
      0.325000          0.232582E-03
      0.330000          0.227546E-03
      0.335000          0.222091E-03
      0.340000          0.216295E-03
      0.345000          0.210238E-03
      0.350000          0.203998E-03
      0.355000          0.197646E-03
      0.360000          0.191251E-03
      0.365000          0.184872E-03
      0.370000          0.178559E-03
      0.375000          0.172353E-03
      0.380000          0.166286E-03
      0.385000          0.160379E-03
      0.390000          0.154647E-03
      0.395000          0.149095E-03
      0.400000          0.143724E-03
      0.405000          0.138529E-03
      0.410000          0.133504E-03
      0.415000          0.128640E-03
      0.420000          0.123928E-03
      0.425000          0.119363E-03
      0.430000          0.114941E-03
      0.435000          0.110662E-03
      0.440000          0.106530E-03
      0.445000          0.102553E-03
      0.450000          0.987434E-04
      0.455000          0.951173E-04
      0.460000          0.916932E-04
      0.465000          0.884917E-04
      0.470000          0.855341E-04
      0.475000          0.828415E-04
      0.480000          0.804329E-04
      0.485000          0.783249E-04
      0.490000          0.765300E-04
      0.495000          0.750562E-04
      0.500000          0.739057E-04
