 I_abs(s)[cm^-1]/c[mg/ml]
       0.00000          0.142526E-01
      0.500000E-02      0.141793E-01
      0.100000E-01      0.139614E-01
      0.150000E-01      0.136056E-01
      0.200000E-01      0.131224E-01
      0.250000E-01      0.125261E-01
      0.300000E-01      0.118338E-01
      0.350000E-01      0.110647E-01
      0.400000E-01      0.102394E-01
      0.450000E-01      0.937909E-02
      0.500000E-01      0.850452E-02
      0.550000E-01      0.763531E-02
      0.600000E-01      0.678930E-02
      0.650000E-01      0.598194E-02
      0.700000E-01      0.522592E-02
      0.750000E-01      0.453092E-02
      0.800000E-01      0.390353E-02
      0.850000E-01      0.334731E-02
      0.900000E-01      0.286299E-02
      0.950000E-01      0.244883E-02
      0.100000          0.210097E-02
      0.105000          0.181391E-02
      0.110000          0.158101E-02
      0.115000          0.139494E-02
      0.120000          0.124814E-02
      0.125000          0.113317E-02
      0.130000          0.104309E-02
      0.135000          0.971641E-03
      0.140000          0.913473E-03
      0.145000          0.864176E-03
      0.150000          0.820329E-03
      0.155000          0.779440E-03
      0.160000          0.739866E-03
      0.165000          0.700683E-03
      0.170000          0.661550E-03
      0.175000          0.622556E-03
      0.180000          0.584080E-03
      0.185000          0.546665E-03
      0.190000          0.510905E-03
      0.195000          0.477365E-03
      0.200000          0.446513E-03
      0.205000          0.418689E-03
      0.210000          0.394086E-03
      0.215000          0.372749E-03
      0.220000          0.354588E-03
      0.225000          0.339402E-03
      0.230000          0.326904E-03
      0.235000          0.316749E-03
      0.240000          0.308558E-03
      0.245000          0.301947E-03
      0.250000          0.296541E-03
      0.255000          0.291989E-03
      0.260000          0.287979E-03
      0.265000          0.284237E-03
      0.270000          0.280539E-03
      0.275000          0.276703E-03
      0.280000          0.272595E-03
      0.285000          0.268122E-03
      0.290000          0.263235E-03
      0.295000          0.257918E-03
      0.300000          0.252189E-03
      0.305000          0.246096E-03
      0.310000          0.239709E-03
      0.315000          0.233116E-03
      0.320000          0.226417E-03
      0.325000          0.219719E-03
      0.330000          0.213126E-03
      0.335000          0.206737E-03
      0.340000          0.200636E-03
      0.345000          0.194893E-03
      0.350000          0.189553E-03
      0.355000          0.184642E-03
      0.360000          0.180160E-03
      0.365000          0.176086E-03
      0.370000          0.172379E-03
      0.375000          0.168982E-03
      0.380000          0.165829E-03
      0.385000          0.162846E-03
      0.390000          0.159961E-03
      0.395000          0.157107E-03
      0.400000          0.154225E-03
      0.405000          0.151271E-03
      0.410000          0.148214E-03
      0.415000          0.145041E-03
      0.420000          0.141753E-03
      0.425000          0.138366E-03
      0.430000          0.134906E-03
      0.435000          0.131409E-03
      0.440000          0.127916E-03
      0.445000          0.124470E-03
      0.450000          0.121110E-03
      0.455000          0.117873E-03
      0.460000          0.114789E-03
      0.465000          0.111881E-03
      0.470000          0.109163E-03
      0.475000          0.106640E-03
      0.480000          0.104311E-03
      0.485000          0.102170E-03
      0.490000          0.100203E-03
      0.495000          0.983973E-04
      0.500000          0.967365E-04
