 I_abs(s)[cm^-1]/c[mg/ml]
       0.00000          0.145367E-01
      0.500000E-02      0.144912E-01
      0.100000E-01      0.143555E-01
      0.150000E-01      0.141320E-01
      0.200000E-01      0.138250E-01
      0.250000E-01      0.134399E-01
      0.300000E-01      0.129835E-01
      0.350000E-01      0.124638E-01
      0.400000E-01      0.118897E-01
      0.450000E-01      0.112706E-01
      0.500000E-01      0.106165E-01
      0.550000E-01      0.993740E-02
      0.600000E-01      0.924326E-02
      0.650000E-01      0.854370E-02
      0.700000E-01      0.784781E-02
      0.750000E-01      0.716396E-02
      0.800000E-01      0.649964E-02
      0.850000E-01      0.586135E-02
      0.900000E-01      0.525452E-02
      0.950000E-01      0.468349E-02
      0.100000          0.415146E-02
      0.105000          0.366058E-02
      0.110000          0.321194E-02
      0.115000          0.280572E-02
      0.120000          0.244123E-02
      0.125000          0.211708E-02
      0.130000          0.183129E-02
      0.135000          0.158140E-02
      0.140000          0.136462E-02
      0.145000          0.117797E-02
      0.150000          0.101833E-02
      0.155000          0.882635E-03
      0.160000          0.767865E-03
      0.165000          0.671181E-03
      0.170000          0.589949E-03
      0.175000          0.521785E-03
      0.180000          0.464575E-03
      0.185000          0.416484E-03
      0.190000          0.375952E-03
      0.195000          0.341678E-03
      0.200000          0.312601E-03
      0.205000          0.287874E-03
      0.210000          0.266829E-03
      0.215000          0.248954E-03
      0.220000          0.233851E-03
      0.225000          0.221219E-03
      0.230000          0.210818E-03
      0.235000          0.202451E-03
      0.240000          0.195945E-03
      0.245000          0.191135E-03
      0.250000          0.187855E-03
      0.255000          0.185932E-03
      0.260000          0.185182E-03
      0.265000          0.185411E-03
      0.270000          0.186417E-03
      0.275000          0.187991E-03
      0.280000          0.189927E-03
      0.285000          0.192026E-03
      0.290000          0.194096E-03
      0.295000          0.195967E-03
      0.300000          0.197487E-03
      0.305000          0.198530E-03
      0.310000          0.198995E-03
      0.315000          0.198811E-03
      0.320000          0.197936E-03
      0.325000          0.196355E-03
      0.330000          0.194078E-03
      0.335000          0.191137E-03
      0.340000          0.187588E-03
      0.345000          0.183497E-03
      0.350000          0.178948E-03
      0.355000          0.174028E-03
      0.360000          0.168831E-03
      0.365000          0.163450E-03
      0.370000          0.157976E-03
      0.375000          0.152494E-03
      0.380000          0.147078E-03
      0.385000          0.141796E-03
      0.390000          0.136704E-03
      0.395000          0.131843E-03
      0.400000          0.127247E-03
      0.405000          0.122936E-03
      0.410000          0.118920E-03
      0.415000          0.115201E-03
      0.420000          0.111772E-03
      0.425000          0.108619E-03
      0.430000          0.105727E-03
      0.435000          0.103075E-03
      0.440000          0.100642E-03
      0.445000          0.984064E-04
      0.450000          0.963491E-04
      0.455000          0.944518E-04
      0.460000          0.926995E-04
      0.465000          0.910801E-04
      0.470000          0.895847E-04
      0.475000          0.882072E-04
      0.480000          0.869440E-04
      0.485000          0.857939E-04
      0.490000          0.847565E-04
      0.495000          0.838325E-04
      0.500000          0.830223E-04
