 I_abs(s)[cm^-1]/c[mg/ml]
       0.00000          0.144891E-01
      0.500000E-02      0.144403E-01
      0.100000E-01      0.142948E-01
      0.150000E-01      0.140553E-01
      0.200000E-01      0.137266E-01
      0.250000E-01      0.133147E-01
      0.300000E-01      0.128274E-01
      0.350000E-01      0.122735E-01
      0.400000E-01      0.116630E-01
      0.450000E-01      0.110065E-01
      0.500000E-01      0.103150E-01
      0.550000E-01      0.959964E-02
      0.600000E-01      0.887147E-02
      0.650000E-01      0.814111E-02
      0.700000E-01      0.741853E-02
      0.750000E-01      0.671284E-02
      0.800000E-01      0.603217E-02
      0.850000E-01      0.538347E-02
      0.900000E-01      0.477251E-02
      0.950000E-01      0.420377E-02
      0.100000          0.368045E-02
      0.105000          0.320453E-02
      0.110000          0.277684E-02
      0.115000          0.239713E-02
      0.120000          0.206420E-02
      0.125000          0.177603E-02
      0.130000          0.152996E-02
      0.135000          0.132278E-02
      0.140000          0.115091E-02
      0.145000          0.101055E-02
      0.150000          0.897788E-03
      0.155000          0.808722E-03
      0.160000          0.739567E-03
      0.165000          0.686740E-03
      0.170000          0.646920E-03
      0.175000          0.617103E-03
      0.180000          0.594631E-03
      0.185000          0.577214E-03
      0.190000          0.562927E-03
      0.195000          0.550210E-03
      0.200000          0.537844E-03
      0.205000          0.524926E-03
      0.210000          0.510839E-03
      0.215000          0.495217E-03
      0.220000          0.477908E-03
      0.225000          0.458932E-03
      0.230000          0.438448E-03
      0.235000          0.416717E-03
      0.240000          0.394070E-03
      0.245000          0.370876E-03
      0.250000          0.347521E-03
      0.255000          0.324381E-03
      0.260000          0.301807E-03
      0.265000          0.280113E-03
      0.270000          0.259564E-03
      0.275000          0.240370E-03
      0.280000          0.222685E-03
      0.285000          0.206606E-03
      0.290000          0.192175E-03
      0.295000          0.179385E-03
      0.300000          0.168187E-03
      0.305000          0.158493E-03
      0.310000          0.150187E-03
      0.315000          0.143132E-03
      0.320000          0.137178E-03
      0.325000          0.132169E-03
      0.330000          0.127949E-03
      0.335000          0.124366E-03
      0.340000          0.121281E-03
      0.345000          0.118566E-03
      0.350000          0.116111E-03
      0.355000          0.113823E-03
      0.360000          0.111625E-03
      0.365000          0.109460E-03
      0.370000          0.107287E-03
      0.375000          0.105079E-03
      0.380000          0.102824E-03
      0.385000          0.100519E-03
      0.390000          0.981741E-04
      0.395000          0.958026E-04
      0.400000          0.934251E-04
      0.405000          0.910650E-04
      0.410000          0.887477E-04
      0.415000          0.864985E-04
      0.420000          0.843420E-04
      0.425000          0.823012E-04
      0.430000          0.803964E-04
      0.435000          0.786447E-04
      0.440000          0.770601E-04
      0.445000          0.756530E-04
      0.450000          0.744303E-04
      0.455000          0.733955E-04
      0.460000          0.725486E-04
      0.465000          0.718868E-04
      0.470000          0.714045E-04
      0.475000          0.710940E-04
      0.480000          0.709454E-04
      0.485000          0.709474E-04
      0.490000          0.710874E-04
      0.495000          0.713522E-04
      0.500000          0.717278E-04
