 I_abs(s)[cm^-1]/c[mg/ml]
       0.00000          0.144891E-01
      0.500000E-02      0.144375E-01
      0.100000E-01      0.142835E-01
      0.150000E-01      0.140302E-01
      0.200000E-01      0.136826E-01
      0.250000E-01      0.132476E-01
      0.300000E-01      0.127335E-01
      0.350000E-01      0.121501E-01
      0.400000E-01      0.115082E-01
      0.450000E-01      0.108192E-01
      0.500000E-01      0.100952E-01
      0.550000E-01      0.934837E-02
      0.600000E-01      0.859052E-02
      0.650000E-01      0.783312E-02
      0.700000E-01      0.708683E-02
      0.750000E-01      0.636135E-02
      0.800000E-01      0.566520E-02
      0.850000E-01      0.500562E-02
      0.900000E-01      0.438844E-02
      0.950000E-01      0.381806E-02
      0.100000          0.329745E-02
      0.105000          0.282821E-02
      0.110000          0.241067E-02
      0.115000          0.204397E-02
      0.120000          0.172625E-02
      0.125000          0.145480E-02
      0.130000          0.122623E-02
      0.135000          0.103669E-02
      0.140000          0.881969E-03
      0.145000          0.757735E-03
      0.150000          0.659646E-03
      0.155000          0.583496E-03
      0.160000          0.525320E-03
      0.165000          0.481480E-03
      0.170000          0.448728E-03
      0.175000          0.424245E-03
      0.180000          0.405656E-03
      0.185000          0.391025E-03
      0.190000          0.378839E-03
      0.195000          0.367974E-03
      0.200000          0.357649E-03
      0.205000          0.347377E-03
      0.210000          0.336916E-03
      0.215000          0.326208E-03
      0.220000          0.315333E-03
      0.225000          0.304463E-03
      0.230000          0.293815E-03
      0.235000          0.283621E-03
      0.240000          0.274098E-03
      0.245000          0.265429E-03
      0.250000          0.257751E-03
      0.255000          0.251145E-03
      0.260000          0.245637E-03
      0.265000          0.241198E-03
      0.270000          0.237756E-03
      0.275000          0.235195E-03
      0.280000          0.233376E-03
      0.285000          0.232137E-03
      0.290000          0.231308E-03
      0.295000          0.230721E-03
      0.300000          0.230212E-03
      0.305000          0.229634E-03
      0.310000          0.228856E-03
      0.315000          0.227769E-03
      0.320000          0.226286E-03
      0.325000          0.224344E-03
      0.330000          0.221901E-03
      0.335000          0.218937E-03
      0.340000          0.215449E-03
      0.345000          0.211452E-03
      0.350000          0.206975E-03
      0.355000          0.202057E-03
      0.360000          0.196750E-03
      0.365000          0.191109E-03
      0.370000          0.185198E-03
      0.375000          0.179082E-03
      0.380000          0.172831E-03
      0.385000          0.166512E-03
      0.390000          0.160194E-03
      0.395000          0.153944E-03
      0.400000          0.147824E-03
      0.405000          0.141894E-03
      0.410000          0.136206E-03
      0.415000          0.130808E-03
      0.420000          0.125740E-03
      0.425000          0.121034E-03
      0.430000          0.116713E-03
      0.435000          0.112792E-03
      0.440000          0.109277E-03
      0.445000          0.106166E-03
      0.450000          0.103450E-03
      0.455000          0.101110E-03
      0.460000          0.991219E-04
      0.465000          0.974580E-04
      0.470000          0.960847E-04
      0.475000          0.949669E-04
      0.480000          0.940675E-04
      0.485000          0.933497E-04
      0.490000          0.927778E-04
      0.495000          0.923181E-04
      0.500000          0.919397E-04
