 I_abs(s)[cm^-1]/c[mg/ml]
       0.00000          0.134707E-01
      0.500000E-02      0.133649E-01
      0.100000E-01      0.130530E-01
      0.150000E-01      0.125512E-01
      0.200000E-01      0.118849E-01
      0.250000E-01      0.110870E-01
      0.300000E-01      0.101953E-01
      0.350000E-01      0.924956E-02
      0.400000E-01      0.828912E-02
      0.450000E-01      0.734991E-02
      0.500000E-01      0.646254E-02
      0.550000E-01      0.565065E-02
      0.600000E-01      0.493016E-02
      0.650000E-01      0.430904E-02
      0.700000E-01      0.378790E-02
      0.750000E-01      0.336100E-02
      0.800000E-01      0.301779E-02
      0.850000E-01      0.274454E-02
      0.900000E-01      0.252604E-02
      0.950000E-01      0.234722E-02
      0.100000          0.219440E-02
      0.105000          0.205627E-02
      0.110000          0.192440E-02
      0.115000          0.179340E-02
      0.120000          0.166075E-02
      0.125000          0.152630E-02
      0.130000          0.139167E-02
      0.135000          0.125956E-02
      0.140000          0.113307E-02
      0.145000          0.101514E-02
      0.150000          0.908147E-03
      0.155000          0.813590E-03
      0.160000          0.732057E-03
      0.165000          0.663250E-03
      0.170000          0.606152E-03
      0.175000          0.559250E-03
      0.180000          0.520774E-03
      0.185000          0.488924E-03
      0.190000          0.462051E-03
      0.195000          0.438778E-03
      0.200000          0.418052E-03
      0.205000          0.399151E-03
      0.210000          0.381633E-03
      0.215000          0.365269E-03
      0.220000          0.349963E-03
      0.225000          0.335674E-03
      0.230000          0.322367E-03
      0.235000          0.309973E-03
      0.240000          0.298379E-03
      0.245000          0.287440E-03
      0.250000          0.276997E-03
      0.255000          0.266906E-03
      0.260000          0.257063E-03
      0.265000          0.247426E-03
      0.270000          0.238018E-03
      0.275000          0.228930E-03
      0.280000          0.220305E-03
      0.285000          0.212317E-03
      0.290000          0.205152E-03
      0.295000          0.198980E-03
      0.300000          0.193938E-03
      0.305000          0.190114E-03
      0.310000          0.187538E-03
      0.315000          0.186183E-03
      0.320000          0.185965E-03
      0.325000          0.186753E-03
      0.330000          0.188375E-03
      0.335000          0.190630E-03
      0.340000          0.193299E-03
      0.345000          0.196155E-03
      0.350000          0.198970E-03
      0.355000          0.201527E-03
      0.360000          0.203625E-03
      0.365000          0.205091E-03
      0.370000          0.205785E-03
      0.375000          0.205606E-03
      0.380000          0.204503E-03
      0.385000          0.202468E-03
      0.390000          0.199544E-03
      0.395000          0.195818E-03
      0.400000          0.191414E-03
      0.405000          0.186481E-03
      0.410000          0.181184E-03
      0.415000          0.175688E-03
      0.420000          0.170146E-03
      0.425000          0.164688E-03
      0.430000          0.159412E-03
      0.435000          0.154381E-03
      0.440000          0.149621E-03
      0.445000          0.145128E-03
      0.450000          0.140871E-03
      0.455000          0.136805E-03
      0.460000          0.132877E-03
      0.465000          0.129038E-03
      0.470000          0.125251E-03
      0.475000          0.121497E-03
      0.480000          0.117774E-03
      0.485000          0.114103E-03
      0.490000          0.110517E-03
      0.495000          0.107065E-03
      0.500000          0.103799E-03
