 I_abs(s)[cm^-1]/c[mg/ml]
       0.00000          0.144338E-01
      0.500000E-02      0.143786E-01
      0.100000E-01      0.142143E-01
      0.150000E-01      0.139449E-01
      0.200000E-01      0.135766E-01
      0.250000E-01      0.131178E-01
      0.300000E-01      0.125791E-01
      0.350000E-01      0.119721E-01
      0.400000E-01      0.113097E-01
      0.450000E-01      0.106054E-01
      0.500000E-01      0.987277E-02
      0.550000E-01      0.912512E-02
      0.600000E-01      0.837509E-02
      0.650000E-01      0.763429E-02
      0.700000E-01      0.691308E-02
      0.750000E-01      0.622031E-02
      0.800000E-01      0.556324E-02
      0.850000E-01      0.494747E-02
      0.900000E-01      0.437697E-02
      0.950000E-01      0.385417E-02
      0.100000          0.338008E-02
      0.105000          0.295444E-02
      0.110000          0.257596E-02
      0.115000          0.224247E-02
      0.120000          0.195117E-02
      0.125000          0.169880E-02
      0.130000          0.148183E-02
      0.135000          0.129663E-02
      0.140000          0.113957E-02
      0.145000          0.100716E-02
      0.150000          0.896093E-03
      0.155000          0.803321E-03
      0.160000          0.726080E-03
      0.165000          0.661896E-03
      0.170000          0.608591E-03
      0.175000          0.564264E-03
      0.180000          0.527278E-03
      0.185000          0.496232E-03
      0.190000          0.469940E-03
      0.195000          0.447405E-03
      0.200000          0.427799E-03
      0.205000          0.410439E-03
      0.210000          0.394772E-03
      0.215000          0.380355E-03
      0.220000          0.366844E-03
      0.225000          0.353979E-03
      0.230000          0.341570E-03
      0.235000          0.329488E-03
      0.240000          0.317654E-03
      0.245000          0.306027E-03
      0.250000          0.294598E-03
      0.255000          0.283379E-03
      0.260000          0.272396E-03
      0.265000          0.261684E-03
      0.270000          0.251278E-03
      0.275000          0.241216E-03
      0.280000          0.231530E-03
      0.285000          0.222246E-03
      0.290000          0.213384E-03
      0.295000          0.204957E-03
      0.300000          0.196975E-03
      0.305000          0.189439E-03
      0.310000          0.182346E-03
      0.315000          0.175693E-03
      0.320000          0.169469E-03
      0.325000          0.163665E-03
      0.330000          0.158270E-03
      0.335000          0.153270E-03
      0.340000          0.148651E-03
      0.345000          0.144398E-03
      0.350000          0.140497E-03
      0.355000          0.136931E-03
      0.360000          0.133682E-03
      0.365000          0.130735E-03
      0.370000          0.128071E-03
      0.375000          0.125672E-03
      0.380000          0.123521E-03
      0.385000          0.121599E-03
      0.390000          0.119891E-03
      0.395000          0.118377E-03
      0.400000          0.117042E-03
      0.405000          0.115871E-03
      0.410000          0.114846E-03
      0.415000          0.113954E-03
      0.420000          0.113181E-03
      0.425000          0.112512E-03
      0.430000          0.111934E-03
      0.435000          0.111434E-03
      0.440000          0.110998E-03
      0.445000          0.110614E-03
      0.450000          0.110269E-03
      0.455000          0.109948E-03
      0.460000          0.109639E-03
      0.465000          0.109327E-03
      0.470000          0.108998E-03
      0.475000          0.108638E-03
      0.480000          0.108231E-03
      0.485000          0.107764E-03
      0.490000          0.107224E-03
      0.495000          0.106599E-03
      0.500000          0.105879E-03
