 I_abs(s)[cm^-1]/c[mg/ml]
       0.00000          0.148636E-01
      0.500000E-02      0.148066E-01
      0.100000E-01      0.146370E-01
      0.150000E-01      0.143584E-01
      0.200000E-01      0.139771E-01
      0.250000E-01      0.135012E-01
      0.300000E-01      0.129409E-01
      0.350000E-01      0.123077E-01
      0.400000E-01      0.116144E-01
      0.450000E-01      0.108746E-01
      0.500000E-01      0.101018E-01
      0.550000E-01      0.930988E-02
      0.600000E-01      0.851187E-02
      0.650000E-01      0.772012E-02
      0.700000E-01      0.694582E-02
      0.750000E-01      0.619883E-02
      0.800000E-01      0.548747E-02
      0.850000E-01      0.481847E-02
      0.900000E-01      0.419691E-02
      0.950000E-01      0.362626E-02
      0.100000          0.310847E-02
      0.105000          0.264410E-02
      0.110000          0.223247E-02
      0.115000          0.187187E-02
      0.120000          0.155973E-02
      0.125000          0.129282E-02
      0.130000          0.106748E-02
      0.135000          0.879769E-03
      0.140000          0.725630E-03
      0.145000          0.601025E-03
      0.150000          0.502049E-03
      0.155000          0.425011E-03
      0.160000          0.366491E-03
      0.165000          0.323381E-03
      0.170000          0.292894E-03
      0.175000          0.272572E-03
      0.180000          0.260268E-03
      0.185000          0.254131E-03
      0.190000          0.252580E-03
      0.195000          0.254274E-03
      0.200000          0.258091E-03
      0.205000          0.263096E-03
      0.210000          0.268527E-03
      0.215000          0.273769E-03
      0.220000          0.278339E-03
      0.225000          0.281878E-03
      0.230000          0.284131E-03
      0.235000          0.284944E-03
      0.240000          0.284249E-03
      0.245000          0.282057E-03
      0.250000          0.278448E-03
      0.255000          0.273558E-03
      0.260000          0.267568E-03
      0.265000          0.260693E-03
      0.270000          0.253168E-03
      0.275000          0.245235E-03
      0.280000          0.237132E-03
      0.285000          0.229086E-03
      0.290000          0.221296E-03
      0.295000          0.213934E-03
      0.300000          0.207135E-03
      0.305000          0.200996E-03
      0.310000          0.195575E-03
      0.315000          0.190895E-03
      0.320000          0.186942E-03
      0.325000          0.183674E-03
      0.330000          0.181026E-03
      0.335000          0.178915E-03
      0.340000          0.177245E-03
      0.345000          0.175919E-03
      0.350000          0.174836E-03
      0.355000          0.173904E-03
      0.360000          0.173038E-03
      0.365000          0.172167E-03
      0.370000          0.171230E-03
      0.375000          0.170185E-03
      0.380000          0.168999E-03
      0.385000          0.167657E-03
      0.390000          0.166150E-03
      0.395000          0.164483E-03
      0.400000          0.162665E-03
      0.405000          0.160710E-03
      0.410000          0.158636E-03
      0.415000          0.156460E-03
      0.420000          0.154201E-03
      0.425000          0.151874E-03
      0.430000          0.149491E-03
      0.435000          0.147064E-03
      0.440000          0.144600E-03
      0.445000          0.142105E-03
      0.450000          0.139582E-03
      0.455000          0.137036E-03
      0.460000          0.134468E-03
      0.465000          0.131883E-03
      0.470000          0.129286E-03
      0.475000          0.126683E-03
      0.480000          0.124082E-03
      0.485000          0.121495E-03
      0.490000          0.118934E-03
      0.495000          0.116413E-03
      0.500000          0.113947E-03
