 I_abs(s)[cm^-1]/c[mg/ml]
       0.00000          0.144575E-01
      0.500000E-02      0.143886E-01
      0.100000E-01      0.141843E-01
      0.150000E-01      0.138513E-01
      0.200000E-01      0.134003E-01
      0.250000E-01      0.128458E-01
      0.300000E-01      0.122046E-01
      0.350000E-01      0.114956E-01
      0.400000E-01      0.107383E-01
      0.450000E-01      0.995227E-02
      0.500000E-01      0.915614E-02
      0.550000E-01      0.836674E-02
      0.600000E-01      0.759867E-02
      0.650000E-01      0.686387E-02
      0.700000E-01      0.617144E-02
      0.750000E-01      0.552763E-02
      0.800000E-01      0.493603E-02
      0.850000E-01      0.439783E-02
      0.900000E-01      0.391228E-02
      0.950000E-01      0.347708E-02
      0.100000          0.308887E-02
      0.105000          0.274367E-02
      0.110000          0.243721E-02
      0.115000          0.216531E-02
      0.120000          0.192403E-02
      0.125000          0.170982E-02
      0.130000          0.151963E-02
      0.135000          0.135083E-02
      0.140000          0.120123E-02
      0.145000          0.106897E-02
      0.150000          0.952417E-03
      0.155000          0.850133E-03
      0.160000          0.760764E-03
      0.165000          0.683015E-03
      0.170000          0.615623E-03
      0.175000          0.557355E-03
      0.180000          0.507028E-03
      0.185000          0.463530E-03
      0.190000          0.425850E-03
      0.195000          0.393106E-03
      0.200000          0.364560E-03
      0.205000          0.339626E-03
      0.210000          0.317862E-03
      0.215000          0.298957E-03
      0.220000          0.282698E-03
      0.225000          0.268943E-03
      0.230000          0.257583E-03
      0.235000          0.248514E-03
      0.240000          0.241605E-03
      0.245000          0.236684E-03
      0.250000          0.233525E-03
      0.255000          0.231850E-03
      0.260000          0.231333E-03
      0.265000          0.231613E-03
      0.270000          0.232319E-03
      0.275000          0.233082E-03
      0.280000          0.233564E-03
      0.285000          0.233468E-03
      0.290000          0.232560E-03
      0.295000          0.230674E-03
      0.300000          0.227719E-03
      0.305000          0.223682E-03
      0.310000          0.218617E-03
      0.315000          0.212641E-03
      0.320000          0.205920E-03
      0.325000          0.198655E-03
      0.330000          0.191067E-03
      0.335000          0.183382E-03
      0.340000          0.175816E-03
      0.345000          0.168564E-03
      0.350000          0.161786E-03
      0.355000          0.155606E-03
      0.360000          0.150102E-03
      0.365000          0.145309E-03
      0.370000          0.141223E-03
      0.375000          0.137801E-03
      0.380000          0.134975E-03
      0.385000          0.132658E-03
      0.390000          0.130755E-03
      0.395000          0.129170E-03
      0.400000          0.127819E-03
      0.405000          0.126632E-03
      0.410000          0.125560E-03
      0.415000          0.124574E-03
      0.420000          0.123667E-03
      0.425000          0.122846E-03
      0.430000          0.122130E-03
      0.435000          0.121542E-03
      0.440000          0.121102E-03
      0.445000          0.120820E-03
      0.450000          0.120691E-03
      0.455000          0.120696E-03
      0.460000          0.120794E-03
      0.465000          0.120930E-03
      0.470000          0.121036E-03
      0.475000          0.121034E-03
      0.480000          0.120849E-03
      0.485000          0.120410E-03
      0.490000          0.119660E-03
      0.495000          0.118559E-03
      0.500000          0.117088E-03
