 I_abs(s)[cm^-1]/c[mg/ml]
       0.00000          0.148556E-01
      0.500000E-02      0.148107E-01
      0.100000E-01      0.146769E-01
      0.150000E-01      0.144565E-01
      0.200000E-01      0.141534E-01
      0.250000E-01      0.137727E-01
      0.300000E-01      0.133210E-01
      0.350000E-01      0.128058E-01
      0.400000E-01      0.122355E-01
      0.450000E-01      0.116191E-01
      0.500000E-01      0.109662E-01
      0.550000E-01      0.102863E-01
      0.600000E-01      0.958901E-02
      0.650000E-01      0.888376E-02
      0.700000E-01      0.817937E-02
      0.750000E-01      0.748408E-02
      0.800000E-01      0.680535E-02
      0.850000E-01      0.614975E-02
      0.900000E-01      0.552288E-02
      0.950000E-01      0.492929E-02
      0.100000          0.437254E-02
      0.105000          0.385514E-02
      0.110000          0.337864E-02
      0.115000          0.294369E-02
      0.120000          0.255011E-02
      0.125000          0.219700E-02
      0.130000          0.188289E-02
      0.135000          0.160578E-02
      0.140000          0.136332E-02
      0.145000          0.115289E-02
      0.150000          0.971726E-03
      0.155000          0.816980E-03
      0.160000          0.685836E-03
      0.165000          0.575559E-03
      0.170000          0.483555E-03
      0.175000          0.407408E-03
      0.180000          0.344911E-03
      0.185000          0.294072E-03
      0.190000          0.253127E-03
      0.195000          0.220528E-03
      0.200000          0.194937E-03
      0.205000          0.175201E-03
      0.210000          0.160341E-03
      0.215000          0.149526E-03
      0.220000          0.142048E-03
      0.225000          0.137308E-03
      0.230000          0.134793E-03
      0.235000          0.134061E-03
      0.240000          0.134729E-03
      0.245000          0.136457E-03
      0.250000          0.138948E-03
      0.255000          0.141939E-03
      0.260000          0.145194E-03
      0.265000          0.148510E-03
      0.270000          0.151710E-03
      0.275000          0.154646E-03
      0.280000          0.157200E-03
      0.285000          0.159281E-03
      0.290000          0.160826E-03
      0.295000          0.161802E-03
      0.300000          0.162198E-03
      0.305000          0.162029E-03
      0.310000          0.161330E-03
      0.315000          0.160150E-03
      0.320000          0.158555E-03
      0.325000          0.156615E-03
      0.330000          0.154408E-03
      0.335000          0.152010E-03
      0.340000          0.149496E-03
      0.345000          0.146934E-03
      0.350000          0.144384E-03
      0.355000          0.141894E-03
      0.360000          0.139504E-03
      0.365000          0.137240E-03
      0.370000          0.135117E-03
      0.375000          0.133138E-03
      0.380000          0.131301E-03
      0.385000          0.129590E-03
      0.390000          0.127988E-03
      0.395000          0.126472E-03
      0.400000          0.125016E-03
      0.405000          0.123595E-03
      0.410000          0.122186E-03
      0.415000          0.120768E-03
      0.420000          0.119324E-03
      0.425000          0.117843E-03
      0.430000          0.116317E-03
      0.435000          0.114745E-03
      0.440000          0.113132E-03
      0.445000          0.111487E-03
      0.450000          0.109822E-03
      0.455000          0.108153E-03
      0.460000          0.106498E-03
      0.465000          0.104875E-03
      0.470000          0.103304E-03
      0.475000          0.101800E-03
      0.480000          0.100379E-03
      0.485000          0.990517E-04
      0.490000          0.978264E-04
      0.495000          0.967065E-04
      0.500000          0.956915E-04
