 I_abs(s)[cm^-1]/c[mg/ml]
       0.00000          0.148556E-01
      0.500000E-02      0.147999E-01
      0.100000E-01      0.146341E-01
      0.150000E-01      0.143620E-01
      0.200000E-01      0.139899E-01
      0.250000E-01      0.135260E-01
      0.300000E-01      0.129806E-01
      0.350000E-01      0.123653E-01
      0.400000E-01      0.116926E-01
      0.450000E-01      0.109760E-01
      0.500000E-01      0.102288E-01
      0.550000E-01      0.946424E-02
      0.600000E-01      0.869483E-02
      0.650000E-01      0.793219E-02
      0.700000E-01      0.718671E-02
      0.750000E-01      0.646737E-02
      0.800000E-01      0.578162E-02
      0.850000E-01      0.513534E-02
      0.900000E-01      0.453286E-02
      0.950000E-01      0.397701E-02
      0.100000          0.346927E-02
      0.105000          0.300992E-02
      0.110000          0.259818E-02
      0.115000          0.223245E-02
      0.120000          0.191047E-02
      0.125000          0.162949E-02
      0.130000          0.138645E-02
      0.135000          0.117811E-02
      0.140000          0.100116E-02
      0.145000          0.852343E-03
      0.150000          0.728488E-03
      0.155000          0.626584E-03
      0.160000          0.543800E-03
      0.165000          0.477510E-03
      0.170000          0.425294E-03
      0.175000          0.384940E-03
      0.180000          0.354441E-03
      0.185000          0.331985E-03
      0.190000          0.315954E-03
      0.195000          0.304908E-03
      0.200000          0.297590E-03
      0.205000          0.292908E-03
      0.210000          0.289939E-03
      0.215000          0.287917E-03
      0.220000          0.286227E-03
      0.225000          0.284395E-03
      0.230000          0.282079E-03
      0.235000          0.279050E-03
      0.240000          0.275184E-03
      0.245000          0.270443E-03
      0.250000          0.264859E-03
      0.255000          0.258516E-03
      0.260000          0.251536E-03
      0.265000          0.244063E-03
      0.270000          0.236251E-03
      0.275000          0.228253E-03
      0.280000          0.220215E-03
      0.285000          0.212265E-03
      0.290000          0.204513E-03
      0.295000          0.197048E-03
      0.300000          0.189939E-03
      0.305000          0.183234E-03
      0.310000          0.176963E-03
      0.315000          0.171142E-03
      0.320000          0.165772E-03
      0.325000          0.160845E-03
      0.330000          0.156343E-03
      0.335000          0.152246E-03
      0.340000          0.148527E-03
      0.345000          0.145155E-03
      0.350000          0.142101E-03
      0.355000          0.139332E-03
      0.360000          0.136816E-03
      0.365000          0.134521E-03
      0.370000          0.132416E-03
      0.375000          0.130472E-03
      0.380000          0.128661E-03
      0.385000          0.126959E-03
      0.390000          0.125343E-03
      0.395000          0.123796E-03
      0.400000          0.122302E-03
      0.405000          0.120851E-03
      0.410000          0.119438E-03
      0.415000          0.118060E-03
      0.420000          0.116718E-03
      0.425000          0.115418E-03
      0.430000          0.114168E-03
      0.435000          0.112977E-03
      0.440000          0.111855E-03
      0.445000          0.110814E-03
      0.450000          0.109862E-03
      0.455000          0.109008E-03
      0.460000          0.108257E-03
      0.465000          0.107613E-03
      0.470000          0.107073E-03
      0.475000          0.106634E-03
      0.480000          0.106286E-03
      0.485000          0.106017E-03
      0.490000          0.105811E-03
      0.495000          0.105651E-03
      0.500000          0.105515E-03
