 I_abs(s)[cm^-1]/c[mg/ml]
       0.00000          0.146399E-01
      0.500000E-02      0.145720E-01
      0.100000E-01      0.143701E-01
      0.150000E-01      0.140405E-01
      0.200000E-01      0.135929E-01
      0.250000E-01      0.130403E-01
      0.300000E-01      0.123983E-01
      0.350000E-01      0.116842E-01
      0.400000E-01      0.109164E-01
      0.450000E-01      0.101134E-01
      0.500000E-01      0.929320E-02
      0.550000E-01      0.847251E-02
      0.600000E-01      0.766621E-02
      0.650000E-01      0.688700E-02
      0.700000E-01      0.614510E-02
      0.750000E-01      0.544822E-02
      0.800000E-01      0.480161E-02
      0.850000E-01      0.420825E-02
      0.900000E-01      0.366915E-02
      0.950000E-01      0.318369E-02
      0.100000          0.275002E-02
      0.105000          0.236542E-02
      0.110000          0.202664E-02
      0.115000          0.173019E-02
      0.120000          0.147260E-02
      0.125000          0.125051E-02
      0.130000          0.106083E-02
      0.135000          0.900685E-03
      0.140000          0.767450E-03
      0.145000          0.658671E-03
      0.150000          0.571997E-03
      0.155000          0.505113E-03
      0.160000          0.455686E-03
      0.165000          0.421336E-03
      0.170000          0.399625E-03
      0.175000          0.388091E-03
      0.180000          0.384288E-03
      0.185000          0.385860E-03
      0.190000          0.390615E-03
      0.195000          0.396596E-03
      0.200000          0.402158E-03
      0.205000          0.406007E-03
      0.210000          0.407234E-03
      0.215000          0.405314E-03
      0.220000          0.400086E-03
      0.225000          0.391706E-03
      0.230000          0.380587E-03
      0.235000          0.367321E-03
      0.240000          0.352608E-03
      0.245000          0.337176E-03
      0.250000          0.321716E-03
      0.255000          0.306828E-03
      0.260000          0.292984E-03
      0.265000          0.280511E-03
      0.270000          0.269582E-03
      0.275000          0.260232E-03
      0.280000          0.252377E-03
      0.285000          0.245846E-03
      0.290000          0.240409E-03
      0.295000          0.235813E-03
      0.300000          0.231808E-03
      0.305000          0.228167E-03
      0.310000          0.224702E-03
      0.315000          0.221269E-03
      0.320000          0.217768E-03
      0.325000          0.214140E-03
      0.330000          0.210354E-03
      0.335000          0.206399E-03
      0.340000          0.202274E-03
      0.345000          0.197981E-03
      0.350000          0.193516E-03
      0.355000          0.188870E-03
      0.360000          0.184030E-03
      0.365000          0.178984E-03
      0.370000          0.173724E-03
      0.375000          0.168254E-03
      0.380000          0.162597E-03
      0.385000          0.156793E-03
      0.390000          0.150909E-03
      0.395000          0.145030E-03
      0.400000          0.139259E-03
      0.405000          0.133708E-03
      0.410000          0.128493E-03
      0.415000          0.123720E-03
      0.420000          0.119480E-03
      0.425000          0.115839E-03
      0.430000          0.112835E-03
      0.435000          0.110469E-03
      0.440000          0.108712E-03
      0.445000          0.107501E-03
      0.450000          0.106749E-03
      0.455000          0.106352E-03
      0.460000          0.106192E-03
      0.465000          0.106154E-03
      0.470000          0.106130E-03
      0.475000          0.106024E-03
      0.480000          0.105765E-03
      0.485000          0.105303E-03
      0.490000          0.104614E-03
      0.495000          0.103696E-03
      0.500000          0.102570E-03
