 I_abs(s)[cm^-1]/c[mg/ml]
       0.00000          0.145208E-01
      0.500000E-02      0.144617E-01
      0.100000E-01      0.142858E-01
      0.150000E-01      0.139970E-01
      0.200000E-01      0.136019E-01
      0.250000E-01      0.131093E-01
      0.300000E-01      0.125300E-01
      0.350000E-01      0.118765E-01
      0.400000E-01      0.111623E-01
      0.450000E-01      0.104020E-01
      0.500000E-01      0.961033E-02
      0.550000E-01      0.880207E-02
      0.600000E-01      0.799138E-02
      0.650000E-01      0.719157E-02
      0.700000E-01      0.641472E-02
      0.750000E-01      0.567142E-02
      0.800000E-01      0.497055E-02
      0.850000E-01      0.431922E-02
      0.900000E-01      0.372264E-02
      0.950000E-01      0.318417E-02
      0.100000          0.270542E-02
      0.105000          0.228632E-02
      0.110000          0.192537E-02
      0.115000          0.161981E-02
      0.120000          0.136584E-02
      0.125000          0.115893E-02
      0.130000          0.993993E-03
      0.135000          0.865641E-03
      0.140000          0.768419E-03
      0.145000          0.696976E-03
      0.150000          0.646226E-03
      0.155000          0.611479E-03
      0.160000          0.588532E-03
      0.165000          0.573726E-03
      0.170000          0.563982E-03
      0.175000          0.556799E-03
      0.180000          0.550232E-03
      0.185000          0.542856E-03
      0.190000          0.533711E-03
      0.195000          0.522239E-03
      0.200000          0.508216E-03
      0.205000          0.491686E-03
      0.210000          0.472897E-03
      0.215000          0.452233E-03
      0.220000          0.430170E-03
      0.225000          0.407221E-03
      0.230000          0.383906E-03
      0.235000          0.360717E-03
      0.240000          0.338099E-03
      0.245000          0.316436E-03
      0.250000          0.296043E-03
      0.255000          0.277163E-03
      0.260000          0.259967E-03
      0.265000          0.244561E-03
      0.270000          0.230988E-03
      0.275000          0.219238E-03
      0.280000          0.209257E-03
      0.285000          0.200952E-03
      0.290000          0.194199E-03
      0.295000          0.188852E-03
      0.300000          0.184749E-03
      0.305000          0.181717E-03
      0.310000          0.179578E-03
      0.315000          0.178156E-03
      0.320000          0.177275E-03
      0.325000          0.176768E-03
      0.330000          0.176482E-03
      0.335000          0.176273E-03
      0.340000          0.176016E-03
      0.345000          0.175602E-03
      0.350000          0.174943E-03
      0.355000          0.173970E-03
      0.360000          0.172633E-03
      0.365000          0.170906E-03
      0.370000          0.168777E-03
      0.375000          0.166256E-03
      0.380000          0.163366E-03
      0.385000          0.160146E-03
      0.390000          0.156645E-03
      0.395000          0.152921E-03
      0.400000          0.149038E-03
      0.405000          0.145061E-03
      0.410000          0.141059E-03
      0.415000          0.137093E-03
      0.420000          0.133224E-03
      0.425000          0.129504E-03
      0.430000          0.125978E-03
      0.435000          0.122681E-03
      0.440000          0.119639E-03
      0.445000          0.116868E-03
      0.450000          0.114373E-03
      0.455000          0.112151E-03
      0.460000          0.110191E-03
      0.465000          0.108474E-03
      0.470000          0.106974E-03
      0.475000          0.105663E-03
      0.480000          0.104508E-03
      0.485000          0.103473E-03
      0.490000          0.102525E-03
      0.495000          0.101628E-03
      0.500000          0.100751E-03
