 I_abs(s)[cm^-1]/c[mg/ml]
       0.00000          0.146877E-01
      0.500000E-02      0.146324E-01
      0.100000E-01      0.144678E-01
      0.150000E-01      0.141975E-01
      0.200000E-01      0.138276E-01
      0.250000E-01      0.133663E-01
      0.300000E-01      0.128234E-01
      0.350000E-01      0.122105E-01
      0.400000E-01      0.115400E-01
      0.450000E-01      0.108252E-01
      0.500000E-01      0.100795E-01
      0.550000E-01      0.931627E-02
      0.600000E-01      0.854836E-02
      0.650000E-01      0.778774E-02
      0.700000E-01      0.704522E-02
      0.750000E-01      0.633030E-02
      0.800000E-01      0.565093E-02
      0.850000E-01      0.501349E-02
      0.900000E-01      0.442271E-02
      0.950000E-01      0.388172E-02
      0.100000          0.339217E-02
      0.105000          0.295430E-02
      0.110000          0.256717E-02
      0.115000          0.222877E-02
      0.120000          0.193630E-02
      0.125000          0.168630E-02
      0.130000          0.147488E-02
      0.135000          0.129791E-02
      0.140000          0.115115E-02
      0.145000          0.103041E-02
      0.150000          0.931672E-03
      0.155000          0.851168E-03
      0.160000          0.785456E-03
      0.165000          0.731462E-03
      0.170000          0.686502E-03
      0.175000          0.648294E-03
      0.180000          0.614945E-03
      0.185000          0.584932E-03
      0.190000          0.557076E-03
      0.195000          0.530507E-03
      0.200000          0.504623E-03
      0.205000          0.479052E-03
      0.210000          0.453612E-03
      0.215000          0.428270E-03
      0.220000          0.403107E-03
      0.225000          0.378280E-03
      0.230000          0.353995E-03
      0.235000          0.330479E-03
      0.240000          0.307960E-03
      0.245000          0.286646E-03
      0.250000          0.266712E-03
      0.255000          0.248296E-03
      0.260000          0.231488E-03
      0.265000          0.216335E-03
      0.270000          0.202836E-03
      0.275000          0.190955E-03
      0.280000          0.180619E-03
      0.285000          0.171732E-03
      0.290000          0.164179E-03
      0.295000          0.157834E-03
      0.300000          0.152569E-03
      0.305000          0.148256E-03
      0.310000          0.144773E-03
      0.315000          0.142007E-03
      0.320000          0.139857E-03
      0.325000          0.138228E-03
      0.330000          0.137036E-03
      0.335000          0.136203E-03
      0.340000          0.135656E-03
      0.345000          0.135327E-03
      0.350000          0.135145E-03
      0.355000          0.135046E-03
      0.360000          0.134963E-03
      0.365000          0.134830E-03
      0.370000          0.134586E-03
      0.375000          0.134174E-03
      0.380000          0.133545E-03
      0.385000          0.132657E-03
      0.390000          0.131481E-03
      0.395000          0.130001E-03
      0.400000          0.128215E-03
      0.405000          0.126134E-03
      0.410000          0.123783E-03
      0.415000          0.121200E-03
      0.420000          0.118431E-03
      0.425000          0.115529E-03
      0.430000          0.112554E-03
      0.435000          0.109563E-03
      0.440000          0.106613E-03
      0.445000          0.103757E-03
      0.450000          0.101038E-03
      0.455000          0.984930E-04
      0.460000          0.961480E-04
      0.465000          0.940195E-04
      0.470000          0.921142E-04
      0.475000          0.904297E-04
      0.480000          0.889566E-04
      0.485000          0.876789E-04
      0.490000          0.865766E-04
      0.495000          0.856265E-04
      0.500000          0.848044E-04
