 I_abs(s)[cm^-1]/c[mg/ml]
       0.00000          0.148075E-01
      0.500000E-02      0.147535E-01
      0.100000E-01      0.145928E-01
      0.150000E-01      0.143285E-01
      0.200000E-01      0.139661E-01
      0.250000E-01      0.135129E-01
      0.300000E-01      0.129779E-01
      0.350000E-01      0.123716E-01
      0.400000E-01      0.117054E-01
      0.450000E-01      0.109916E-01
      0.500000E-01      0.102428E-01
      0.550000E-01      0.947174E-02
      0.600000E-01      0.869082E-02
      0.650000E-01      0.791183E-02
      0.700000E-01      0.714570E-02
      0.750000E-01      0.640225E-02
      0.800000E-01      0.569002E-02
      0.850000E-01      0.501614E-02
      0.900000E-01      0.438629E-02
      0.950000E-01      0.380464E-02
      0.100000          0.327391E-02
      0.105000          0.279545E-02
      0.110000          0.236935E-02
      0.115000          0.199458E-02
      0.120000          0.166915E-02
      0.125000          0.139032E-02
      0.130000          0.115473E-02
      0.135000          0.958625E-03
      0.140000          0.797980E-03
      0.145000          0.668682E-03
      0.150000          0.566648E-03
      0.155000          0.487936E-03
      0.160000          0.428830E-03
      0.165000          0.385905E-03
      0.170000          0.356069E-03
      0.175000          0.336582E-03
      0.180000          0.325059E-03
      0.185000          0.319466E-03
      0.190000          0.318094E-03
      0.195000          0.319533E-03
      0.200000          0.322641E-03
      0.205000          0.326508E-03
      0.210000          0.330425E-03
      0.215000          0.333852E-03
      0.220000          0.336386E-03
      0.225000          0.337743E-03
      0.230000          0.337735E-03
      0.235000          0.336253E-03
      0.240000          0.333256E-03
      0.245000          0.328759E-03
      0.250000          0.322827E-03
      0.255000          0.315567E-03
      0.260000          0.307122E-03
      0.265000          0.297665E-03
      0.270000          0.287392E-03
      0.275000          0.276520E-03
      0.280000          0.265270E-03
      0.285000          0.253869E-03
      0.290000          0.242539E-03
      0.295000          0.231484E-03
      0.300000          0.220893E-03
      0.305000          0.210926E-03
      0.310000          0.201712E-03
      0.315000          0.193344E-03
      0.320000          0.185881E-03
      0.325000          0.179343E-03
      0.330000          0.173716E-03
      0.335000          0.168954E-03
      0.340000          0.164984E-03
      0.345000          0.161709E-03
      0.350000          0.159018E-03
      0.355000          0.156791E-03
      0.360000          0.154904E-03
      0.365000          0.153236E-03
      0.370000          0.151676E-03
      0.375000          0.150124E-03
      0.380000          0.148499E-03
      0.385000          0.146739E-03
      0.390000          0.144800E-03
      0.395000          0.142663E-03
      0.400000          0.140325E-03
      0.405000          0.137803E-03
      0.410000          0.135130E-03
      0.415000          0.132349E-03
      0.420000          0.129515E-03
      0.425000          0.126687E-03
      0.430000          0.123925E-03
      0.435000          0.121290E-03
      0.440000          0.118836E-03
      0.445000          0.116611E-03
      0.450000          0.114653E-03
      0.455000          0.112989E-03
      0.460000          0.111633E-03
      0.465000          0.110589E-03
      0.470000          0.109846E-03
      0.475000          0.109383E-03
      0.480000          0.109167E-03
      0.485000          0.109157E-03
      0.490000          0.109305E-03
      0.495000          0.109556E-03
      0.500000          0.109855E-03
