 I_abs(s)[cm^-1]/c[mg/ml]
       0.00000          0.143313E-01
      0.500000E-02      0.142602E-01
      0.100000E-01      0.140493E-01
      0.150000E-01      0.137052E-01
      0.200000E-01      0.132387E-01
      0.250000E-01      0.126640E-01
      0.300000E-01      0.119982E-01
      0.350000E-01      0.112603E-01
      0.400000E-01      0.104702E-01
      0.450000E-01      0.964822E-02
      0.500000E-01      0.881382E-02
      0.550000E-01      0.798506E-02
      0.600000E-01      0.717793E-02
      0.650000E-01      0.640597E-02
      0.700000E-01      0.567994E-02
      0.750000E-01      0.500775E-02
      0.800000E-01      0.439452E-02
      0.850000E-01      0.384279E-02
      0.900000E-01      0.335280E-02
      0.950000E-01      0.292287E-02
      0.100000          0.254980E-02
      0.105000          0.222929E-02
      0.110000          0.195634E-02
      0.115000          0.172559E-02
      0.120000          0.153162E-02
      0.125000          0.136919E-02
      0.130000          0.123342E-02
      0.135000          0.111988E-02
      0.140000          0.102466E-02
      0.145000          0.944423E-03
      0.150000          0.876324E-03
      0.155000          0.818022E-03
      0.160000          0.767603E-03
      0.165000          0.723526E-03
      0.170000          0.684556E-03
      0.175000          0.649708E-03
      0.180000          0.618197E-03
      0.185000          0.589388E-03
      0.190000          0.562766E-03
      0.195000          0.537906E-03
      0.200000          0.514456E-03
      0.205000          0.492126E-03
      0.210000          0.470678E-03
      0.215000          0.449931E-03
      0.220000          0.429755E-03
      0.225000          0.410073E-03
      0.230000          0.390864E-03
      0.235000          0.372158E-03
      0.240000          0.354027E-03
      0.245000          0.336583E-03
      0.250000          0.319961E-03
      0.255000          0.304302E-03
      0.260000          0.289741E-03
      0.265000          0.276388E-03
      0.270000          0.264316E-03
      0.275000          0.253545E-03
      0.280000          0.244041E-03
      0.285000          0.235713E-03
      0.290000          0.228417E-03
      0.295000          0.221967E-03
      0.300000          0.216149E-03
      0.305000          0.210739E-03
      0.310000          0.205520E-03
      0.315000          0.200299E-03
      0.320000          0.194923E-03
      0.325000          0.189290E-03
      0.330000          0.183350E-03
      0.335000          0.177112E-03
      0.340000          0.170632E-03
      0.345000          0.164010E-03
      0.350000          0.157373E-03
      0.355000          0.150861E-03
      0.360000          0.144615E-03
      0.365000          0.138761E-03
      0.370000          0.133401E-03
      0.375000          0.128604E-03
      0.380000          0.124404E-03
      0.385000          0.120800E-03
      0.390000          0.117756E-03
      0.395000          0.115214E-03
      0.400000          0.113096E-03
      0.405000          0.111313E-03
      0.410000          0.109779E-03
      0.415000          0.108411E-03
      0.420000          0.107141E-03
      0.425000          0.105916E-03
      0.430000          0.104700E-03
      0.435000          0.103476E-03
      0.440000          0.102241E-03
      0.445000          0.101004E-03
      0.450000          0.997795E-04
      0.455000          0.985873E-04
      0.460000          0.974454E-04
      0.465000          0.963674E-04
      0.470000          0.953610E-04
      0.475000          0.944260E-04
      0.480000          0.935548E-04
      0.485000          0.927333E-04
      0.490000          0.919430E-04
      0.495000          0.911625E-04
      0.500000          0.903707E-04
