 I_abs(s)[cm^-1]/c[mg/ml]
       0.00000          0.148957E-01
      0.500000E-02      0.148387E-01
      0.100000E-01      0.146692E-01
      0.150000E-01      0.143907E-01
      0.200000E-01      0.140093E-01
      0.250000E-01      0.135332E-01
      0.300000E-01      0.129724E-01
      0.350000E-01      0.123383E-01
      0.400000E-01      0.116438E-01
      0.450000E-01      0.109021E-01
      0.500000E-01      0.101271E-01
      0.550000E-01      0.933253E-02
      0.600000E-01      0.853166E-02
      0.650000E-01      0.773700E-02
      0.700000E-01      0.695995E-02
      0.750000E-01      0.621060E-02
      0.800000E-01      0.549753E-02
      0.850000E-01      0.482768E-02
      0.900000E-01      0.420632E-02
      0.950000E-01      0.363705E-02
      0.100000          0.312189E-02
      0.105000          0.266137E-02
      0.110000          0.225470E-02
      0.115000          0.189995E-02
      0.120000          0.159429E-02
      0.125000          0.133416E-02
      0.130000          0.111551E-02
      0.135000          0.934006E-03
      0.140000          0.785181E-03
      0.145000          0.664637E-03
      0.150000          0.568155E-03
      0.155000          0.491804E-03
      0.160000          0.432018E-03
      0.165000          0.385636E-03
      0.170000          0.349927E-03
      0.175000          0.322584E-03
      0.180000          0.301706E-03
      0.185000          0.285762E-03
      0.190000          0.273546E-03
      0.195000          0.264133E-03
      0.200000          0.256822E-03
      0.205000          0.251097E-03
      0.210000          0.246576E-03
      0.215000          0.242978E-03
      0.220000          0.240092E-03
      0.225000          0.237752E-03
      0.230000          0.235824E-03
      0.235000          0.234190E-03
      0.240000          0.232749E-03
      0.245000          0.231408E-03
      0.250000          0.230091E-03
      0.255000          0.228732E-03
      0.260000          0.227282E-03
      0.265000          0.225710E-03
      0.270000          0.224002E-03
      0.275000          0.222159E-03
      0.280000          0.220197E-03
      0.285000          0.218144E-03
      0.290000          0.216032E-03
      0.295000          0.213896E-03
      0.300000          0.211769E-03
      0.305000          0.209675E-03
      0.310000          0.207631E-03
      0.315000          0.205643E-03
      0.320000          0.203702E-03
      0.325000          0.201791E-03
      0.330000          0.199884E-03
      0.335000          0.197945E-03
      0.340000          0.195938E-03
      0.345000          0.193828E-03
      0.350000          0.191584E-03
      0.355000          0.189180E-03
      0.360000          0.186605E-03
      0.365000          0.183856E-03
      0.370000          0.180944E-03
      0.375000          0.177893E-03
      0.380000          0.174736E-03
      0.385000          0.171516E-03
      0.390000          0.168282E-03
      0.395000          0.165084E-03
      0.400000          0.161974E-03
      0.405000          0.158997E-03
      0.410000          0.156192E-03
      0.415000          0.153589E-03
      0.420000          0.151205E-03
      0.425000          0.149047E-03
      0.430000          0.147108E-03
      0.435000          0.145368E-03
      0.440000          0.143799E-03
      0.445000          0.142362E-03
      0.450000          0.141013E-03
      0.455000          0.139702E-03
      0.460000          0.138380E-03
      0.465000          0.136998E-03
      0.470000          0.135509E-03
      0.475000          0.133875E-03
      0.480000          0.132063E-03
      0.485000          0.130048E-03
      0.490000          0.127815E-03
      0.495000          0.125358E-03
      0.500000          0.122680E-03
