 I_abs(s)[cm^-1]/c[mg/ml]
       0.00000          0.144496E-01
      0.500000E-02      0.144028E-01
      0.100000E-01      0.142632E-01
      0.150000E-01      0.140336E-01
      0.200000E-01      0.137185E-01
      0.250000E-01      0.133237E-01
      0.300000E-01      0.128567E-01
      0.350000E-01      0.123260E-01
      0.400000E-01      0.117411E-01
      0.450000E-01      0.111120E-01
      0.500000E-01      0.104492E-01
      0.550000E-01      0.976312E-02
      0.600000E-01      0.906417E-02
      0.650000E-01      0.836216E-02
      0.700000E-01      0.766628E-02
      0.750000E-01      0.698488E-02
      0.800000E-01      0.632533E-02
      0.850000E-01      0.569389E-02
      0.900000E-01      0.509569E-02
      0.950000E-01      0.453472E-02
      0.100000          0.401379E-02
      0.105000          0.353466E-02
      0.110000          0.309806E-02
      0.115000          0.270384E-02
      0.120000          0.235105E-02
      0.125000          0.203811E-02
      0.130000          0.176290E-02
      0.135000          0.152291E-02
      0.140000          0.131537E-02
      0.145000          0.113734E-02
      0.150000          0.985819E-03
      0.155000          0.857842E-03
      0.160000          0.750530E-03
      0.165000          0.661157E-03
      0.170000          0.587179E-03
      0.175000          0.526271E-03
      0.180000          0.476333E-03
      0.185000          0.435498E-03
      0.190000          0.402130E-03
      0.195000          0.374811E-03
      0.200000          0.352328E-03
      0.205000          0.333661E-03
      0.210000          0.317956E-03
      0.215000          0.304515E-03
      0.220000          0.292772E-03
      0.225000          0.282277E-03
      0.230000          0.272682E-03
      0.235000          0.263721E-03
      0.240000          0.255202E-03
      0.245000          0.246992E-03
      0.250000          0.239007E-03
      0.255000          0.231200E-03
      0.260000          0.223558E-03
      0.265000          0.216088E-03
      0.270000          0.208818E-03
      0.275000          0.201782E-03
      0.280000          0.195022E-03
      0.285000          0.188582E-03
      0.290000          0.182501E-03
      0.295000          0.176816E-03
      0.300000          0.171554E-03
      0.305000          0.166733E-03
      0.310000          0.162361E-03
      0.315000          0.158436E-03
      0.320000          0.154942E-03
      0.325000          0.151858E-03
      0.330000          0.149149E-03
      0.335000          0.146774E-03
      0.340000          0.144688E-03
      0.345000          0.142838E-03
      0.350000          0.141171E-03
      0.355000          0.139631E-03
      0.360000          0.138165E-03
      0.365000          0.136722E-03
      0.370000          0.135253E-03
      0.375000          0.133719E-03
      0.380000          0.132082E-03
      0.385000          0.130315E-03
      0.390000          0.128397E-03
      0.395000          0.126316E-03
      0.400000          0.124066E-03
      0.405000          0.121651E-03
      0.410000          0.119080E-03
      0.415000          0.116370E-03
      0.420000          0.113544E-03
      0.425000          0.110629E-03
      0.430000          0.107657E-03
      0.435000          0.104661E-03
      0.440000          0.101677E-03
      0.445000          0.987418E-04
      0.450000          0.958900E-04
      0.455000          0.931556E-04
      0.460000          0.905694E-04
      0.465000          0.881586E-04
      0.470000          0.859458E-04
      0.475000          0.839488E-04
      0.480000          0.821796E-04
      0.485000          0.806446E-04
      0.490000          0.793447E-04
      0.495000          0.782749E-04
      0.500000          0.774255E-04
