 I_abs(s)[cm^-1]/c[mg/ml]
       0.00000          0.148876E-01
      0.500000E-02      0.148362E-01
      0.100000E-01      0.146830E-01
      0.150000E-01      0.144310E-01
      0.200000E-01      0.140852E-01
      0.250000E-01      0.136523E-01
      0.300000E-01      0.131407E-01
      0.350000E-01      0.125599E-01
      0.400000E-01      0.119206E-01
      0.450000E-01      0.112341E-01
      0.500000E-01      0.105123E-01
      0.550000E-01      0.976699E-02
      0.600000E-01      0.900984E-02
      0.650000E-01      0.825199E-02
      0.700000E-01      0.750382E-02
      0.750000E-01      0.677472E-02
      0.800000E-01      0.607296E-02
      0.850000E-01      0.540549E-02
      0.900000E-01      0.477796E-02
      0.950000E-01      0.419459E-02
      0.100000          0.365829E-02
      0.105000          0.317063E-02
      0.110000          0.273201E-02
      0.115000          0.234175E-02
      0.120000          0.199821E-02
      0.125000          0.169903E-02
      0.130000          0.144123E-02
      0.135000          0.122139E-02
      0.140000          0.103582E-02
      0.145000          0.880743E-03
      0.150000          0.752350E-03
      0.155000          0.646972E-03
      0.160000          0.561147E-03
      0.165000          0.491692E-03
      0.170000          0.435745E-03
      0.175000          0.390793E-03
      0.180000          0.354678E-03
      0.185000          0.325585E-03
      0.190000          0.302025E-03
      0.195000          0.282803E-03
      0.200000          0.266977E-03
      0.205000          0.253826E-03
      0.210000          0.242802E-03
      0.215000          0.233498E-03
      0.220000          0.225610E-03
      0.225000          0.218908E-03
      0.230000          0.213210E-03
      0.235000          0.208367E-03
      0.240000          0.204247E-03
      0.245000          0.200726E-03
      0.250000          0.197685E-03
      0.255000          0.195012E-03
      0.260000          0.192597E-03
      0.265000          0.190344E-03
      0.270000          0.188167E-03
      0.275000          0.185996E-03
      0.280000          0.183782E-03
      0.285000          0.181496E-03
      0.290000          0.179130E-03
      0.295000          0.176696E-03
      0.300000          0.174223E-03
      0.305000          0.171755E-03
      0.310000          0.169345E-03
      0.315000          0.167049E-03
      0.320000          0.164926E-03
      0.325000          0.163028E-03
      0.330000          0.161399E-03
      0.335000          0.160071E-03
      0.340000          0.159061E-03
      0.345000          0.158370E-03
      0.350000          0.157985E-03
      0.355000          0.157877E-03
      0.360000          0.158003E-03
      0.365000          0.158311E-03
      0.370000          0.158740E-03
      0.375000          0.159224E-03
      0.380000          0.159695E-03
      0.385000          0.160090E-03
      0.390000          0.160347E-03
      0.395000          0.160413E-03
      0.400000          0.160243E-03
      0.405000          0.159805E-03
      0.410000          0.159076E-03
      0.415000          0.158043E-03
      0.420000          0.156708E-03
      0.425000          0.155079E-03
      0.430000          0.153176E-03
      0.435000          0.151025E-03
      0.440000          0.148656E-03
      0.445000          0.146106E-03
      0.450000          0.143413E-03
      0.455000          0.140613E-03
      0.460000          0.137746E-03
      0.465000          0.134845E-03
      0.470000          0.131942E-03
      0.475000          0.129066E-03
      0.480000          0.126240E-03
      0.485000          0.123484E-03
      0.490000          0.120812E-03
      0.495000          0.118235E-03
      0.500000          0.115759E-03
