 I_abs(s)[cm^-1]/c[mg/ml]
       0.00000          0.148636E-01
      0.500000E-02      0.147998E-01
      0.100000E-01      0.146102E-01
      0.150000E-01      0.142999E-01
      0.200000E-01      0.138770E-01
      0.250000E-01      0.133524E-01
      0.300000E-01      0.127395E-01
      0.350000E-01      0.120534E-01
      0.400000E-01      0.113103E-01
      0.450000E-01      0.105269E-01
      0.500000E-01      0.972013E-02
      0.550000E-01      0.890599E-02
      0.600000E-01      0.809942E-02
      0.650000E-01      0.731375E-02
      0.700000E-01      0.656036E-02
      0.750000E-01      0.584849E-02
      0.800000E-01      0.518511E-02
      0.850000E-01      0.457494E-02
      0.900000E-01      0.402056E-02
      0.950000E-01      0.352257E-02
      0.100000          0.307992E-02
      0.105000          0.269013E-02
      0.110000          0.234967E-02
      0.115000          0.205429E-02
      0.120000          0.179932E-02
      0.125000          0.157999E-02
      0.130000          0.139161E-02
      0.135000          0.122981E-02
      0.140000          0.109067E-02
      0.145000          0.970761E-03
      0.150000          0.867219E-03
      0.155000          0.777698E-03
      0.160000          0.700331E-03
      0.165000          0.633659E-03
      0.170000          0.576537E-03
      0.175000          0.528047E-03
      0.180000          0.487413E-03
      0.185000          0.453926E-03
      0.190000          0.426887E-03
      0.195000          0.405572E-03
      0.200000          0.389208E-03
      0.205000          0.376982E-03
      0.210000          0.368047E-03
      0.215000          0.361554E-03
      0.220000          0.356683E-03
      0.225000          0.352677E-03
      0.230000          0.348874E-03
      0.235000          0.344734E-03
      0.240000          0.339854E-03
      0.245000          0.333981E-03
      0.250000          0.327002E-03
      0.255000          0.318938E-03
      0.260000          0.309921E-03
      0.265000          0.300167E-03
      0.270000          0.289945E-03
      0.275000          0.279552E-03
      0.280000          0.269276E-03
      0.285000          0.259377E-03
      0.290000          0.250064E-03
      0.295000          0.241483E-03
      0.300000          0.233708E-03
      0.305000          0.226746E-03
      0.310000          0.220539E-03
      0.315000          0.214977E-03
      0.320000          0.209910E-03
      0.325000          0.205169E-03
      0.330000          0.200578E-03
      0.335000          0.195972E-03
      0.340000          0.191212E-03
      0.345000          0.186189E-03
      0.350000          0.180841E-03
      0.355000          0.175146E-03
      0.360000          0.169127E-03
      0.365000          0.162846E-03
      0.370000          0.156400E-03
      0.375000          0.149908E-03
      0.380000          0.143507E-03
      0.385000          0.137335E-03
      0.390000          0.131529E-03
      0.395000          0.126210E-03
      0.400000          0.121479E-03
      0.405000          0.117413E-03
      0.410000          0.114057E-03
      0.415000          0.111426E-03
      0.420000          0.109506E-03
      0.425000          0.108253E-03
      0.430000          0.107600E-03
      0.435000          0.107459E-03
      0.440000          0.107726E-03
      0.445000          0.108290E-03
      0.450000          0.109036E-03
      0.455000          0.109850E-03
      0.460000          0.110626E-03
      0.465000          0.111267E-03
      0.470000          0.111694E-03
      0.475000          0.111842E-03
      0.480000          0.111665E-03
      0.485000          0.111137E-03
      0.490000          0.110250E-03
      0.495000          0.109016E-03
      0.500000          0.107459E-03
