 I_abs(s)[cm^-1]/c[mg/ml]
       0.00000          0.142134E-01
      0.500000E-02      0.141213E-01
      0.100000E-01      0.138489E-01
      0.150000E-01      0.134079E-01
      0.200000E-01      0.128168E-01
      0.250000E-01      0.120999E-01
      0.300000E-01      0.112851E-01
      0.350000E-01      0.104023E-01
      0.400000E-01      0.948172E-02
      0.450000E-01      0.855189E-02
      0.500000E-01      0.763835E-02
      0.550000E-01      0.676256E-02
      0.600000E-01      0.594124E-02
      0.650000E-01      0.518616E-02
      0.700000E-01      0.450435E-02
      0.750000E-01      0.389860E-02
      0.800000E-01      0.336813E-02
      0.850000E-01      0.290946E-02
      0.900000E-01      0.251724E-02
      0.950000E-01      0.218502E-02
      0.100000          0.190588E-02
      0.105000          0.167293E-02
      0.110000          0.147963E-02
      0.115000          0.131994E-02
      0.120000          0.118842E-02
      0.125000          0.108019E-02
      0.130000          0.990864E-03
      0.135000          0.916558E-03
      0.140000          0.853799E-03
      0.145000          0.799549E-03
      0.150000          0.751220E-03
      0.155000          0.706704E-03
      0.160000          0.664411E-03
      0.165000          0.623282E-03
      0.170000          0.582775E-03
      0.175000          0.542816E-03
      0.180000          0.503717E-03
      0.185000          0.466060E-03
      0.190000          0.430575E-03
      0.195000          0.398011E-03
      0.200000          0.369023E-03
      0.205000          0.344087E-03
      0.210000          0.323448E-03
      0.215000          0.307098E-03
      0.220000          0.294801E-03
      0.225000          0.286123E-03
      0.230000          0.280500E-03
      0.235000          0.277292E-03
      0.240000          0.275852E-03
      0.245000          0.275567E-03
      0.250000          0.275902E-03
      0.255000          0.276411E-03
      0.260000          0.276753E-03
      0.265000          0.276681E-03
      0.270000          0.276037E-03
      0.275000          0.274738E-03
      0.280000          0.272760E-03
      0.285000          0.270133E-03
      0.290000          0.266929E-03
      0.295000          0.263253E-03
      0.300000          0.259234E-03
      0.305000          0.255019E-03
      0.310000          0.250756E-03
      0.315000          0.246582E-03
      0.320000          0.242613E-03
      0.325000          0.238923E-03
      0.330000          0.235545E-03
      0.335000          0.232455E-03
      0.340000          0.229586E-03
      0.345000          0.226824E-03
      0.350000          0.224032E-03
      0.355000          0.221062E-03
      0.360000          0.217772E-03
      0.365000          0.214048E-03
      0.370000          0.209814E-03
      0.375000          0.205042E-03
      0.380000          0.199754E-03
      0.385000          0.194013E-03
      0.390000          0.187923E-03
      0.395000          0.181608E-03
      0.400000          0.175204E-03
      0.405000          0.168843E-03
      0.410000          0.162645E-03
      0.415000          0.156709E-03
      0.420000          0.151112E-03
      0.425000          0.145904E-03
      0.430000          0.141116E-03
      0.435000          0.136760E-03
      0.440000          0.132832E-03
      0.445000          0.129318E-03
      0.450000          0.126194E-03
      0.455000          0.123428E-03
      0.460000          0.120982E-03
      0.465000          0.118811E-03
      0.470000          0.116863E-03
      0.475000          0.115085E-03
      0.480000          0.113420E-03
      0.485000          0.111817E-03
      0.490000          0.110231E-03
      0.495000          0.108629E-03
      0.500000          0.106989E-03
