 I_abs(s)[cm^-1]/c[mg/ml]
       0.00000          0.148876E-01
      0.500000E-02      0.148321E-01
      0.100000E-01      0.146665E-01
      0.150000E-01      0.143943E-01
      0.200000E-01      0.140209E-01
      0.250000E-01      0.135538E-01
      0.300000E-01      0.130023E-01
      0.350000E-01      0.123770E-01
      0.400000E-01      0.116897E-01
      0.450000E-01      0.109531E-01
      0.500000E-01      0.101802E-01
      0.550000E-01      0.938414E-02
      0.600000E-01      0.857798E-02
      0.650000E-01      0.777405E-02
      0.700000E-01      0.698388E-02
      0.750000E-01      0.621789E-02
      0.800000E-01      0.548522E-02
      0.850000E-01      0.479356E-02
      0.900000E-01      0.414906E-02
      0.950000E-01      0.355633E-02
      0.100000          0.301838E-02
      0.105000          0.253678E-02
      0.110000          0.211167E-02
      0.115000          0.174198E-02
      0.120000          0.142551E-02
      0.125000          0.115921E-02
      0.130000          0.939282E-03
      0.135000          0.761434E-03
      0.140000          0.621042E-03
      0.145000          0.513331E-03
      0.150000          0.433540E-03
      0.155000          0.377049E-03
      0.160000          0.339503E-03
      0.165000          0.316894E-03
      0.170000          0.305627E-03
      0.175000          0.302555E-03
      0.180000          0.305002E-03
      0.185000          0.310754E-03
      0.190000          0.318042E-03
      0.195000          0.325510E-03
      0.200000          0.332171E-03
      0.205000          0.337358E-03
      0.210000          0.340675E-03
      0.215000          0.341946E-03
      0.220000          0.341161E-03
      0.225000          0.338438E-03
      0.230000          0.333977E-03
      0.235000          0.328029E-03
      0.240000          0.320866E-03
      0.245000          0.312764E-03
      0.250000          0.303981E-03
      0.255000          0.294754E-03
      0.260000          0.285287E-03
      0.265000          0.275754E-03
      0.270000          0.266294E-03
      0.275000          0.257019E-03
      0.280000          0.248011E-03
      0.285000          0.239333E-03
      0.290000          0.231028E-03
      0.295000          0.223125E-03
      0.300000          0.215639E-03
      0.305000          0.208579E-03
      0.310000          0.201946E-03
      0.315000          0.195735E-03
      0.320000          0.189937E-03
      0.325000          0.184537E-03
      0.330000          0.179519E-03
      0.335000          0.174862E-03
      0.340000          0.170543E-03
      0.345000          0.166534E-03
      0.350000          0.162809E-03
      0.355000          0.159336E-03
      0.360000          0.156087E-03
      0.365000          0.153030E-03
      0.370000          0.150136E-03
      0.375000          0.147378E-03
      0.380000          0.144730E-03
      0.385000          0.142169E-03
      0.390000          0.139677E-03
      0.395000          0.137238E-03
      0.400000          0.134840E-03
      0.405000          0.132475E-03
      0.410000          0.130138E-03
      0.415000          0.127829E-03
      0.420000          0.125547E-03
      0.425000          0.123297E-03
      0.430000          0.121084E-03
      0.435000          0.118914E-03
      0.440000          0.116797E-03
      0.445000          0.114739E-03
      0.450000          0.112749E-03
      0.455000          0.110836E-03
      0.460000          0.109008E-03
      0.465000          0.107272E-03
      0.470000          0.105633E-03
      0.475000          0.104095E-03
      0.480000          0.102663E-03
      0.485000          0.101336E-03
      0.490000          0.100113E-03
      0.495000          0.989918E-04
      0.500000          0.979659E-04
