 I_abs(s)[cm^-1]/c[mg/ml]
       0.00000          0.147116E-01
      0.500000E-02      0.146574E-01
      0.100000E-01      0.144959E-01
      0.150000E-01      0.142305E-01
      0.200000E-01      0.138671E-01
      0.250000E-01      0.134131E-01
      0.300000E-01      0.128781E-01
      0.350000E-01      0.122729E-01
      0.400000E-01      0.116093E-01
      0.450000E-01      0.109000E-01
      0.500000E-01      0.101578E-01
      0.550000E-01      0.939577E-02
      0.600000E-01      0.862622E-02
      0.650000E-01      0.786089E-02
      0.700000E-01      0.711050E-02
      0.750000E-01      0.638453E-02
      0.800000E-01      0.569107E-02
      0.850000E-01      0.503673E-02
      0.900000E-01      0.442658E-02
      0.950000E-01      0.386420E-02
      0.100000          0.335169E-02
      0.105000          0.288984E-02
      0.110000          0.247824E-02
      0.115000          0.211545E-02
      0.120000          0.179919E-02
      0.125000          0.152653E-02
      0.130000          0.129404E-02
      0.135000          0.109803E-02
      0.140000          0.934644E-03
      0.145000          0.800011E-03
      0.150000          0.690378E-03
      0.155000          0.602183E-03
      0.160000          0.532119E-03
      0.165000          0.477178E-03
      0.170000          0.434675E-03
      0.175000          0.402250E-03
      0.180000          0.377864E-03
      0.185000          0.359776E-03
      0.190000          0.346523E-03
      0.195000          0.336889E-03
      0.200000          0.329874E-03
      0.205000          0.324669E-03
      0.210000          0.320623E-03
      0.215000          0.317224E-03
      0.220000          0.314074E-03
      0.225000          0.310872E-03
      0.230000          0.307400E-03
      0.235000          0.303508E-03
      0.240000          0.299106E-03
      0.245000          0.294150E-03
      0.250000          0.288641E-03
      0.255000          0.282608E-03
      0.260000          0.276108E-03
      0.265000          0.269217E-03
      0.270000          0.262020E-03
      0.275000          0.254609E-03
      0.280000          0.247075E-03
      0.285000          0.239504E-03
      0.290000          0.231973E-03
      0.295000          0.224545E-03
      0.300000          0.217274E-03
      0.305000          0.210196E-03
      0.310000          0.203336E-03
      0.315000          0.196706E-03
      0.320000          0.190310E-03
      0.325000          0.184144E-03
      0.330000          0.178198E-03
      0.335000          0.172464E-03
      0.340000          0.166931E-03
      0.345000          0.161593E-03
      0.350000          0.156446E-03
      0.355000          0.151493E-03
      0.360000          0.146739E-03
      0.365000          0.142194E-03
      0.370000          0.137873E-03
      0.375000          0.133792E-03
      0.380000          0.129968E-03
      0.385000          0.126418E-03
      0.390000          0.123155E-03
      0.395000          0.120192E-03
      0.400000          0.117538E-03
      0.405000          0.115194E-03
      0.410000          0.113161E-03
      0.415000          0.111433E-03
      0.420000          0.110000E-03
      0.425000          0.108847E-03
      0.430000          0.107957E-03
      0.435000          0.107311E-03
      0.440000          0.106886E-03
      0.445000          0.106659E-03
      0.450000          0.106604E-03
      0.455000          0.106698E-03
      0.460000          0.106914E-03
      0.465000          0.107226E-03
      0.470000          0.107609E-03
      0.475000          0.108038E-03
      0.480000          0.108488E-03
      0.485000          0.108934E-03
      0.490000          0.109352E-03
      0.495000          0.109719E-03
      0.500000          0.110014E-03
