 I_abs(s)[cm^-1]/c[mg/ml]
       0.00000          0.137932E-01
      0.500000E-02      0.137023E-01
      0.100000E-01      0.134332E-01
      0.150000E-01      0.129970E-01
      0.200000E-01      0.124113E-01
      0.250000E-01      0.116992E-01
      0.300000E-01      0.108879E-01
      0.350000E-01      0.100069E-01
      0.400000E-01      0.908682E-02
      0.450000E-01      0.815727E-02
      0.500000E-01      0.724553E-02
      0.550000E-01      0.637534E-02
      0.600000E-01      0.556589E-02
      0.650000E-01      0.483136E-02
      0.700000E-01      0.418066E-02
      0.750000E-01      0.361764E-02
      0.800000E-01      0.314153E-02
      0.850000E-01      0.274770E-02
      0.900000E-01      0.242847E-02
      0.950000E-01      0.217412E-02
      0.100000          0.197380E-02
      0.105000          0.181641E-02
      0.110000          0.169134E-02
      0.115000          0.158907E-02
      0.120000          0.150155E-02
      0.125000          0.142240E-02
      0.130000          0.134701E-02
      0.135000          0.127236E-02
      0.140000          0.119692E-02
      0.145000          0.112030E-02
      0.150000          0.104297E-02
      0.155000          0.965990E-03
      0.160000          0.890689E-03
      0.165000          0.818457E-03
      0.170000          0.750552E-03
      0.175000          0.687985E-03
      0.180000          0.631441E-03
      0.185000          0.581263E-03
      0.190000          0.537463E-03
      0.195000          0.499765E-03
      0.200000          0.467665E-03
      0.205000          0.440492E-03
      0.210000          0.417483E-03
      0.215000          0.397839E-03
      0.220000          0.380781E-03
      0.225000          0.365597E-03
      0.230000          0.351670E-03
      0.235000          0.338502E-03
      0.240000          0.325725E-03
      0.245000          0.313099E-03
      0.250000          0.300510E-03
      0.255000          0.287951E-03
      0.260000          0.275500E-03
      0.265000          0.263301E-03
      0.270000          0.251536E-03
      0.275000          0.240397E-03
      0.280000          0.230064E-03
      0.285000          0.220686E-03
      0.290000          0.212368E-03
      0.295000          0.205157E-03
      0.300000          0.199047E-03
      0.305000          0.193982E-03
      0.310000          0.189861E-03
      0.315000          0.186556E-03
      0.320000          0.183921E-03
      0.325000          0.181812E-03
      0.330000          0.180093E-03
      0.335000          0.178649E-03
      0.340000          0.177387E-03
      0.345000          0.176242E-03
      0.350000          0.175171E-03
      0.355000          0.174147E-03
      0.360000          0.173154E-03
      0.365000          0.172180E-03
      0.370000          0.171210E-03
      0.375000          0.170224E-03
      0.380000          0.169190E-03
      0.385000          0.168072E-03
      0.390000          0.166831E-03
      0.395000          0.165427E-03
      0.400000          0.163826E-03
      0.405000          0.162007E-03
      0.410000          0.159965E-03
      0.415000          0.157710E-03
      0.420000          0.155269E-03
      0.425000          0.152684E-03
      0.430000          0.150003E-03
      0.435000          0.147280E-03
      0.440000          0.144562E-03
      0.445000          0.141888E-03
      0.450000          0.139284E-03
      0.455000          0.136758E-03
      0.460000          0.134300E-03
      0.465000          0.131888E-03
      0.470000          0.129486E-03
      0.475000          0.127056E-03
      0.480000          0.124559E-03
      0.485000          0.121965E-03
      0.490000          0.119255E-03
      0.495000          0.116426E-03
      0.500000          0.113493E-03
