 I_abs(s)[cm^-1]/c[mg/ml]
       0.00000          0.148075E-01
      0.500000E-02      0.147441E-01
      0.100000E-01      0.145553E-01
      0.150000E-01      0.142463E-01
      0.200000E-01      0.138249E-01
      0.250000E-01      0.133018E-01
      0.300000E-01      0.126899E-01
      0.350000E-01      0.120042E-01
      0.400000E-01      0.112604E-01
      0.450000E-01      0.104753E-01
      0.500000E-01      0.966530E-02
      0.550000E-01      0.884652E-02
      0.600000E-01      0.803390E-02
      0.650000E-01      0.724087E-02
      0.700000E-01      0.647907E-02
      0.750000E-01      0.575801E-02
      0.800000E-01      0.508503E-02
      0.850000E-01      0.446524E-02
      0.900000E-01      0.390160E-02
      0.950000E-01      0.339510E-02
      0.100000          0.294499E-02
      0.105000          0.254903E-02
      0.110000          0.220387E-02
      0.115000          0.190533E-02
      0.120000          0.164874E-02
      0.125000          0.142919E-02
      0.130000          0.124187E-02
      0.135000          0.108219E-02
      0.140000          0.945976E-03
      0.145000          0.829584E-03
      0.150000          0.729924E-03
      0.155000          0.644476E-03
      0.160000          0.571254E-03
      0.165000          0.508735E-03
      0.170000          0.455782E-03
      0.175000          0.411540E-03
      0.180000          0.375345E-03
      0.185000          0.346636E-03
      0.190000          0.324876E-03
      0.195000          0.309495E-03
      0.200000          0.299855E-03
      0.205000          0.295231E-03
      0.210000          0.294807E-03
      0.215000          0.297703E-03
      0.220000          0.302992E-03
      0.225000          0.309747E-03
      0.230000          0.317073E-03
      0.235000          0.324149E-03
      0.240000          0.330264E-03
      0.245000          0.334841E-03
      0.250000          0.337455E-03
      0.255000          0.337841E-03
      0.260000          0.335893E-03
      0.265000          0.331649E-03
      0.270000          0.325274E-03
      0.275000          0.317031E-03
      0.280000          0.307259E-03
      0.285000          0.296335E-03
      0.290000          0.284654E-03
      0.295000          0.272595E-03
      0.300000          0.260506E-03
      0.305000          0.248681E-03
      0.310000          0.237358E-03
      0.315000          0.226707E-03
      0.320000          0.216832E-03
      0.325000          0.207778E-03
      0.330000          0.199536E-03
      0.335000          0.192059E-03
      0.340000          0.185268E-03
      0.345000          0.179067E-03
      0.350000          0.173353E-03
      0.355000          0.168031E-03
      0.360000          0.163013E-03
      0.365000          0.158232E-03
      0.370000          0.153640E-03
      0.375000          0.149209E-03
      0.380000          0.144935E-03
      0.385000          0.140828E-03
      0.390000          0.136912E-03
      0.395000          0.133222E-03
      0.400000          0.129795E-03
      0.405000          0.126667E-03
      0.410000          0.123871E-03
      0.415000          0.121430E-03
      0.420000          0.119356E-03
      0.425000          0.117651E-03
      0.430000          0.116302E-03
      0.435000          0.115285E-03
      0.440000          0.114567E-03
      0.445000          0.114103E-03
      0.450000          0.113845E-03
      0.455000          0.113738E-03
      0.460000          0.113729E-03
      0.465000          0.113764E-03
      0.470000          0.113794E-03
      0.475000          0.113774E-03
      0.480000          0.113667E-03
      0.485000          0.113444E-03
      0.490000          0.113081E-03
      0.495000          0.112565E-03
      0.500000          0.111889E-03
