 I_abs(s)[cm^-1]/c[mg/ml]
       0.00000          0.148716E-01
      0.500000E-02      0.148199E-01
      0.100000E-01      0.146660E-01
      0.150000E-01      0.144130E-01
      0.200000E-01      0.140661E-01
      0.250000E-01      0.136323E-01
      0.300000E-01      0.131202E-01
      0.350000E-01      0.125398E-01
      0.400000E-01      0.119021E-01
      0.450000E-01      0.112187E-01
      0.500000E-01      0.105016E-01
      0.550000E-01      0.976288E-02
      0.600000E-01      0.901428E-02
      0.650000E-01      0.826689E-02
      0.700000E-01      0.753095E-02
      0.750000E-01      0.681561E-02
      0.800000E-01      0.612877E-02
      0.850000E-01      0.547699E-02
      0.900000E-01      0.486539E-02
      0.950000E-01      0.429770E-02
      0.100000          0.377624E-02
      0.105000          0.330209E-02
      0.110000          0.287514E-02
      0.115000          0.249428E-02
      0.120000          0.215757E-02
      0.125000          0.186238E-02
      0.130000          0.160563E-02
      0.135000          0.138390E-02
      0.140000          0.119364E-02
      0.145000          0.103128E-02
      0.150000          0.893349E-03
      0.155000          0.776590E-03
      0.160000          0.678011E-03
      0.165000          0.594934E-03
      0.170000          0.525017E-03
      0.175000          0.466254E-03
      0.180000          0.416959E-03
      0.185000          0.375739E-03
      0.190000          0.341456E-03
      0.195000          0.313182E-03
      0.200000          0.290159E-03
      0.205000          0.271752E-03
      0.210000          0.257417E-03
      0.215000          0.246661E-03
      0.220000          0.239023E-03
      0.225000          0.234054E-03
      0.230000          0.231306E-03
      0.235000          0.230332E-03
      0.240000          0.230684E-03
      0.245000          0.231924E-03
      0.250000          0.233631E-03
      0.255000          0.235413E-03
      0.260000          0.236922E-03
      0.265000          0.237858E-03
      0.270000          0.237985E-03
      0.275000          0.237130E-03
      0.280000          0.235190E-03
      0.285000          0.232129E-03
      0.290000          0.227975E-03
      0.295000          0.222812E-03
      0.300000          0.216772E-03
      0.305000          0.210025E-03
      0.310000          0.202764E-03
      0.315000          0.195198E-03
      0.320000          0.187535E-03
      0.325000          0.179976E-03
      0.330000          0.172705E-03
      0.335000          0.165878E-03
      0.340000          0.159624E-03
      0.345000          0.154038E-03
      0.350000          0.149179E-03
      0.355000          0.145074E-03
      0.360000          0.141720E-03
      0.365000          0.139083E-03
      0.370000          0.137109E-03
      0.375000          0.135725E-03
      0.380000          0.134848E-03
      0.385000          0.134384E-03
      0.390000          0.134239E-03
      0.395000          0.134324E-03
      0.400000          0.134551E-03
      0.405000          0.134844E-03
      0.410000          0.135138E-03
      0.415000          0.135378E-03
      0.420000          0.135522E-03
      0.425000          0.135542E-03
      0.430000          0.135417E-03
      0.435000          0.135138E-03
      0.440000          0.134704E-03
      0.445000          0.134118E-03
      0.450000          0.133390E-03
      0.455000          0.132530E-03
      0.460000          0.131550E-03
      0.465000          0.130462E-03
      0.470000          0.129276E-03
      0.475000          0.127999E-03
      0.480000          0.126637E-03
      0.485000          0.125193E-03
      0.490000          0.123670E-03
      0.495000          0.122065E-03
      0.500000          0.120379E-03
