 I_abs(s)[cm^-1]/c[mg/ml]
       0.00000          0.144654E-01
      0.500000E-02      0.144072E-01
      0.100000E-01      0.142340E-01
      0.150000E-01      0.139495E-01
      0.200000E-01      0.135599E-01
      0.250000E-01      0.130736E-01
      0.300000E-01      0.125011E-01
      0.350000E-01      0.118541E-01
      0.400000E-01      0.111460E-01
      0.450000E-01      0.103906E-01
      0.500000E-01      0.960247E-02
      0.550000E-01      0.879597E-02
      0.600000E-01      0.798512E-02
      0.650000E-01      0.718317E-02
      0.700000E-01      0.640228E-02
      0.750000E-01      0.565323E-02
      0.800000E-01      0.494521E-02
      0.850000E-01      0.428571E-02
      0.900000E-01      0.368038E-02
      0.950000E-01      0.313306E-02
      0.100000          0.264580E-02
      0.105000          0.221898E-02
      0.110000          0.185145E-02
      0.115000          0.154076E-02
      0.120000          0.128330E-02
      0.125000          0.107462E-02
      0.130000          0.909637E-03
      0.135000          0.782859E-03
      0.140000          0.688648E-03
      0.145000          0.621404E-03
      0.150000          0.575756E-03
      0.155000          0.546707E-03
      0.160000          0.529752E-03
      0.165000          0.520956E-03
      0.170000          0.517002E-03
      0.175000          0.515208E-03
      0.180000          0.513509E-03
      0.185000          0.510424E-03
      0.190000          0.504999E-03
      0.195000          0.496732E-03
      0.200000          0.485501E-03
      0.205000          0.471479E-03
      0.210000          0.455054E-03
      0.215000          0.436750E-03
      0.220000          0.417162E-03
      0.225000          0.396900E-03
      0.230000          0.376535E-03
      0.235000          0.356575E-03
      0.240000          0.337433E-03
      0.245000          0.319422E-03
      0.250000          0.302748E-03
      0.255000          0.287520E-03
      0.260000          0.273760E-03
      0.265000          0.261420E-03
      0.270000          0.250397E-03
      0.275000          0.240556E-03
      0.280000          0.231746E-03
      0.285000          0.223814E-03
      0.290000          0.216619E-03
      0.295000          0.210042E-03
      0.300000          0.203990E-03
      0.305000          0.198397E-03
      0.310000          0.193227E-03
      0.315000          0.188467E-03
      0.320000          0.184123E-03
      0.325000          0.180213E-03
      0.330000          0.176762E-03
      0.335000          0.173792E-03
      0.340000          0.171318E-03
      0.345000          0.169343E-03
      0.350000          0.167856E-03
      0.355000          0.166828E-03
      0.360000          0.166212E-03
      0.365000          0.165946E-03
      0.370000          0.165954E-03
      0.375000          0.166153E-03
      0.380000          0.166451E-03
      0.385000          0.166759E-03
      0.390000          0.166989E-03
      0.395000          0.167063E-03
      0.400000          0.166915E-03
      0.405000          0.166491E-03
      0.410000          0.165756E-03
      0.415000          0.164689E-03
      0.420000          0.163288E-03
      0.425000          0.161565E-03
      0.430000          0.159547E-03
      0.435000          0.157270E-03
      0.440000          0.154779E-03
      0.445000          0.152123E-03
      0.450000          0.149355E-03
      0.455000          0.146522E-03
      0.460000          0.143671E-03
      0.465000          0.140840E-03
      0.470000          0.138061E-03
      0.475000          0.135357E-03
      0.480000          0.132739E-03
      0.485000          0.130211E-03
      0.490000          0.127771E-03
      0.495000          0.125407E-03
      0.500000          0.123103E-03
