 I_abs(s)[cm^-1]/c[mg/ml]
       0.00000          0.145367E-01
      0.500000E-02      0.144829E-01
      0.100000E-01      0.143226E-01
      0.150000E-01      0.140592E-01
      0.200000E-01      0.136982E-01
      0.250000E-01      0.132470E-01
      0.300000E-01      0.127147E-01
      0.350000E-01      0.121118E-01
      0.400000E-01      0.114501E-01
      0.450000E-01      0.107421E-01
      0.500000E-01      0.100005E-01
      0.550000E-01      0.923825E-02
      0.600000E-01      0.846802E-02
      0.650000E-01      0.770178E-02
      0.700000E-01      0.695064E-02
      0.750000E-01      0.622454E-02
      0.800000E-01      0.553214E-02
      0.850000E-01      0.488058E-02
      0.900000E-01      0.427551E-02
      0.950000E-01      0.372096E-02
      0.100000          0.321946E-02
      0.105000          0.277206E-02
      0.110000          0.237845E-02
      0.115000          0.203713E-02
      0.120000          0.174557E-02
      0.125000          0.150041E-02
      0.130000          0.129763E-02
      0.135000          0.113278E-02
      0.140000          0.100116E-02
      0.145000          0.897985E-03
      0.150000          0.818546E-03
      0.155000          0.758350E-03
      0.160000          0.713225E-03
      0.165000          0.679402E-03
      0.170000          0.653574E-03
      0.175000          0.632927E-03
      0.180000          0.615149E-03
      0.185000          0.598425E-03
      0.190000          0.581404E-03
      0.195000          0.563163E-03
      0.200000          0.543155E-03
      0.205000          0.521158E-03
      0.210000          0.497209E-03
      0.215000          0.471550E-03
      0.220000          0.444571E-03
      0.225000          0.416754E-03
      0.230000          0.388628E-03
      0.235000          0.360730E-03
      0.240000          0.333567E-03
      0.245000          0.307595E-03
      0.250000          0.283196E-03
      0.255000          0.260670E-03
      0.260000          0.240228E-03
      0.265000          0.221990E-03
      0.270000          0.205992E-03
      0.275000          0.192192E-03
      0.280000          0.180481E-03
      0.285000          0.170698E-03
      0.290000          0.162640E-03
      0.295000          0.156078E-03
      0.300000          0.150767E-03
      0.305000          0.146463E-03
      0.310000          0.142930E-03
      0.315000          0.139952E-03
      0.320000          0.137334E-03
      0.325000          0.134916E-03
      0.330000          0.132567E-03
      0.335000          0.130195E-03
      0.340000          0.127736E-03
      0.345000          0.125160E-03
      0.350000          0.122463E-03
      0.355000          0.119666E-03
      0.360000          0.116804E-03
      0.365000          0.113928E-03
      0.370000          0.111093E-03
      0.375000          0.108357E-03
      0.380000          0.105777E-03
      0.385000          0.103400E-03
      0.390000          0.101268E-03
      0.395000          0.994081E-04
      0.400000          0.978386E-04
      0.405000          0.965637E-04
      0.410000          0.955767E-04
      0.415000          0.948606E-04
      0.420000          0.943904E-04
      0.425000          0.941345E-04
      0.430000          0.940579E-04
      0.435000          0.941239E-04
      0.440000          0.942966E-04
      0.445000          0.945425E-04
      0.450000          0.948321E-04
      0.455000          0.951409E-04
      0.460000          0.954501E-04
      0.465000          0.957466E-04
      0.470000          0.960228E-04
      0.475000          0.962759E-04
      0.480000          0.965069E-04
      0.485000          0.967195E-04
      0.490000          0.969193E-04
      0.495000          0.971121E-04
      0.500000          0.973029E-04
