 I_abs(s)[cm^-1]/c[mg/ml]
       0.00000          0.144496E-01
      0.500000E-02      0.143938E-01
      0.100000E-01      0.142275E-01
      0.150000E-01      0.139542E-01
      0.200000E-01      0.135797E-01
      0.250000E-01      0.131118E-01
      0.300000E-01      0.125600E-01
      0.350000E-01      0.119355E-01
      0.400000E-01      0.112504E-01
      0.450000E-01      0.105179E-01
      0.500000E-01      0.975146E-02
      0.550000E-01      0.896464E-02
      0.600000E-01      0.817069E-02
      0.650000E-01      0.738223E-02
      0.700000E-01      0.661092E-02
      0.750000E-01      0.586725E-02
      0.800000E-01      0.516026E-02
      0.850000E-01      0.449747E-02
      0.900000E-01      0.388477E-02
      0.950000E-01      0.332637E-02
      0.100000          0.282484E-02
      0.105000          0.238120E-02
      0.110000          0.199503E-02
      0.115000          0.166460E-02
      0.120000          0.138712E-02
      0.125000          0.115887E-02
      0.130000          0.975467E-03
      0.135000          0.832033E-03
      0.140000          0.723430E-03
      0.145000          0.644436E-03
      0.150000          0.589916E-03
      0.155000          0.554964E-03
      0.160000          0.535027E-03
      0.165000          0.525989E-03
      0.170000          0.524240E-03
      0.175000          0.526703E-03
      0.180000          0.530852E-03
      0.185000          0.534695E-03
      0.190000          0.536751E-03
      0.195000          0.536003E-03
      0.200000          0.531848E-03
      0.205000          0.524033E-03
      0.210000          0.512597E-03
      0.215000          0.497804E-03
      0.220000          0.480090E-03
      0.225000          0.459999E-03
      0.230000          0.438140E-03
      0.235000          0.415144E-03
      0.240000          0.391629E-03
      0.245000          0.368171E-03
      0.250000          0.345288E-03
      0.255000          0.323423E-03
      0.260000          0.302938E-03
      0.265000          0.284113E-03
      0.270000          0.267141E-03
      0.275000          0.252139E-03
      0.280000          0.239149E-03
      0.285000          0.228148E-03
      0.290000          0.219059E-03
      0.295000          0.211753E-03
      0.300000          0.206067E-03
      0.305000          0.201805E-03
      0.310000          0.198754E-03
      0.315000          0.196685E-03
      0.320000          0.195366E-03
      0.325000          0.194568E-03
      0.330000          0.194071E-03
      0.335000          0.193668E-03
      0.340000          0.193173E-03
      0.345000          0.192425E-03
      0.350000          0.191289E-03
      0.355000          0.189660E-03
      0.360000          0.187468E-03
      0.365000          0.184670E-03
      0.370000          0.181258E-03
      0.375000          0.177252E-03
      0.380000          0.172700E-03
      0.385000          0.167674E-03
      0.390000          0.162265E-03
      0.395000          0.156578E-03
      0.400000          0.150728E-03
      0.405000          0.144836E-03
      0.410000          0.139019E-03
      0.415000          0.133391E-03
      0.420000          0.128052E-03
      0.425000          0.123092E-03
      0.430000          0.118582E-03
      0.435000          0.114572E-03
      0.440000          0.111097E-03
      0.445000          0.108166E-03
      0.450000          0.105772E-03
      0.455000          0.103890E-03
      0.460000          0.102479E-03
      0.465000          0.101485E-03
      0.470000          0.100845E-03
      0.475000          0.100491E-03
      0.480000          0.100351E-03
      0.485000          0.100356E-03
      0.490000          0.100440E-03
      0.495000          0.100541E-03
      0.500000          0.100610E-03
