 I_abs(s)[cm^-1]/c[mg/ml]
       0.00000          0.148155E-01
      0.500000E-02      0.147514E-01
      0.100000E-01      0.145609E-01
      0.150000E-01      0.142487E-01
      0.200000E-01      0.138228E-01
      0.250000E-01      0.132939E-01
      0.300000E-01      0.126747E-01
      0.350000E-01      0.119801E-01
      0.400000E-01      0.112259E-01
      0.450000E-01      0.104288E-01
      0.500000E-01      0.960552E-02
      0.550000E-01      0.877216E-02
      0.600000E-01      0.794398E-02
      0.650000E-01      0.713479E-02
      0.700000E-01      0.635665E-02
      0.750000E-01      0.561962E-02
      0.800000E-01      0.493162E-02
      0.850000E-01      0.429839E-02
      0.900000E-01      0.372354E-02
      0.950000E-01      0.320866E-02
      0.100000          0.275355E-02
      0.105000          0.235645E-02
      0.110000          0.201432E-02
      0.115000          0.172315E-02
      0.120000          0.147824E-02
      0.125000          0.127449E-02
      0.130000          0.110666E-02
      0.135000          0.969591E-03
      0.140000          0.858357E-03
      0.145000          0.768431E-03
      0.150000          0.695767E-03
      0.155000          0.636849E-03
      0.160000          0.588712E-03
      0.165000          0.548926E-03
      0.170000          0.515563E-03
      0.175000          0.487137E-03
      0.180000          0.462549E-03
      0.185000          0.441007E-03
      0.190000          0.421970E-03
      0.195000          0.405074E-03
      0.200000          0.390080E-03
      0.205000          0.376826E-03
      0.210000          0.365188E-03
      0.215000          0.355053E-03
      0.220000          0.346301E-03
      0.225000          0.338791E-03
      0.230000          0.332362E-03
      0.235000          0.326834E-03
      0.240000          0.322010E-03
      0.245000          0.317688E-03
      0.250000          0.313670E-03
      0.255000          0.309767E-03
      0.260000          0.305811E-03
      0.265000          0.301659E-03
      0.270000          0.297197E-03
      0.275000          0.292346E-03
      0.280000          0.287057E-03
      0.285000          0.281314E-03
      0.290000          0.275130E-03
      0.295000          0.268540E-03
      0.300000          0.261600E-03
      0.305000          0.254377E-03
      0.310000          0.246949E-03
      0.315000          0.239396E-03
      0.320000          0.231797E-03
      0.325000          0.224227E-03
      0.330000          0.216751E-03
      0.335000          0.209428E-03
      0.340000          0.202303E-03
      0.345000          0.195413E-03
      0.350000          0.188784E-03
      0.355000          0.182433E-03
      0.360000          0.176370E-03
      0.365000          0.170597E-03
      0.370000          0.165113E-03
      0.375000          0.159913E-03
      0.380000          0.154990E-03
      0.385000          0.150336E-03
      0.390000          0.145944E-03
      0.395000          0.141804E-03
      0.400000          0.137907E-03
      0.405000          0.134247E-03
      0.410000          0.130814E-03
      0.415000          0.127600E-03
      0.420000          0.124596E-03
      0.425000          0.121792E-03
      0.430000          0.119176E-03
      0.435000          0.116737E-03
      0.440000          0.114460E-03
      0.445000          0.112332E-03
      0.450000          0.110337E-03
      0.455000          0.108459E-03
      0.460000          0.106680E-03
      0.465000          0.104985E-03
      0.470000          0.103357E-03
      0.475000          0.101780E-03
      0.480000          0.100242E-03
      0.485000          0.987287E-04
      0.490000          0.972306E-04
      0.495000          0.957394E-04
      0.500000          0.942495E-04
