 I_abs(s)[cm^-1]/c[mg/ml]
       0.00000          0.149278E-01
      0.500000E-02      0.148702E-01
      0.100000E-01      0.146988E-01
      0.150000E-01      0.144171E-01
      0.200000E-01      0.140310E-01
      0.250000E-01      0.135484E-01
      0.300000E-01      0.129794E-01
      0.350000E-01      0.123351E-01
      0.400000E-01      0.116284E-01
      0.450000E-01      0.108726E-01
      0.500000E-01      0.100816E-01
      0.550000E-01      0.926957E-02
      0.600000E-01      0.845012E-02
      0.650000E-01      0.763633E-02
      0.700000E-01      0.684029E-02
      0.750000E-01      0.607287E-02
      0.800000E-01      0.534347E-02
      0.850000E-01      0.465988E-02
      0.900000E-01      0.402817E-02
      0.950000E-01      0.345269E-02
      0.100000          0.293603E-02
      0.105000          0.247914E-02
      0.110000          0.208146E-02
      0.115000          0.174106E-02
      0.120000          0.145483E-02
      0.125000          0.121872E-02
      0.130000          0.102798E-02
      0.135000          0.877365E-03
      0.140000          0.761359E-03
      0.145000          0.674414E-03
      0.150000          0.611120E-03
      0.155000          0.566370E-03
      0.160000          0.535497E-03
      0.165000          0.514369E-03
      0.170000          0.499458E-03
      0.175000          0.487871E-03
      0.180000          0.477358E-03
      0.185000          0.466284E-03
      0.190000          0.453583E-03
      0.195000          0.438698E-03
      0.200000          0.421500E-03
      0.205000          0.402205E-03
      0.210000          0.381286E-03
      0.215000          0.359383E-03
      0.220000          0.337227E-03
      0.225000          0.315567E-03
      0.230000          0.295104E-03
      0.235000          0.276446E-03
      0.240000          0.260074E-03
      0.245000          0.246314E-03
      0.250000          0.235335E-03
      0.255000          0.227145E-03
      0.260000          0.221607E-03
      0.265000          0.218457E-03
      0.270000          0.217332E-03
      0.275000          0.217796E-03
      0.280000          0.219372E-03
      0.285000          0.221573E-03
      0.290000          0.223929E-03
      0.295000          0.226012E-03
      0.300000          0.227455E-03
      0.305000          0.227968E-03
      0.310000          0.227343E-03
      0.315000          0.225465E-03
      0.320000          0.222304E-03
      0.325000          0.217909E-03
      0.330000          0.212403E-03
      0.335000          0.205967E-03
      0.340000          0.198824E-03
      0.345000          0.191226E-03
      0.350000          0.183437E-03
      0.355000          0.175717E-03
      0.360000          0.168310E-03
      0.365000          0.161432E-03
      0.370000          0.155262E-03
      0.375000          0.149933E-03
      0.380000          0.145534E-03
      0.385000          0.142102E-03
      0.390000          0.139629E-03
      0.395000          0.138063E-03
      0.400000          0.137315E-03
      0.405000          0.137265E-03
      0.410000          0.137768E-03
      0.415000          0.138669E-03
      0.420000          0.139803E-03
      0.425000          0.141009E-03
      0.430000          0.142137E-03
      0.435000          0.143049E-03
      0.440000          0.143631E-03
      0.445000          0.143794E-03
      0.450000          0.143475E-03
      0.455000          0.142639E-03
      0.460000          0.141279E-03
      0.465000          0.139415E-03
      0.470000          0.137088E-03
      0.475000          0.134360E-03
      0.480000          0.131310E-03
      0.485000          0.128024E-03
      0.490000          0.124598E-03
      0.495000          0.121126E-03
      0.500000          0.117701E-03
