 I_abs(s)[cm^-1]/c[mg/ml]
       0.00000          0.140493E-01
      0.500000E-02      0.139885E-01
      0.100000E-01      0.138079E-01
      0.150000E-01      0.135118E-01
      0.200000E-01      0.131074E-01
      0.250000E-01      0.126043E-01
      0.300000E-01      0.120144E-01
      0.350000E-01      0.113512E-01
      0.400000E-01      0.106293E-01
      0.450000E-01      0.986422E-02
      0.500000E-01      0.907158E-02
      0.550000E-01      0.826672E-02
      0.600000E-01      0.746423E-02
      0.650000E-01      0.667756E-02
      0.700000E-01      0.591869E-02
      0.750000E-01      0.519787E-02
      0.800000E-01      0.452347E-02
      0.850000E-01      0.390187E-02
      0.900000E-01      0.333749E-02
      0.950000E-01      0.283286E-02
      0.100000          0.238869E-02
      0.105000          0.200414E-02
      0.110000          0.167696E-02
      0.115000          0.140379E-02
      0.120000          0.118037E-02
      0.125000          0.100181E-02
      0.130000          0.862825E-03
      0.135000          0.757958E-03
      0.140000          0.681775E-03
      0.145000          0.629028E-03
      0.150000          0.594797E-03
      0.155000          0.574586E-03
      0.160000          0.564399E-03
      0.165000          0.560784E-03
      0.170000          0.560850E-03
      0.175000          0.562263E-03
      0.180000          0.563219E-03
      0.185000          0.562413E-03
      0.190000          0.558984E-03
      0.195000          0.552458E-03
      0.200000          0.542689E-03
      0.205000          0.529795E-03
      0.210000          0.514095E-03
      0.215000          0.496052E-03
      0.220000          0.476214E-03
      0.225000          0.455174E-03
      0.230000          0.433521E-03
      0.235000          0.411812E-03
      0.240000          0.390544E-03
      0.245000          0.370139E-03
      0.250000          0.350931E-03
      0.255000          0.333162E-03
      0.260000          0.316987E-03
      0.265000          0.302477E-03
      0.270000          0.289629E-03
      0.275000          0.278378E-03
      0.280000          0.268612E-03
      0.285000          0.260181E-03
      0.290000          0.252914E-03
      0.295000          0.246625E-03
      0.300000          0.241129E-03
      0.305000          0.236245E-03
      0.310000          0.231804E-03
      0.315000          0.227655E-03
      0.320000          0.223663E-03
      0.325000          0.219715E-03
      0.330000          0.215719E-03
      0.335000          0.211604E-03
      0.340000          0.207317E-03
      0.345000          0.202825E-03
      0.350000          0.198112E-03
      0.355000          0.193177E-03
      0.360000          0.188034E-03
      0.365000          0.182710E-03
      0.370000          0.177243E-03
      0.375000          0.171680E-03
      0.380000          0.166074E-03
      0.385000          0.160482E-03
      0.390000          0.154967E-03
      0.395000          0.149588E-03
      0.400000          0.144401E-03
      0.405000          0.139461E-03
      0.410000          0.134810E-03
      0.415000          0.130486E-03
      0.420000          0.126513E-03
      0.425000          0.122906E-03
      0.430000          0.119668E-03
      0.435000          0.116790E-03
      0.440000          0.114255E-03
      0.445000          0.112035E-03
      0.450000          0.110095E-03
      0.455000          0.108395E-03
      0.460000          0.106894E-03
      0.465000          0.105546E-03
      0.470000          0.104308E-03
      0.475000          0.103140E-03
      0.480000          0.102005E-03
      0.485000          0.100872E-03
      0.490000          0.997156E-04
      0.495000          0.985180E-04
      0.500000          0.972671E-04
