 I_abs(s)[cm^-1]/c[mg/ml]
       0.00000          0.147835E-01
      0.500000E-02      0.147299E-01
      0.100000E-01      0.145702E-01
      0.150000E-01      0.143080E-01
      0.200000E-01      0.139489E-01
      0.250000E-01      0.135007E-01
      0.300000E-01      0.129729E-01
      0.350000E-01      0.123763E-01
      0.400000E-01      0.117228E-01
      0.450000E-01      0.110252E-01
      0.500000E-01      0.102962E-01
      0.550000E-01      0.954874E-02
      0.600000E-01      0.879508E-02
      0.650000E-01      0.804679E-02
      0.700000E-01      0.731435E-02
      0.750000E-01      0.660696E-02
      0.800000E-01      0.593239E-02
      0.850000E-01      0.529686E-02
      0.900000E-01      0.470505E-02
      0.950000E-01      0.416009E-02
      0.100000          0.366366E-02
      0.105000          0.321608E-02
      0.110000          0.281653E-02
      0.115000          0.246318E-02
      0.120000          0.215341E-02
      0.125000          0.188401E-02
      0.130000          0.165135E-02
      0.135000          0.145160E-02
      0.140000          0.128087E-02
      0.145000          0.113535E-02
      0.150000          0.101144E-02
      0.155000          0.905803E-03
      0.160000          0.815454E-03
      0.165000          0.737775E-03
      0.170000          0.670532E-03
      0.175000          0.611866E-03
      0.180000          0.560264E-03
      0.185000          0.514530E-03
      0.190000          0.473737E-03
      0.195000          0.437188E-03
      0.200000          0.404362E-03
      0.205000          0.374877E-03
      0.210000          0.348448E-03
      0.215000          0.324853E-03
      0.220000          0.303903E-03
      0.225000          0.285427E-03
      0.230000          0.269252E-03
      0.235000          0.255195E-03
      0.240000          0.243062E-03
      0.245000          0.232642E-03
      0.250000          0.223719E-03
      0.255000          0.216068E-03
      0.260000          0.209468E-03
      0.265000          0.203706E-03
      0.270000          0.198582E-03
      0.275000          0.193921E-03
      0.280000          0.189570E-03
      0.285000          0.185405E-03
      0.290000          0.181334E-03
      0.295000          0.177292E-03
      0.300000          0.173246E-03
      0.305000          0.169187E-03
      0.310000          0.165130E-03
      0.315000          0.161107E-03
      0.320000          0.157164E-03
      0.325000          0.153352E-03
      0.330000          0.149728E-03
      0.335000          0.146344E-03
      0.340000          0.143245E-03
      0.345000          0.140469E-03
      0.350000          0.138038E-03
      0.355000          0.135959E-03
      0.360000          0.134228E-03
      0.365000          0.132822E-03
      0.370000          0.131708E-03
      0.375000          0.130839E-03
      0.380000          0.130163E-03
      0.385000          0.129620E-03
      0.390000          0.129148E-03
      0.395000          0.128687E-03
      0.400000          0.128182E-03
      0.405000          0.127582E-03
      0.410000          0.126846E-03
      0.415000          0.125943E-03
      0.420000          0.124852E-03
      0.425000          0.123563E-03
      0.430000          0.122077E-03
      0.435000          0.120403E-03
      0.440000          0.118559E-03
      0.445000          0.116567E-03
      0.450000          0.114457E-03
      0.455000          0.112259E-03
      0.460000          0.110005E-03
      0.465000          0.107726E-03
      0.470000          0.105454E-03
      0.475000          0.103215E-03
      0.480000          0.101034E-03
      0.485000          0.989337E-04
      0.490000          0.969313E-04
      0.495000          0.950418E-04
      0.500000          0.932767E-04
