 I_abs(s)[cm^-1]/c[mg/ml]
       0.00000          0.142841E-01
      0.500000E-02      0.142229E-01
      0.100000E-01      0.140411E-01
      0.150000E-01      0.137435E-01
      0.200000E-01      0.133378E-01
      0.250000E-01      0.128346E-01
      0.300000E-01      0.122465E-01
      0.350000E-01      0.115879E-01
      0.400000E-01      0.108744E-01
      0.450000E-01      0.101222E-01
      0.500000E-01      0.934722E-02
      0.550000E-01      0.856503E-02
      0.600000E-01      0.779002E-02
      0.650000E-01      0.703506E-02
      0.700000E-01      0.631124E-02
      0.750000E-01      0.562755E-02
      0.800000E-01      0.499087E-02
      0.850000E-01      0.440587E-02
      0.900000E-01      0.387518E-02
      0.950000E-01      0.339952E-02
      0.100000          0.297793E-02
      0.105000          0.260808E-02
      0.110000          0.228657E-02
      0.115000          0.200924E-02
      0.120000          0.177144E-02
      0.125000          0.156839E-02
      0.130000          0.139533E-02
      0.135000          0.124778E-02
      0.140000          0.112162E-02
      0.145000          0.101324E-02
      0.150000          0.919563E-03
      0.155000          0.838027E-03
      0.160000          0.766586E-03
      0.165000          0.703637E-03
      0.170000          0.647953E-03
      0.175000          0.598603E-03
      0.180000          0.554873E-03
      0.185000          0.516195E-03
      0.190000          0.482086E-03
      0.195000          0.452100E-03
      0.200000          0.425799E-03
      0.205000          0.402736E-03
      0.210000          0.382451E-03
      0.215000          0.364477E-03
      0.220000          0.348355E-03
      0.225000          0.333651E-03
      0.230000          0.319976E-03
      0.235000          0.306998E-03
      0.240000          0.294457E-03
      0.245000          0.282171E-03
      0.250000          0.270037E-03
      0.255000          0.258021E-03
      0.260000          0.246155E-03
      0.265000          0.234518E-03
      0.270000          0.223222E-03
      0.275000          0.212392E-03
      0.280000          0.202155E-03
      0.285000          0.192624E-03
      0.290000          0.183886E-03
      0.295000          0.175996E-03
      0.300000          0.168975E-03
      0.305000          0.162807E-03
      0.310000          0.157446E-03
      0.315000          0.152821E-03
      0.320000          0.148843E-03
      0.325000          0.145411E-03
      0.330000          0.142425E-03
      0.335000          0.139791E-03
      0.340000          0.137423E-03
      0.345000          0.135255E-03
      0.350000          0.133235E-03
      0.355000          0.131331E-03
      0.360000          0.129529E-03
      0.365000          0.127827E-03
      0.370000          0.126233E-03
      0.375000          0.124763E-03
      0.380000          0.123436E-03
      0.385000          0.122266E-03
      0.390000          0.121266E-03
      0.395000          0.120439E-03
      0.400000          0.119780E-03
      0.405000          0.119276E-03
      0.410000          0.118904E-03
      0.415000          0.118634E-03
      0.420000          0.118431E-03
      0.425000          0.118258E-03
      0.430000          0.118075E-03
      0.435000          0.117845E-03
      0.440000          0.117537E-03
      0.445000          0.117122E-03
      0.450000          0.116583E-03
      0.455000          0.115906E-03
      0.460000          0.115090E-03
      0.465000          0.114138E-03
      0.470000          0.113063E-03
      0.475000          0.111881E-03
      0.480000          0.110616E-03
      0.485000          0.109290E-03
      0.490000          0.107930E-03
      0.495000          0.106559E-03
      0.500000          0.105200E-03
