 I_abs(s)[cm^-1]/c[mg/ml]
       0.00000          0.151132E-01
      0.500000E-02      0.150573E-01
      0.100000E-01      0.148912E-01
      0.150000E-01      0.146183E-01
      0.200000E-01      0.142449E-01
      0.250000E-01      0.137790E-01
      0.300000E-01      0.132307E-01
      0.350000E-01      0.126113E-01
      0.400000E-01      0.119335E-01
      0.450000E-01      0.112103E-01
      0.500000E-01      0.104554E-01
      0.550000E-01      0.968183E-02
      0.600000E-01      0.890248E-02
      0.650000E-01      0.812917E-02
      0.700000E-01      0.737263E-02
      0.750000E-01      0.664219E-02
      0.800000E-01      0.594569E-02
      0.850000E-01      0.528935E-02
      0.900000E-01      0.467781E-02
      0.950000E-01      0.411413E-02
      0.100000          0.359993E-02
      0.105000          0.313551E-02
      0.110000          0.272001E-02
      0.115000          0.235165E-02
      0.120000          0.202789E-02
      0.125000          0.174565E-02
      0.130000          0.150149E-02
      0.135000          0.129177E-02
      0.140000          0.111285E-02
      0.145000          0.961142E-03
      0.150000          0.833240E-03
      0.155000          0.725987E-03
      0.160000          0.636512E-03
      0.165000          0.562243E-03
      0.170000          0.500916E-03
      0.175000          0.450558E-03
      0.180000          0.409464E-03
      0.185000          0.376167E-03
      0.190000          0.349408E-03
      0.195000          0.328105E-03
      0.200000          0.311322E-03
      0.205000          0.298247E-03
      0.210000          0.288167E-03
      0.215000          0.280460E-03
      0.220000          0.274574E-03
      0.225000          0.270030E-03
      0.230000          0.266408E-03
      0.235000          0.263350E-03
      0.240000          0.260553E-03
      0.245000          0.257774E-03
      0.250000          0.254820E-03
      0.255000          0.251552E-03
      0.260000          0.247877E-03
      0.265000          0.243743E-03
      0.270000          0.239137E-03
      0.275000          0.234077E-03
      0.280000          0.228607E-03
      0.285000          0.222789E-03
      0.290000          0.216698E-03
      0.295000          0.210419E-03
      0.300000          0.204041E-03
      0.305000          0.197653E-03
      0.310000          0.191342E-03
      0.315000          0.185187E-03
      0.320000          0.179264E-03
      0.325000          0.173640E-03
      0.330000          0.168370E-03
      0.335000          0.163500E-03
      0.340000          0.159067E-03
      0.345000          0.155094E-03
      0.350000          0.151592E-03
      0.355000          0.148562E-03
      0.360000          0.145990E-03
      0.365000          0.143853E-03
      0.370000          0.142116E-03
      0.375000          0.140733E-03
      0.380000          0.139651E-03
      0.385000          0.138810E-03
      0.390000          0.138143E-03
      0.395000          0.137585E-03
      0.400000          0.137069E-03
      0.405000          0.136530E-03
      0.410000          0.135908E-03
      0.415000          0.135152E-03
      0.420000          0.134219E-03
      0.425000          0.133074E-03
      0.430000          0.131696E-03
      0.435000          0.130074E-03
      0.440000          0.128207E-03
      0.445000          0.126106E-03
      0.450000          0.123790E-03
      0.455000          0.121286E-03
      0.460000          0.118627E-03
      0.465000          0.115850E-03
      0.470000          0.112995E-03
      0.475000          0.110101E-03
      0.480000          0.107207E-03
      0.485000          0.104349E-03
      0.490000          0.101560E-03
      0.495000          0.988668E-04
      0.500000          0.962930E-04
