 I_abs(s)[cm^-1]/c[mg/ml]
       0.00000          0.141351E-01
      0.500000E-02      0.140553E-01
      0.100000E-01      0.138189E-01
      0.150000E-01      0.134345E-01
      0.200000E-01      0.129159E-01
      0.250000E-01      0.122815E-01
      0.300000E-01      0.115529E-01
      0.350000E-01      0.107542E-01
      0.400000E-01      0.991046E-02
      0.450000E-01      0.904665E-02
      0.500000E-01      0.818626E-02
      0.550000E-01      0.735045E-02
      0.600000E-01      0.655712E-02
      0.650000E-01      0.582042E-02
      0.700000E-01      0.515035E-02
      0.750000E-01      0.455276E-02
      0.800000E-01      0.402956E-02
      0.850000E-01      0.357909E-02
      0.900000E-01      0.319672E-02
      0.950000E-01      0.287556E-02
      0.100000          0.260723E-02
      0.105000          0.238253E-02
      0.110000          0.219224E-02
      0.115000          0.202765E-02
      0.120000          0.188106E-02
      0.125000          0.174613E-02
      0.130000          0.161801E-02
      0.135000          0.149345E-02
      0.140000          0.137065E-02
      0.145000          0.124911E-02
      0.150000          0.112939E-02
      0.155000          0.101275E-02
      0.160000          0.900920E-03
      0.165000          0.795758E-03
      0.170000          0.699021E-03
      0.175000          0.612162E-03
      0.180000          0.536197E-03
      0.185000          0.471629E-03
      0.190000          0.418436E-03
      0.195000          0.376105E-03
      0.200000          0.343711E-03
      0.205000          0.320019E-03
      0.210000          0.303595E-03
      0.215000          0.292922E-03
      0.220000          0.286506E-03
      0.225000          0.282962E-03
      0.230000          0.281080E-03
      0.235000          0.279866E-03
      0.240000          0.278559E-03
      0.245000          0.276630E-03
      0.250000          0.273763E-03
      0.255000          0.269822E-03
      0.260000          0.264813E-03
      0.265000          0.258849E-03
      0.270000          0.252105E-03
      0.275000          0.244788E-03
      0.280000          0.237108E-03
      0.285000          0.229259E-03
      0.290000          0.221406E-03
      0.295000          0.213675E-03
      0.300000          0.206160E-03
      0.305000          0.198917E-03
      0.310000          0.191975E-03
      0.315000          0.185344E-03
      0.320000          0.179016E-03
      0.325000          0.172978E-03
      0.330000          0.167213E-03
      0.335000          0.161704E-03
      0.340000          0.156439E-03
      0.345000          0.151409E-03
      0.350000          0.146611E-03
      0.355000          0.142044E-03
      0.360000          0.137709E-03
      0.365000          0.133611E-03
      0.370000          0.129754E-03
      0.375000          0.126140E-03
      0.380000          0.122771E-03
      0.385000          0.119648E-03
      0.390000          0.116768E-03
      0.395000          0.114130E-03
      0.400000          0.111729E-03
      0.405000          0.109561E-03
      0.410000          0.107622E-03
      0.415000          0.105906E-03
      0.420000          0.104410E-03
      0.425000          0.103131E-03
      0.430000          0.102065E-03
      0.435000          0.101210E-03
      0.440000          0.100563E-03
      0.445000          0.100118E-03
      0.450000          0.998682E-04
      0.455000          0.998049E-04
      0.460000          0.999149E-04
      0.465000          0.100181E-03
      0.470000          0.100583E-03
      0.475000          0.101096E-03
      0.480000          0.101690E-03
      0.485000          0.102333E-03
      0.490000          0.102993E-03
      0.495000          0.103634E-03
      0.500000          0.104221E-03
