 I_abs(s)[cm^-1]/c[mg/ml]
       0.00000          0.146718E-01
      0.500000E-02      0.146246E-01
      0.100000E-01      0.144839E-01
      0.150000E-01      0.142523E-01
      0.200000E-01      0.139341E-01
      0.250000E-01      0.135350E-01
      0.300000E-01      0.130622E-01
      0.350000E-01      0.125240E-01
      0.400000E-01      0.119297E-01
      0.450000E-01      0.112891E-01
      0.500000E-01      0.106127E-01
      0.550000E-01      0.991109E-02
      0.600000E-01      0.919464E-02
      0.650000E-01      0.847351E-02
      0.700000E-01      0.775727E-02
      0.750000E-01      0.705472E-02
      0.800000E-01      0.637376E-02
      0.850000E-01      0.572125E-02
      0.900000E-01      0.510290E-02
      0.950000E-01      0.452326E-02
      0.100000          0.398566E-02
      0.105000          0.349231E-02
      0.110000          0.304427E-02
      0.115000          0.264160E-02
      0.120000          0.228345E-02
      0.125000          0.196818E-02
      0.130000          0.169349E-02
      0.135000          0.145661E-02
      0.140000          0.125436E-02
      0.145000          0.108337E-02
      0.150000          0.940135E-03
      0.155000          0.821197E-03
      0.160000          0.723187E-03
      0.165000          0.642931E-03
      0.170000          0.577508E-03
      0.175000          0.524287E-03
      0.180000          0.480958E-03
      0.185000          0.445535E-03
      0.190000          0.416357E-03
      0.195000          0.392063E-03
      0.200000          0.371574E-03
      0.205000          0.354051E-03
      0.210000          0.338866E-03
      0.215000          0.325561E-03
      0.220000          0.313807E-03
      0.225000          0.303374E-03
      0.230000          0.294097E-03
      0.235000          0.285851E-03
      0.240000          0.278528E-03
      0.245000          0.272024E-03
      0.250000          0.266227E-03
      0.255000          0.261013E-03
      0.260000          0.256244E-03
      0.265000          0.251774E-03
      0.270000          0.247449E-03
      0.275000          0.243117E-03
      0.280000          0.238635E-03
      0.285000          0.233876E-03
      0.290000          0.228734E-03
      0.295000          0.223134E-03
      0.300000          0.217030E-03
      0.305000          0.210408E-03
      0.310000          0.203291E-03
      0.315000          0.195728E-03
      0.320000          0.187800E-03
      0.325000          0.179607E-03
      0.330000          0.171266E-03
      0.335000          0.162908E-03
      0.340000          0.154663E-03
      0.345000          0.146662E-03
      0.350000          0.139026E-03
      0.355000          0.131863E-03
      0.360000          0.125264E-03
      0.365000          0.119299E-03
      0.370000          0.114017E-03
      0.375000          0.109442E-03
      0.380000          0.105579E-03
      0.385000          0.102409E-03
      0.390000          0.998971E-04
      0.395000          0.979899E-04
      0.400000          0.966232E-04
      0.405000          0.957232E-04
      0.410000          0.952106E-04
      0.415000          0.950039E-04
      0.420000          0.950227E-04
      0.425000          0.951904E-04
      0.430000          0.954363E-04
      0.435000          0.956979E-04
      0.440000          0.959217E-04
      0.445000          0.960641E-04
      0.450000          0.960916E-04
      0.455000          0.959810E-04
      0.460000          0.957181E-04
      0.465000          0.952975E-04
      0.470000          0.947213E-04
      0.475000          0.939977E-04
      0.480000          0.931400E-04
      0.485000          0.921648E-04
      0.490000          0.910915E-04
      0.495000          0.899405E-04
      0.500000          0.887325E-04
