 I_abs(s)[cm^-1]/c[mg/ml]
       0.00000          0.146638E-01
      0.500000E-02      0.145929E-01
      0.100000E-01      0.143822E-01
      0.150000E-01      0.140384E-01
      0.200000E-01      0.135717E-01
      0.250000E-01      0.129961E-01
      0.300000E-01      0.123281E-01
      0.350000E-01      0.115863E-01
      0.400000E-01      0.107904E-01
      0.450000E-01      0.996008E-02
      0.500000E-01      0.911472E-02
      0.550000E-01      0.827224E-02
      0.600000E-01      0.744869E-02
      0.650000E-01      0.665775E-02
      0.700000E-01      0.591046E-02
      0.750000E-01      0.521510E-02
      0.800000E-01      0.457723E-02
      0.850000E-01      0.399985E-02
      0.900000E-01      0.348367E-02
      0.950000E-01      0.302747E-02
      0.100000          0.262848E-02
      0.105000          0.228276E-02
      0.110000          0.198562E-02
      0.115000          0.173193E-02
      0.120000          0.151646E-02
      0.125000          0.133407E-02
      0.130000          0.117997E-02
      0.135000          0.104975E-02
      0.140000          0.939539E-03
      0.145000          0.845972E-03
      0.150000          0.766222E-03
      0.155000          0.697949E-03
      0.160000          0.639265E-03
      0.165000          0.588669E-03
      0.170000          0.544989E-03
      0.175000          0.507320E-03
      0.180000          0.474962E-03
      0.185000          0.447368E-03
      0.190000          0.424092E-03
      0.195000          0.404748E-03
      0.200000          0.388973E-03
      0.205000          0.376398E-03
      0.210000          0.366634E-03
      0.215000          0.359254E-03
      0.220000          0.353800E-03
      0.225000          0.349781E-03
      0.230000          0.346692E-03
      0.235000          0.344033E-03
      0.240000          0.341328E-03
      0.245000          0.338151E-03
      0.250000          0.334144E-03
      0.255000          0.329039E-03
      0.260000          0.322668E-03
      0.265000          0.314966E-03
      0.270000          0.305971E-03
      0.275000          0.295811E-03
      0.280000          0.284694E-03
      0.285000          0.272880E-03
      0.290000          0.260664E-03
      0.295000          0.248349E-03
      0.300000          0.236226E-03
      0.305000          0.224553E-03
      0.310000          0.213545E-03
      0.315000          0.203361E-03
      0.320000          0.194103E-03
      0.325000          0.185819E-03
      0.330000          0.178503E-03
      0.335000          0.172110E-03
      0.340000          0.166563E-03
      0.345000          0.161765E-03
      0.350000          0.157607E-03
      0.355000          0.153981E-03
      0.360000          0.150784E-03
      0.365000          0.147921E-03
      0.370000          0.145315E-03
      0.375000          0.142898E-03
      0.380000          0.140620E-03
      0.385000          0.138441E-03
      0.390000          0.136331E-03
      0.395000          0.134269E-03
      0.400000          0.132242E-03
      0.405000          0.130238E-03
      0.410000          0.128251E-03
      0.415000          0.126277E-03
      0.420000          0.124313E-03
      0.425000          0.122358E-03
      0.430000          0.120411E-03
      0.435000          0.118473E-03
      0.440000          0.116545E-03
      0.445000          0.114629E-03
      0.450000          0.112726E-03
      0.455000          0.110837E-03
      0.460000          0.108964E-03
      0.465000          0.107108E-03
      0.470000          0.105274E-03
      0.475000          0.103462E-03
      0.480000          0.101679E-03
      0.485000          0.999284E-04
      0.490000          0.982190E-04
      0.495000          0.965591E-04
      0.500000          0.949591E-04
