 I_abs(s)[cm^-1]/c[mg/ml]
       0.00000          0.147276E-01
      0.500000E-02      0.146729E-01
      0.100000E-01      0.145102E-01
      0.150000E-01      0.142430E-01
      0.200000E-01      0.138772E-01
      0.250000E-01      0.134210E-01
      0.300000E-01      0.128840E-01
      0.350000E-01      0.122775E-01
      0.400000E-01      0.116140E-01
      0.450000E-01      0.109063E-01
      0.500000E-01      0.101678E-01
      0.550000E-01      0.941166E-02
      0.600000E-01      0.865055E-02
      0.650000E-01      0.789626E-02
      0.700000E-01      0.715946E-02
      0.750000E-01      0.644948E-02
      0.800000E-01      0.577410E-02
      0.850000E-01      0.513952E-02
      0.900000E-01      0.455027E-02
      0.950000E-01      0.400933E-02
      0.100000          0.351812E-02
      0.105000          0.307673E-02
      0.110000          0.268405E-02
      0.115000          0.233796E-02
      0.120000          0.203560E-02
      0.125000          0.177351E-02
      0.130000          0.154791E-02
      0.135000          0.135484E-02
      0.140000          0.119034E-02
      0.145000          0.105061E-02
      0.150000          0.932100E-03
      0.155000          0.831600E-03
      0.160000          0.746270E-03
      0.165000          0.673673E-03
      0.170000          0.611761E-03
      0.175000          0.558858E-03
      0.180000          0.513611E-03
      0.185000          0.474946E-03
      0.190000          0.442015E-03
      0.195000          0.414136E-03
      0.200000          0.390749E-03
      0.205000          0.371369E-03
      0.210000          0.355550E-03
      0.215000          0.342863E-03
      0.220000          0.332873E-03
      0.225000          0.325137E-03
      0.230000          0.319204E-03
      0.235000          0.314617E-03
      0.240000          0.310930E-03
      0.245000          0.307714E-03
      0.250000          0.304579E-03
      0.255000          0.301181E-03
      0.260000          0.297236E-03
      0.265000          0.292527E-03
      0.270000          0.286906E-03
      0.275000          0.280298E-03
      0.280000          0.272695E-03
      0.285000          0.264149E-03
      0.290000          0.254764E-03
      0.295000          0.244683E-03
      0.300000          0.234079E-03
      0.305000          0.223138E-03
      0.310000          0.212053E-03
      0.315000          0.201009E-03
      0.320000          0.190176E-03
      0.325000          0.179705E-03
      0.330000          0.169718E-03
      0.335000          0.160312E-03
      0.340000          0.151553E-03
      0.345000          0.143483E-03
      0.350000          0.136117E-03
      0.355000          0.129454E-03
      0.360000          0.123473E-03
      0.365000          0.118145E-03
      0.370000          0.113431E-03
      0.375000          0.109291E-03
      0.380000          0.105683E-03
      0.385000          0.102570E-03
      0.390000          0.999155E-04
      0.395000          0.976893E-04
      0.400000          0.958650E-04
      0.405000          0.944198E-04
      0.410000          0.933333E-04
      0.415000          0.925864E-04
      0.420000          0.921593E-04
      0.425000          0.920302E-04
      0.430000          0.921745E-04
      0.435000          0.925634E-04
      0.440000          0.931636E-04
      0.445000          0.939376E-04
      0.450000          0.948435E-04
      0.455000          0.958364E-04
      0.460000          0.968698E-04
      0.465000          0.978964E-04
      0.470000          0.988704E-04
      0.475000          0.997490E-04
      0.480000          0.100494E-03
      0.485000          0.101074E-03
      0.490000          0.101464E-03
      0.495000          0.101648E-03
      0.500000          0.101619E-03
