 I_abs(s)[cm^-1]/c[mg/ml]
       0.00000          0.142056E-01
      0.500000E-02      0.141543E-01
      0.100000E-01      0.140016E-01
      0.150000E-01      0.137508E-01
      0.200000E-01      0.134073E-01
      0.250000E-01      0.129784E-01
      0.300000E-01      0.124729E-01
      0.350000E-01      0.119014E-01
      0.400000E-01      0.112751E-01
      0.450000E-01      0.106061E-01
      0.500000E-01      0.990669E-02
      0.550000E-01      0.918933E-02
      0.600000E-01      0.846591E-02
      0.650000E-01      0.774769E-02
      0.700000E-01      0.704493E-02
      0.750000E-01      0.636670E-02
      0.800000E-01      0.572070E-02
      0.850000E-01      0.511315E-02
      0.900000E-01      0.454873E-02
      0.950000E-01      0.403060E-02
      0.100000          0.356045E-02
      0.105000          0.313862E-02
      0.110000          0.276423E-02
      0.115000          0.243534E-02
      0.120000          0.214919E-02
      0.125000          0.190236E-02
      0.130000          0.169099E-02
      0.135000          0.151097E-02
      0.140000          0.135813E-02
      0.145000          0.122840E-02
      0.150000          0.111791E-02
      0.155000          0.102315E-02
      0.160000          0.940983E-03
      0.165000          0.868726E-03
      0.170000          0.804161E-03
      0.175000          0.745520E-03
      0.180000          0.691465E-03
      0.185000          0.641040E-03
      0.190000          0.593620E-03
      0.195000          0.548848E-03
      0.200000          0.506574E-03
      0.205000          0.466790E-03
      0.210000          0.429581E-03
      0.215000          0.395069E-03
      0.220000          0.363375E-03
      0.225000          0.334590E-03
      0.230000          0.308753E-03
      0.235000          0.285841E-03
      0.240000          0.265763E-03
      0.245000          0.248370E-03
      0.250000          0.233456E-03
      0.255000          0.220777E-03
      0.260000          0.210063E-03
      0.265000          0.201033E-03
      0.270000          0.193408E-03
      0.275000          0.186925E-03
      0.280000          0.181348E-03
      0.285000          0.176469E-03
      0.290000          0.172117E-03
      0.295000          0.168156E-03
      0.300000          0.164485E-03
      0.305000          0.161032E-03
      0.310000          0.157754E-03
      0.315000          0.154624E-03
      0.320000          0.151632E-03
      0.325000          0.148774E-03
      0.330000          0.146054E-03
      0.335000          0.143471E-03
      0.340000          0.141025E-03
      0.345000          0.138710E-03
      0.350000          0.136516E-03
      0.355000          0.134426E-03
      0.360000          0.132424E-03
      0.365000          0.130487E-03
      0.370000          0.128596E-03
      0.375000          0.126731E-03
      0.380000          0.124875E-03
      0.385000          0.123015E-03
      0.390000          0.121142E-03
      0.395000          0.119250E-03
      0.400000          0.117341E-03
      0.405000          0.115416E-03
      0.410000          0.113480E-03
      0.415000          0.111541E-03
      0.420000          0.109604E-03
      0.425000          0.107677E-03
      0.430000          0.105763E-03
      0.435000          0.103865E-03
      0.440000          0.101985E-03
      0.445000          0.100120E-03
      0.450000          0.982691E-04
      0.455000          0.964284E-04
      0.460000          0.945948E-04
      0.465000          0.927660E-04
      0.470000          0.909415E-04
      0.475000          0.891233E-04
      0.480000          0.873162E-04
      0.485000          0.855283E-04
      0.490000          0.837708E-04
      0.495000          0.820576E-04
      0.500000          0.804048E-04
