 I_abs(s)[cm^-1]/c[mg/ml]
       0.00000          0.146798E-01
      0.500000E-02      0.146276E-01
      0.100000E-01      0.144724E-01
      0.150000E-01      0.142175E-01
      0.200000E-01      0.138681E-01
      0.250000E-01      0.134316E-01
      0.300000E-01      0.129170E-01
      0.350000E-01      0.123345E-01
      0.400000E-01      0.116956E-01
      0.450000E-01      0.110122E-01
      0.500000E-01      0.102968E-01
      0.550000E-01      0.956153E-02
      0.600000E-01      0.881845E-02
      0.650000E-01      0.807877E-02
      0.700000E-01      0.735277E-02
      0.750000E-01      0.664957E-02
      0.800000E-01      0.597696E-02
      0.850000E-01      0.534130E-02
      0.900000E-01      0.474747E-02
      0.950000E-01      0.419888E-02
      0.100000          0.369755E-02
      0.105000          0.324416E-02
      0.110000          0.283829E-02
      0.115000          0.247845E-02
      0.120000          0.216239E-02
      0.125000          0.188719E-02
      0.130000          0.164950E-02
      0.135000          0.144569E-02
      0.140000          0.127202E-02
      0.145000          0.112478E-02
      0.150000          0.100040E-02
      0.155000          0.895525E-03
      0.160000          0.807120E-03
      0.165000          0.732468E-03
      0.170000          0.669203E-03
      0.175000          0.615313E-03
      0.180000          0.569115E-03
      0.185000          0.529230E-03
      0.190000          0.494545E-03
      0.195000          0.464172E-03
      0.200000          0.437411E-03
      0.205000          0.413703E-03
      0.210000          0.392602E-03
      0.215000          0.373739E-03
      0.220000          0.356800E-03
      0.225000          0.341507E-03
      0.230000          0.327607E-03
      0.235000          0.314864E-03
      0.240000          0.303057E-03
      0.245000          0.291979E-03
      0.250000          0.281443E-03
      0.255000          0.271281E-03
      0.260000          0.261355E-03
      0.265000          0.251553E-03
      0.270000          0.241797E-03
      0.275000          0.232040E-03
      0.280000          0.222269E-03
      0.285000          0.212499E-03
      0.290000          0.202772E-03
      0.295000          0.193151E-03
      0.300000          0.183714E-03
      0.305000          0.174548E-03
      0.310000          0.165745E-03
      0.315000          0.157395E-03
      0.320000          0.149578E-03
      0.325000          0.142366E-03
      0.330000          0.135813E-03
      0.335000          0.129960E-03
      0.340000          0.124825E-03
      0.345000          0.120411E-03
      0.350000          0.116702E-03
      0.355000          0.113663E-03
      0.360000          0.111248E-03
      0.365000          0.109395E-03
      0.370000          0.108035E-03
      0.375000          0.107091E-03
      0.380000          0.106482E-03
      0.385000          0.106125E-03
      0.390000          0.105942E-03
      0.395000          0.105856E-03
      0.400000          0.105798E-03
      0.405000          0.105706E-03
      0.410000          0.105531E-03
      0.415000          0.105230E-03
      0.420000          0.104774E-03
      0.425000          0.104146E-03
      0.430000          0.103339E-03
      0.435000          0.102357E-03
      0.440000          0.101211E-03
      0.445000          0.999240E-04
      0.450000          0.985215E-04
      0.455000          0.970349E-04
      0.460000          0.954979E-04
      0.465000          0.939448E-04
      0.470000          0.924083E-04
      0.475000          0.909187E-04
      0.480000          0.895018E-04
      0.485000          0.881782E-04
      0.490000          0.869628E-04
      0.495000          0.858643E-04
      0.500000          0.848855E-04
