 I_abs(s)[cm^-1]/c[mg/ml]
       0.00000          0.147276E-01
      0.500000E-02      0.146784E-01
      0.100000E-01      0.145316E-01
      0.150000E-01      0.142901E-01
      0.200000E-01      0.139585E-01
      0.250000E-01      0.135430E-01
      0.300000E-01      0.130515E-01
      0.350000E-01      0.124929E-01
      0.400000E-01      0.118771E-01
      0.450000E-01      0.112148E-01
      0.500000E-01      0.105171E-01
      0.550000E-01      0.979531E-02
      0.600000E-01      0.906037E-02
      0.650000E-01      0.832297E-02
      0.700000E-01      0.759304E-02
      0.750000E-01      0.687970E-02
      0.800000E-01      0.619100E-02
      0.850000E-01      0.553381E-02
      0.900000E-01      0.491379E-02
      0.950000E-01      0.433528E-02
      0.100000          0.380136E-02
      0.105000          0.331388E-02
      0.110000          0.287352E-02
      0.115000          0.247992E-02
      0.120000          0.213180E-02
      0.125000          0.182712E-02
      0.130000          0.156319E-02
      0.135000          0.133689E-02
      0.140000          0.114477E-02
      0.145000          0.983234E-03
      0.150000          0.848634E-03
      0.155000          0.737401E-03
      0.160000          0.646137E-03
      0.165000          0.571686E-03
      0.170000          0.511184E-03
      0.175000          0.462095E-03
      0.180000          0.422223E-03
      0.185000          0.389709E-03
      0.190000          0.363018E-03
      0.195000          0.340911E-03
      0.200000          0.322412E-03
      0.205000          0.306770E-03
      0.210000          0.293422E-03
      0.215000          0.281949E-03
      0.220000          0.272043E-03
      0.225000          0.263474E-03
      0.230000          0.256063E-03
      0.235000          0.249656E-03
      0.240000          0.244116E-03
      0.245000          0.239307E-03
      0.250000          0.235090E-03
      0.255000          0.231322E-03
      0.260000          0.227858E-03
      0.265000          0.224558E-03
      0.270000          0.221290E-03
      0.275000          0.217937E-03
      0.280000          0.214401E-03
      0.285000          0.210614E-03
      0.290000          0.206532E-03
      0.295000          0.202144E-03
      0.300000          0.197469E-03
      0.305000          0.192551E-03
      0.310000          0.187459E-03
      0.315000          0.182280E-03
      0.320000          0.177111E-03
      0.325000          0.172055E-03
      0.330000          0.167215E-03
      0.335000          0.162684E-03
      0.340000          0.158543E-03
      0.345000          0.154854E-03
      0.350000          0.151659E-03
      0.355000          0.148974E-03
      0.360000          0.146796E-03
      0.365000          0.145096E-03
      0.370000          0.143826E-03
      0.375000          0.142919E-03
      0.380000          0.142296E-03
      0.385000          0.141867E-03
      0.390000          0.141540E-03
      0.395000          0.141220E-03
      0.400000          0.140819E-03
      0.405000          0.140257E-03
      0.410000          0.139464E-03
      0.415000          0.138386E-03
      0.420000          0.136984E-03
      0.425000          0.135237E-03
      0.430000          0.133140E-03
      0.435000          0.130704E-03
      0.440000          0.127955E-03
      0.445000          0.124930E-03
      0.450000          0.121678E-03
      0.455000          0.118255E-03
      0.460000          0.114721E-03
      0.465000          0.111139E-03
      0.470000          0.107569E-03
      0.475000          0.104070E-03
      0.480000          0.100694E-03
      0.485000          0.974877E-04
      0.490000          0.944884E-04
      0.495000          0.917248E-04
      0.500000          0.892165E-04
