 I_abs(s)[cm^-1]/c[mg/ml]
       0.00000          0.148476E-01
      0.500000E-02      0.147892E-01
      0.100000E-01      0.146154E-01
      0.150000E-01      0.143302E-01
      0.200000E-01      0.139400E-01
      0.250000E-01      0.134537E-01
      0.300000E-01      0.128818E-01
      0.350000E-01      0.122368E-01
      0.400000E-01      0.115322E-01
      0.450000E-01      0.107821E-01
      0.500000E-01      0.100010E-01
      0.550000E-01      0.920342E-02
      0.600000E-01      0.840303E-02
      0.650000E-01      0.761267E-02
      0.700000E-01      0.684391E-02
      0.750000E-01      0.610681E-02
      0.800000E-01      0.540972E-02
      0.850000E-01      0.475919E-02
      0.900000E-01      0.415996E-02
      0.950000E-01      0.361497E-02
      0.100000          0.312550E-02
      0.105000          0.269128E-02
      0.110000          0.231072E-02
      0.115000          0.198115E-02
      0.120000          0.169901E-02
      0.125000          0.146014E-02
      0.130000          0.125999E-02
      0.135000          0.109388E-02
      0.140000          0.957122E-03
      0.145000          0.845247E-03
      0.150000          0.754100E-03
      0.155000          0.679933E-03
      0.160000          0.619466E-03
      0.165000          0.569905E-03
      0.170000          0.528936E-03
      0.175000          0.494697E-03
      0.180000          0.465733E-03
      0.185000          0.440936E-03
      0.190000          0.419483E-03
      0.195000          0.400769E-03
      0.200000          0.384353E-03
      0.205000          0.369897E-03
      0.210000          0.357129E-03
      0.215000          0.345808E-03
      0.220000          0.335700E-03
      0.225000          0.326570E-03
      0.230000          0.318177E-03
      0.235000          0.310280E-03
      0.240000          0.302644E-03
      0.245000          0.295056E-03
      0.250000          0.287334E-03
      0.255000          0.279342E-03
      0.260000          0.270994E-03
      0.265000          0.262262E-03
      0.270000          0.253174E-03
      0.275000          0.243811E-03
      0.280000          0.234302E-03
      0.285000          0.224808E-03
      0.290000          0.215511E-03
      0.295000          0.206602E-03
      0.300000          0.198261E-03
      0.305000          0.190652E-03
      0.310000          0.183902E-03
      0.315000          0.178100E-03
      0.320000          0.173290E-03
      0.325000          0.169466E-03
      0.330000          0.166577E-03
      0.335000          0.164530E-03
      0.340000          0.163198E-03
      0.345000          0.162426E-03
      0.350000          0.162046E-03
      0.355000          0.161881E-03
      0.360000          0.161762E-03
      0.365000          0.161531E-03
      0.370000          0.161054E-03
      0.375000          0.160221E-03
      0.380000          0.158956E-03
      0.385000          0.157215E-03
      0.390000          0.154985E-03
      0.395000          0.152283E-03
      0.400000          0.149154E-03
      0.405000          0.145662E-03
      0.410000          0.141888E-03
      0.415000          0.137923E-03
      0.420000          0.133859E-03
      0.425000          0.129789E-03
      0.430000          0.125800E-03
      0.435000          0.121966E-03
      0.440000          0.118350E-03
      0.445000          0.115000E-03
      0.450000          0.111948E-03
      0.455000          0.109212E-03
      0.460000          0.106796E-03
      0.465000          0.104690E-03
      0.470000          0.102876E-03
      0.475000          0.101328E-03
      0.480000          0.100014E-03
      0.485000          0.989001E-04
      0.490000          0.979516E-04
      0.495000          0.971352E-04
      0.500000          0.964204E-04
