 I_abs(s)[cm^-1]/c[mg/ml]
       0.00000          0.143707E-01
      0.500000E-02      0.143076E-01
      0.100000E-01      0.141199E-01
      0.150000E-01      0.138128E-01
      0.200000E-01      0.133940E-01
      0.250000E-01      0.128744E-01
      0.300000E-01      0.122670E-01
      0.350000E-01      0.115867E-01
      0.400000E-01      0.108497E-01
      0.450000E-01      0.100726E-01
      0.500000E-01      0.927221E-02
      0.550000E-01      0.846484E-02
      0.600000E-01      0.766564E-02
      0.650000E-01      0.688832E-02
      0.700000E-01      0.614471E-02
      0.750000E-01      0.544456E-02
      0.800000E-01      0.479534E-02
      0.850000E-01      0.420226E-02
      0.900000E-01      0.366829E-02
      0.950000E-01      0.319430E-02
      0.100000          0.277933E-02
      0.105000          0.242081E-02
      0.110000          0.211493E-02
      0.115000          0.185693E-02
      0.120000          0.164144E-02
      0.125000          0.146280E-02
      0.130000          0.131532E-02
      0.135000          0.119356E-02
      0.140000          0.109246E-02
      0.145000          0.100752E-02
      0.150000          0.934876E-03
      0.155000          0.871341E-03
      0.160000          0.814385E-03
      0.165000          0.762110E-03
      0.170000          0.713179E-03
      0.175000          0.666732E-03
      0.180000          0.622295E-03
      0.185000          0.579685E-03
      0.190000          0.538918E-03
      0.195000          0.500133E-03
      0.200000          0.463525E-03
      0.205000          0.429293E-03
      0.210000          0.397603E-03
      0.215000          0.368568E-03
      0.220000          0.342239E-03
      0.225000          0.318603E-03
      0.230000          0.297593E-03
      0.235000          0.279098E-03
      0.240000          0.262977E-03
      0.245000          0.249073E-03
      0.250000          0.237224E-03
      0.255000          0.227269E-03
      0.260000          0.219055E-03
      0.265000          0.212438E-03
      0.270000          0.207281E-03
      0.275000          0.203452E-03
      0.280000          0.200816E-03
      0.285000          0.199237E-03
      0.290000          0.198568E-03
      0.295000          0.198652E-03
      0.300000          0.199320E-03
      0.305000          0.200395E-03
      0.310000          0.201693E-03
      0.315000          0.203027E-03
      0.320000          0.204219E-03
      0.325000          0.205100E-03
      0.330000          0.205523E-03
      0.335000          0.205363E-03
      0.340000          0.204529E-03
      0.345000          0.202961E-03
      0.350000          0.200636E-03
      0.355000          0.197566E-03
      0.360000          0.193796E-03
      0.365000          0.189401E-03
      0.370000          0.184478E-03
      0.375000          0.179144E-03
      0.380000          0.173527E-03
      0.385000          0.167758E-03
      0.390000          0.161965E-03
      0.395000          0.156270E-03
      0.400000          0.150779E-03
      0.405000          0.145581E-03
      0.410000          0.140745E-03
      0.415000          0.136321E-03
      0.420000          0.132332E-03
      0.425000          0.128785E-03
      0.430000          0.125665E-03
      0.435000          0.122943E-03
      0.440000          0.120576E-03
      0.445000          0.118511E-03
      0.450000          0.116690E-03
      0.455000          0.115053E-03
      0.460000          0.113540E-03
      0.465000          0.112096E-03
      0.470000          0.110673E-03
      0.475000          0.109228E-03
      0.480000          0.107732E-03
      0.485000          0.106162E-03
      0.490000          0.104507E-03
      0.495000          0.102766E-03
      0.500000          0.100946E-03
