 I_abs(s)[cm^-1]/c[mg/ml]
       0.00000          0.148876E-01
      0.500000E-02      0.148393E-01
      0.100000E-01      0.146952E-01
      0.150000E-01      0.144581E-01
      0.200000E-01      0.141325E-01
      0.250000E-01      0.137247E-01
      0.300000E-01      0.132421E-01
      0.350000E-01      0.126937E-01
      0.400000E-01      0.120890E-01
      0.450000E-01      0.114386E-01
      0.500000E-01      0.107532E-01
      0.550000E-01      0.100437E-01
      0.600000E-01      0.932060E-02
      0.650000E-01      0.859427E-02
      0.700000E-01      0.787422E-02
      0.750000E-01      0.716912E-02
      0.800000E-01      0.648665E-02
      0.850000E-01      0.583333E-02
      0.900000E-01      0.521453E-02
      0.950000E-01      0.463439E-02
      0.100000          0.409587E-02
      0.105000          0.360077E-02
      0.110000          0.314986E-02
      0.115000          0.274294E-02
      0.120000          0.237901E-02
      0.125000          0.205635E-02
      0.130000          0.177271E-02
      0.135000          0.152544E-02
      0.140000          0.131158E-02
      0.145000          0.112804E-02
      0.150000          0.971663E-03
      0.155000          0.839341E-03
      0.160000          0.728084E-03
      0.165000          0.635079E-03
      0.170000          0.557728E-03
      0.175000          0.493679E-03
      0.180000          0.440835E-03
      0.185000          0.397357E-03
      0.190000          0.361657E-03
      0.195000          0.332377E-03
      0.200000          0.308376E-03
      0.205000          0.288699E-03
      0.210000          0.272559E-03
      0.215000          0.259307E-03
      0.220000          0.248412E-03
      0.225000          0.239439E-03
      0.230000          0.232030E-03
      0.235000          0.225889E-03
      0.240000          0.220768E-03
      0.245000          0.216459E-03
      0.250000          0.212785E-03
      0.255000          0.209593E-03
      0.260000          0.206753E-03
      0.265000          0.204153E-03
      0.270000          0.201701E-03
      0.275000          0.199319E-03
      0.280000          0.196944E-03
      0.285000          0.194529E-03
      0.290000          0.192040E-03
      0.295000          0.189458E-03
      0.300000          0.186771E-03
      0.305000          0.183980E-03
      0.310000          0.181094E-03
      0.315000          0.178126E-03
      0.320000          0.175096E-03
      0.325000          0.172024E-03
      0.330000          0.168932E-03
      0.335000          0.165841E-03
      0.340000          0.162769E-03
      0.345000          0.159732E-03
      0.350000          0.156740E-03
      0.355000          0.153800E-03
      0.360000          0.150916E-03
      0.365000          0.148085E-03
      0.370000          0.145305E-03
      0.375000          0.142567E-03
      0.380000          0.139863E-03
      0.385000          0.137184E-03
      0.390000          0.134519E-03
      0.395000          0.131862E-03
      0.400000          0.129206E-03
      0.405000          0.126548E-03
      0.410000          0.123887E-03
      0.415000          0.121227E-03
      0.420000          0.118575E-03
      0.425000          0.115942E-03
      0.430000          0.113340E-03
      0.435000          0.110786E-03
      0.440000          0.108297E-03
      0.445000          0.105893E-03
      0.450000          0.103593E-03
      0.455000          0.101415E-03
      0.460000          0.993769E-04
      0.465000          0.974932E-04
      0.470000          0.957762E-04
      0.475000          0.942343E-04
      0.480000          0.928718E-04
      0.485000          0.916890E-04
      0.490000          0.906817E-04
      0.495000          0.898413E-04
      0.500000          0.891550E-04
