 I_abs(s)[cm^-1]/c[mg/ml]
       0.00000          0.145843E-01
      0.500000E-02      0.145164E-01
      0.100000E-01      0.143149E-01
      0.150000E-01      0.139853E-01
      0.200000E-01      0.135372E-01
      0.250000E-01      0.129830E-01
      0.300000E-01      0.123378E-01
      0.350000E-01      0.116187E-01
      0.400000E-01      0.108441E-01
      0.450000E-01      0.100327E-01
      0.500000E-01      0.920325E-02
      0.550000E-01      0.837341E-02
      0.600000E-01      0.755940E-02
      0.650000E-01      0.677542E-02
      0.700000E-01      0.603332E-02
      0.750000E-01      0.534232E-02
      0.800000E-01      0.470895E-02
      0.850000E-01      0.413708E-02
      0.900000E-01      0.362810E-02
      0.950000E-01      0.318114E-02
      0.100000          0.279345E-02
      0.105000          0.246076E-02
      0.110000          0.217775E-02
      0.115000          0.193840E-02
      0.120000          0.173642E-02
      0.125000          0.156560E-02
      0.130000          0.142011E-02
      0.135000          0.129469E-02
      0.140000          0.118482E-02
      0.145000          0.108681E-02
      0.150000          0.997825E-03
      0.155000          0.915813E-03
      0.160000          0.839449E-03
      0.165000          0.768007E-03
      0.170000          0.701233E-03
      0.175000          0.639195E-03
      0.180000          0.582156E-03
      0.185000          0.530444E-03
      0.190000          0.484357E-03
      0.195000          0.444084E-03
      0.200000          0.409652E-03
      0.205000          0.380906E-03
      0.210000          0.357504E-03
      0.215000          0.338937E-03
      0.220000          0.324559E-03
      0.225000          0.313631E-03
      0.230000          0.305366E-03
      0.235000          0.298977E-03
      0.240000          0.293715E-03
      0.245000          0.288912E-03
      0.250000          0.284001E-03
      0.255000          0.278538E-03
      0.260000          0.272210E-03
      0.265000          0.264832E-03
      0.270000          0.256344E-03
      0.275000          0.246792E-03
      0.280000          0.236312E-03
      0.285000          0.225112E-03
      0.290000          0.213444E-03
      0.295000          0.201591E-03
      0.300000          0.189840E-03
      0.305000          0.178469E-03
      0.310000          0.167733E-03
      0.315000          0.157848E-03
      0.320000          0.148987E-03
      0.325000          0.141275E-03
      0.330000          0.134784E-03
      0.335000          0.129534E-03
      0.340000          0.125498E-03
      0.345000          0.122604E-03
      0.350000          0.120742E-03
      0.355000          0.119773E-03
      0.360000          0.119533E-03
      0.365000          0.119846E-03
      0.370000          0.120532E-03
      0.375000          0.121414E-03
      0.380000          0.122324E-03
      0.385000          0.123115E-03
      0.390000          0.123662E-03
      0.395000          0.123868E-03
      0.400000          0.123667E-03
      0.405000          0.123021E-03
      0.410000          0.121924E-03
      0.415000          0.120394E-03
      0.420000          0.118477E-03
      0.425000          0.116234E-03
      0.430000          0.113740E-03
      0.435000          0.111079E-03
      0.440000          0.108336E-03
      0.445000          0.105595E-03
      0.450000          0.102931E-03
      0.455000          0.100409E-03
      0.460000          0.980823E-04
      0.465000          0.959892E-04
      0.470000          0.941536E-04
      0.475000          0.925858E-04
      0.480000          0.912838E-04
      0.485000          0.902350E-04
      0.490000          0.894191E-04
      0.495000          0.888101E-04
      0.500000          0.883787E-04
