 I_abs(s)[cm^-1]/c[mg/ml]
       0.00000          0.147755E-01
      0.500000E-02      0.147230E-01
      0.100000E-01      0.145665E-01
      0.150000E-01      0.143095E-01
      0.200000E-01      0.139575E-01
      0.250000E-01      0.135180E-01
      0.300000E-01      0.130002E-01
      0.350000E-01      0.124147E-01
      0.400000E-01      0.117729E-01
      0.450000E-01      0.110872E-01
      0.500000E-01      0.103697E-01
      0.550000E-01      0.963298E-02
      0.600000E-01      0.888871E-02
      0.650000E-01      0.814797E-02
      0.700000E-01      0.742078E-02
      0.750000E-01      0.671593E-02
      0.800000E-01      0.604084E-02
      0.850000E-01      0.540149E-02
      0.900000E-01      0.480242E-02
      0.950000E-01      0.424674E-02
      0.100000          0.373626E-02
      0.105000          0.327156E-02
      0.110000          0.285220E-02
      0.115000          0.247685E-02
      0.120000          0.214350E-02
      0.125000          0.184961E-02
      0.130000          0.159229E-02
      0.135000          0.136847E-02
      0.140000          0.117499E-02
      0.145000          0.100876E-02
      0.150000          0.866795E-03
      0.155000          0.746292E-03
      0.160000          0.644675E-03
      0.165000          0.559601E-03
      0.170000          0.488966E-03
      0.175000          0.430893E-03
      0.180000          0.383713E-03
      0.185000          0.345942E-03
      0.190000          0.316254E-03
      0.195000          0.293462E-03
      0.200000          0.276491E-03
      0.205000          0.264367E-03
      0.210000          0.256199E-03
      0.215000          0.251175E-03
      0.220000          0.248558E-03
      0.225000          0.247681E-03
      0.230000          0.247952E-03
      0.235000          0.248854E-03
      0.240000          0.249949E-03
      0.245000          0.250875E-03
      0.250000          0.251351E-03
      0.255000          0.251170E-03
      0.260000          0.250198E-03
      0.265000          0.248367E-03
      0.270000          0.245666E-03
      0.275000          0.242134E-03
      0.280000          0.237848E-03
      0.285000          0.232913E-03
      0.290000          0.227454E-03
      0.295000          0.221606E-03
      0.300000          0.215502E-03
      0.305000          0.209271E-03
      0.310000          0.203031E-03
      0.315000          0.196884E-03
      0.320000          0.190913E-03
      0.325000          0.185182E-03
      0.330000          0.179736E-03
      0.335000          0.174602E-03
      0.340000          0.169791E-03
      0.345000          0.165299E-03
      0.350000          0.161111E-03
      0.355000          0.157204E-03
      0.360000          0.153550E-03
      0.365000          0.150116E-03
      0.370000          0.146869E-03
      0.375000          0.143777E-03
      0.380000          0.140811E-03
      0.385000          0.137946E-03
      0.390000          0.135160E-03
      0.395000          0.132438E-03
      0.400000          0.129767E-03
      0.405000          0.127142E-03
      0.410000          0.124558E-03
      0.415000          0.122018E-03
      0.420000          0.119524E-03
      0.425000          0.117083E-03
      0.430000          0.114702E-03
      0.435000          0.112387E-03
      0.440000          0.110148E-03
      0.445000          0.107990E-03
      0.450000          0.105922E-03
      0.455000          0.103947E-03
      0.460000          0.102070E-03
      0.465000          0.100295E-03
      0.470000          0.986209E-04
      0.475000          0.970496E-04
      0.480000          0.955795E-04
      0.485000          0.942085E-04
      0.490000          0.929336E-04
      0.495000          0.917507E-04
      0.500000          0.906549E-04
