 I_abs(s)[cm^-1]/c[mg/ml]
       0.00000          0.146240E-01
      0.500000E-02      0.145740E-01
      0.100000E-01      0.144248E-01
      0.150000E-01      0.141795E-01
      0.200000E-01      0.138428E-01
      0.250000E-01      0.134211E-01
      0.300000E-01      0.129226E-01
      0.350000E-01      0.123564E-01
      0.400000E-01      0.117329E-01
      0.450000E-01      0.110630E-01
      0.500000E-01      0.103581E-01
      0.550000E-01      0.962981E-02
      0.600000E-01      0.888930E-02
      0.650000E-01      0.814744E-02
      0.700000E-01      0.741434E-02
      0.750000E-01      0.669920E-02
      0.800000E-01      0.601011E-02
      0.850000E-01      0.535395E-02
      0.900000E-01      0.473633E-02
      0.950000E-01      0.416153E-02
      0.100000          0.363252E-02
      0.105000          0.315104E-02
      0.110000          0.271763E-02
      0.115000          0.233183E-02
      0.120000          0.199221E-02
      0.125000          0.169663E-02
      0.130000          0.144231E-02
      0.135000          0.122602E-02
      0.140000          0.104426E-02
      0.145000          0.893324E-03
      0.150000          0.769519E-03
      0.155000          0.669206E-03
      0.160000          0.588919E-03
      0.165000          0.525423E-03
      0.170000          0.475773E-03
      0.175000          0.437338E-03
      0.180000          0.407820E-03
      0.185000          0.385251E-03
      0.190000          0.367983E-03
      0.195000          0.354664E-03
      0.200000          0.344212E-03
      0.205000          0.335784E-03
      0.210000          0.328738E-03
      0.215000          0.322605E-03
      0.220000          0.317049E-03
      0.225000          0.311845E-03
      0.230000          0.306849E-03
      0.235000          0.301977E-03
      0.240000          0.297185E-03
      0.245000          0.292456E-03
      0.250000          0.287791E-03
      0.255000          0.283197E-03
      0.260000          0.278683E-03
      0.265000          0.274259E-03
      0.270000          0.269929E-03
      0.275000          0.265694E-03
      0.280000          0.261549E-03
      0.285000          0.257485E-03
      0.290000          0.253487E-03
      0.295000          0.249536E-03
      0.300000          0.245607E-03
      0.305000          0.241674E-03
      0.310000          0.237706E-03
      0.315000          0.233669E-03
      0.320000          0.229528E-03
      0.325000          0.225247E-03
      0.330000          0.220792E-03
      0.335000          0.216131E-03
      0.340000          0.211236E-03
      0.345000          0.206085E-03
      0.350000          0.200663E-03
      0.355000          0.194966E-03
      0.360000          0.188997E-03
      0.365000          0.182773E-03
      0.370000          0.176319E-03
      0.375000          0.169673E-03
      0.380000          0.162885E-03
      0.385000          0.156009E-03
      0.390000          0.149113E-03
      0.395000          0.142264E-03
      0.400000          0.135537E-03
      0.405000          0.129004E-03
      0.410000          0.122737E-03
      0.415000          0.116802E-03
      0.420000          0.111258E-03
      0.425000          0.106154E-03
      0.430000          0.101529E-03
      0.435000          0.974089E-04
      0.440000          0.938077E-04
      0.445000          0.907254E-04
      0.450000          0.881490E-04
      0.455000          0.860541E-04
      0.460000          0.844054E-04
      0.465000          0.831586E-04
      0.470000          0.822628E-04
      0.475000          0.816620E-04
      0.480000          0.812978E-04
      0.485000          0.811116E-04
      0.490000          0.810467E-04
      0.495000          0.810499E-04
      0.500000          0.810736E-04
