 I_abs(s)[cm^-1]/c[mg/ml]
       0.00000          0.146718E-01
      0.500000E-02      0.146189E-01
      0.100000E-01      0.144615E-01
      0.150000E-01      0.142030E-01
      0.200000E-01      0.138491E-01
      0.250000E-01      0.134076E-01
      0.300000E-01      0.128880E-01
      0.350000E-01      0.123009E-01
      0.400000E-01      0.116583E-01
      0.450000E-01      0.109725E-01
      0.500000E-01      0.102562E-01
      0.550000E-01      0.952187E-02
      0.600000E-01      0.878149E-02
      0.650000E-01      0.804616E-02
      0.700000E-01      0.732592E-02
      0.750000E-01      0.662952E-02
      0.800000E-01      0.596430E-02
      0.850000E-01      0.533608E-02
      0.900000E-01      0.474922E-02
      0.950000E-01      0.420664E-02
      0.100000          0.370991E-02
      0.105000          0.325941E-02
      0.110000          0.285446E-02
      0.115000          0.249353E-02
      0.120000          0.217442E-02
      0.125000          0.189442E-02
      0.130000          0.165051E-02
      0.135000          0.143950E-02
      0.140000          0.125811E-02
      0.145000          0.110317E-02
      0.150000          0.971620E-03
      0.155000          0.860583E-03
      0.160000          0.767419E-03
      0.165000          0.689721E-03
      0.170000          0.625323E-03
      0.175000          0.572284E-03
      0.180000          0.528879E-03
      0.185000          0.493569E-03
      0.190000          0.464987E-03
      0.195000          0.441918E-03
      0.200000          0.423277E-03
      0.205000          0.408102E-03
      0.210000          0.395541E-03
      0.215000          0.384848E-03
      0.220000          0.375377E-03
      0.225000          0.366582E-03
      0.230000          0.358016E-03
      0.235000          0.349326E-03
      0.240000          0.340253E-03
      0.245000          0.330624E-03
      0.250000          0.320349E-03
      0.255000          0.309408E-03
      0.260000          0.297844E-03
      0.265000          0.285748E-03
      0.270000          0.273250E-03
      0.275000          0.260504E-03
      0.280000          0.247676E-03
      0.285000          0.234931E-03
      0.290000          0.222430E-03
      0.295000          0.210316E-03
      0.300000          0.198710E-03
      0.305000          0.187711E-03
      0.310000          0.177392E-03
      0.315000          0.167798E-03
      0.320000          0.158954E-03
      0.325000          0.150863E-03
      0.330000          0.143512E-03
      0.335000          0.136875E-03
      0.340000          0.130916E-03
      0.345000          0.125597E-03
      0.350000          0.120874E-03
      0.355000          0.116704E-03
      0.360000          0.113047E-03
      0.365000          0.109864E-03
      0.370000          0.107120E-03
      0.375000          0.104781E-03
      0.380000          0.102815E-03
      0.385000          0.101193E-03
      0.390000          0.998850E-04
      0.395000          0.988606E-04
      0.400000          0.980888E-04
      0.405000          0.975373E-04
      0.410000          0.971728E-04
      0.415000          0.969608E-04
      0.420000          0.968669E-04
      0.425000          0.968567E-04
      0.430000          0.968974E-04
      0.435000          0.969583E-04
      0.440000          0.970120E-04
      0.445000          0.970345E-04
      0.450000          0.970065E-04
      0.455000          0.969130E-04
      0.460000          0.967437E-04
      0.465000          0.964928E-04
      0.470000          0.961581E-04
      0.475000          0.957409E-04
      0.480000          0.952447E-04
      0.485000          0.946746E-04
      0.490000          0.940367E-04
      0.495000          0.933368E-04
      0.500000          0.925804E-04
