 I_abs(s)[cm^-1]/c[mg/ml]
       0.00000          0.142526E-01
      0.500000E-02      0.141776E-01
      0.100000E-01      0.139548E-01
      0.150000E-01      0.135916E-01
      0.200000E-01      0.130998E-01
      0.250000E-01      0.124951E-01
      0.300000E-01      0.117963E-01
      0.350000E-01      0.110241E-01
      0.400000E-01      0.102006E-01
      0.450000E-01      0.934803E-02
      0.500000E-01      0.848778E-02
      0.550000E-01      0.763954E-02
      0.600000E-01      0.682064E-02
      0.650000E-01      0.604552E-02
      0.700000E-01      0.532534E-02
      0.750000E-01      0.466789E-02
      0.800000E-01      0.407766E-02
      0.850000E-01      0.355602E-02
      0.900000E-01      0.310165E-02
      0.950000E-01      0.271099E-02
      0.100000          0.237875E-02
      0.105000          0.209852E-02
      0.110000          0.186323E-02
      0.115000          0.166573E-02
      0.120000          0.149910E-02
      0.125000          0.135705E-02
      0.130000          0.123414E-02
      0.135000          0.112584E-02
      0.140000          0.102864E-02
      0.145000          0.939995E-03
      0.150000          0.858199E-03
      0.155000          0.782275E-03
      0.160000          0.711804E-03
      0.165000          0.646757E-03
      0.170000          0.587338E-03
      0.175000          0.533842E-03
      0.180000          0.486541E-03
      0.185000          0.445606E-03
      0.190000          0.411050E-03
      0.195000          0.382707E-03
      0.200000          0.360233E-03
      0.205000          0.343124E-03
      0.210000          0.330753E-03
      0.215000          0.322407E-03
      0.220000          0.317331E-03
      0.225000          0.314767E-03
      0.230000          0.313994E-03
      0.235000          0.314352E-03
      0.240000          0.315265E-03
      0.245000          0.316253E-03
      0.250000          0.316933E-03
      0.255000          0.317024E-03
      0.260000          0.316334E-03
      0.265000          0.314750E-03
      0.270000          0.312227E-03
      0.275000          0.308775E-03
      0.280000          0.304440E-03
      0.285000          0.299297E-03
      0.290000          0.293436E-03
      0.295000          0.286952E-03
      0.300000          0.279942E-03
      0.305000          0.272497E-03
      0.310000          0.264704E-03
      0.315000          0.256642E-03
      0.320000          0.248384E-03
      0.325000          0.240001E-03
      0.330000          0.231563E-03
      0.335000          0.223139E-03
      0.340000          0.214801E-03
      0.345000          0.206624E-03
      0.350000          0.198684E-03
      0.355000          0.191058E-03
      0.360000          0.183818E-03
      0.365000          0.177029E-03
      0.370000          0.170746E-03
      0.375000          0.165008E-03
      0.380000          0.159833E-03
      0.385000          0.155222E-03
      0.390000          0.151151E-03
      0.395000          0.147575E-03
      0.400000          0.144432E-03
      0.405000          0.141643E-03
      0.410000          0.139120E-03
      0.415000          0.136773E-03
      0.420000          0.134512E-03
      0.425000          0.132257E-03
      0.430000          0.129943E-03
      0.435000          0.127520E-03
      0.440000          0.124960E-03
      0.445000          0.122255E-03
      0.450000          0.119418E-03
      0.455000          0.116476E-03
      0.460000          0.113473E-03
      0.465000          0.110456E-03
      0.470000          0.107478E-03
      0.475000          0.104590E-03
      0.480000          0.101836E-03
      0.485000          0.992483E-04
      0.490000          0.968494E-04
      0.495000          0.946477E-04
      0.500000          0.926398E-04
