 I_abs(s)[cm^-1]/c[mg/ml]
       0.00000          0.139870E-01
      0.500000E-02      0.139131E-01
      0.100000E-01      0.136941E-01
      0.150000E-01      0.133377E-01
      0.200000E-01      0.128562E-01
      0.250000E-01      0.122659E-01
      0.300000E-01      0.115861E-01
      0.350000E-01      0.108383E-01
      0.400000E-01      0.100449E-01
      0.450000E-01      0.922829E-02
      0.500000E-01      0.840958E-02
      0.550000E-01      0.760792E-02
      0.600000E-01      0.683970E-02
      0.650000E-01      0.611809E-02
      0.700000E-01      0.545271E-02
      0.750000E-01      0.484964E-02
      0.800000E-01      0.431157E-02
      0.850000E-01      0.383815E-02
      0.900000E-01      0.342650E-02
      0.950000E-01      0.307176E-02
      0.100000          0.276771E-02
      0.105000          0.250741E-02
      0.110000          0.228372E-02
      0.115000          0.208979E-02
      0.120000          0.191944E-02
      0.125000          0.176739E-02
      0.130000          0.162940E-02
      0.135000          0.150228E-02
      0.140000          0.138386E-02
      0.145000          0.127281E-02
      0.150000          0.116847E-02
      0.155000          0.107069E-02
      0.160000          0.979571E-03
      0.165000          0.895342E-03
      0.170000          0.818194E-03
      0.175000          0.748192E-03
      0.180000          0.685221E-03
      0.185000          0.628970E-03
      0.190000          0.578952E-03
      0.195000          0.534546E-03
      0.200000          0.495053E-03
      0.205000          0.459758E-03
      0.210000          0.427981E-03
      0.215000          0.399122E-03
      0.220000          0.372687E-03
      0.225000          0.348300E-03
      0.230000          0.325697E-03
      0.235000          0.304713E-03
      0.240000          0.285256E-03
      0.245000          0.267280E-03
      0.250000          0.250758E-03
      0.255000          0.235661E-03
      0.260000          0.221944E-03
      0.265000          0.209535E-03
      0.270000          0.198342E-03
      0.275000          0.188252E-03
      0.280000          0.179150E-03
      0.285000          0.170926E-03
      0.290000          0.163487E-03
      0.295000          0.156768E-03
      0.300000          0.150736E-03
      0.305000          0.145385E-03
      0.310000          0.140737E-03
      0.315000          0.136824E-03
      0.320000          0.133682E-03
      0.325000          0.131335E-03
      0.330000          0.129786E-03
      0.335000          0.129003E-03
      0.340000          0.128919E-03
      0.345000          0.129428E-03
      0.350000          0.130393E-03
      0.355000          0.131650E-03
      0.360000          0.133025E-03
      0.365000          0.134341E-03
      0.370000          0.135436E-03
      0.375000          0.136172E-03
      0.380000          0.136447E-03
      0.385000          0.136197E-03
      0.390000          0.135400E-03
      0.395000          0.134077E-03
      0.400000          0.132279E-03
      0.405000          0.130086E-03
      0.410000          0.127592E-03
      0.415000          0.124900E-03
      0.420000          0.122107E-03
      0.425000          0.119300E-03
      0.430000          0.116550E-03
      0.435000          0.113909E-03
      0.440000          0.111405E-03
      0.445000          0.109053E-03
      0.450000          0.106848E-03
      0.455000          0.104778E-03
      0.460000          0.102826E-03
      0.465000          0.100972E-03
      0.470000          0.992015E-04
      0.475000          0.975059E-04
      0.480000          0.958828E-04
      0.485000          0.943368E-04
      0.490000          0.928780E-04
      0.495000          0.915192E-04
      0.500000          0.902738E-04
