 I_abs(s)[cm^-1]/c[mg/ml]
       0.00000          0.142526E-01
      0.500000E-02      0.141211E-01
      0.100000E-01      0.137348E-01
      0.150000E-01      0.131186E-01
      0.200000E-01      0.123104E-01
      0.250000E-01      0.113580E-01
      0.300000E-01      0.103137E-01
      0.350000E-01      0.922958E-02
      0.400000E-01      0.815346E-02
      0.450000E-01      0.712520E-02
      0.500000E-01      0.617473E-02
      0.550000E-01      0.532137E-02
      0.600000E-01      0.457426E-02
      0.650000E-01      0.393386E-02
      0.700000E-01      0.339389E-02
      0.750000E-01      0.294359E-02
      0.800000E-01      0.256974E-02
      0.850000E-01      0.225848E-02
      0.900000E-01      0.199661E-02
      0.950000E-01      0.177246E-02
      0.100000          0.157641E-02
      0.105000          0.140110E-02
      0.110000          0.124136E-02
      0.115000          0.109407E-02
      0.120000          0.957889E-03
      0.125000          0.832828E-03
      0.130000          0.719847E-03
      0.135000          0.620348E-03
      0.140000          0.535690E-03
      0.145000          0.466754E-03
      0.150000          0.413627E-03
      0.155000          0.375444E-03
      0.160000          0.350417E-03
      0.165000          0.336036E-03
      0.170000          0.329402E-03
      0.175000          0.327610E-03
      0.180000          0.328118E-03
      0.185000          0.329021E-03
      0.190000          0.329177E-03
      0.195000          0.328197E-03
      0.200000          0.326284E-03
      0.205000          0.324010E-03
      0.210000          0.322050E-03
      0.215000          0.320971E-03
      0.220000          0.321082E-03
      0.225000          0.322384E-03
      0.230000          0.324607E-03
      0.235000          0.327296E-03
      0.240000          0.329930E-03
      0.245000          0.332017E-03
      0.250000          0.333160E-03
      0.255000          0.333078E-03
      0.260000          0.331586E-03
      0.265000          0.328566E-03
      0.270000          0.323931E-03
      0.275000          0.317613E-03
      0.280000          0.309578E-03
      0.285000          0.299858E-03
      0.290000          0.288598E-03
      0.295000          0.276089E-03
      0.300000          0.262783E-03
      0.305000          0.249267E-03
      0.310000          0.236207E-03
      0.315000          0.224270E-03
      0.320000          0.214030E-03
      0.325000          0.205883E-03
      0.330000          0.199996E-03
      0.335000          0.196278E-03
      0.340000          0.194403E-03
      0.345000          0.193854E-03
      0.350000          0.194001E-03
      0.355000          0.194186E-03
      0.360000          0.193800E-03
      0.365000          0.192357E-03
      0.370000          0.189538E-03
      0.375000          0.185213E-03
      0.380000          0.179447E-03
      0.385000          0.172472E-03
      0.390000          0.164654E-03
      0.395000          0.156440E-03
      0.400000          0.148303E-03
      0.405000          0.140685E-03
      0.410000          0.133948E-03
      0.415000          0.128331E-03
      0.420000          0.123930E-03
      0.425000          0.120694E-03
      0.430000          0.118440E-03
      0.435000          0.116887E-03
      0.440000          0.115708E-03
      0.445000          0.114572E-03
      0.450000          0.113202E-03
      0.455000          0.111406E-03
      0.460000          0.109096E-03
      0.465000          0.106298E-03
      0.470000          0.103129E-03
      0.475000          0.997714E-04
      0.480000          0.964382E-04
      0.485000          0.933371E-04
      0.490000          0.906400E-04
      0.495000          0.884624E-04
      0.500000          0.868538E-04
