 I_abs(s)[cm^-1]/c[mg/ml]
       0.00000          0.147276E-01
      0.500000E-02      0.146821E-01
      0.100000E-01      0.145465E-01
      0.150000E-01      0.143233E-01
      0.200000E-01      0.140164E-01
      0.250000E-01      0.136315E-01
      0.300000E-01      0.131752E-01
      0.350000E-01      0.126555E-01
      0.400000E-01      0.120810E-01
      0.450000E-01      0.114614E-01
      0.500000E-01      0.108062E-01
      0.550000E-01      0.101255E-01
      0.600000E-01      0.942916E-02
      0.650000E-01      0.872665E-02
      0.700000E-01      0.802697E-02
      0.750000E-01      0.733840E-02
      0.800000E-01      0.666834E-02
      0.850000E-01      0.602325E-02
      0.900000E-01      0.540852E-02
      0.950000E-01      0.482848E-02
      0.100000          0.428637E-02
      0.105000          0.378439E-02
      0.110000          0.332375E-02
      0.115000          0.290475E-02
      0.120000          0.252691E-02
      0.125000          0.218903E-02
      0.130000          0.188939E-02
      0.135000          0.162578E-02
      0.140000          0.139572E-02
      0.145000          0.119650E-02
      0.150000          0.102531E-02
      0.155000          0.879339E-03
      0.160000          0.755826E-03
      0.165000          0.652138E-03
      0.170000          0.565806E-03
      0.175000          0.494552E-03
      0.180000          0.436309E-03
      0.185000          0.389217E-03
      0.190000          0.351627E-03
      0.195000          0.322078E-03
      0.200000          0.299290E-03
      0.205000          0.282135E-03
      0.210000          0.269624E-03
      0.215000          0.260884E-03
      0.220000          0.255142E-03
      0.225000          0.251709E-03
      0.230000          0.249971E-03
      0.235000          0.249383E-03
      0.240000          0.249461E-03
      0.245000          0.249782E-03
      0.250000          0.249983E-03
      0.255000          0.249764E-03
      0.260000          0.248888E-03
      0.265000          0.247181E-03
      0.270000          0.244534E-03
      0.275000          0.240901E-03
      0.280000          0.236291E-03
      0.285000          0.230772E-03
      0.290000          0.224453E-03
      0.295000          0.217483E-03
      0.300000          0.210038E-03
      0.305000          0.202312E-03
      0.310000          0.194501E-03
      0.315000          0.186799E-03
      0.320000          0.179386E-03
      0.325000          0.172416E-03
      0.330000          0.166018E-03
      0.335000          0.160283E-03
      0.340000          0.155268E-03
      0.345000          0.150992E-03
      0.350000          0.147439E-03
      0.355000          0.144561E-03
      0.360000          0.142283E-03
      0.365000          0.140510E-03
      0.370000          0.139130E-03
      0.375000          0.138026E-03
      0.380000          0.137079E-03
      0.385000          0.136176E-03
      0.390000          0.135215E-03
      0.395000          0.134107E-03
      0.400000          0.132786E-03
      0.405000          0.131203E-03
      0.410000          0.129331E-03
      0.415000          0.127164E-03
      0.420000          0.124717E-03
      0.425000          0.122018E-03
      0.430000          0.119111E-03
      0.435000          0.116050E-03
      0.440000          0.112895E-03
      0.445000          0.109708E-03
      0.450000          0.106550E-03
      0.455000          0.103481E-03
      0.460000          0.100550E-03
      0.465000          0.978009E-04
      0.470000          0.952657E-04
      0.475000          0.929668E-04
      0.480000          0.909159E-04
      0.485000          0.891142E-04
      0.490000          0.875539E-04
      0.495000          0.862194E-04
      0.500000          0.850884E-04
