 I_abs(s)[cm^-1]/c[mg/ml]
       0.00000          0.146002E-01
      0.500000E-02      0.145472E-01
      0.100000E-01      0.143894E-01
      0.150000E-01      0.141302E-01
      0.200000E-01      0.137749E-01
      0.250000E-01      0.133312E-01
      0.300000E-01      0.128080E-01
      0.350000E-01      0.122159E-01
      0.400000E-01      0.115663E-01
      0.450000E-01      0.108715E-01
      0.500000E-01      0.101441E-01
      0.550000E-01      0.939635E-02
      0.600000E-01      0.864046E-02
      0.650000E-01      0.788779E-02
      0.700000E-01      0.714874E-02
      0.750000E-01      0.643256E-02
      0.800000E-01      0.574718E-02
      0.850000E-01      0.509908E-02
      0.900000E-01      0.449330E-02
      0.950000E-01      0.393342E-02
      0.100000          0.342164E-02
      0.105000          0.295887E-02
      0.110000          0.254486E-02
      0.115000          0.217835E-02
      0.120000          0.185728E-02
      0.125000          0.157890E-02
      0.130000          0.134000E-02
      0.135000          0.113704E-02
      0.140000          0.966329E-03
      0.145000          0.824121E-03
      0.150000          0.706760E-03
      0.155000          0.610756E-03
      0.160000          0.532857E-03
      0.165000          0.470100E-03
      0.170000          0.419839E-03
      0.175000          0.379759E-03
      0.180000          0.347876E-03
      0.185000          0.322525E-03
      0.190000          0.302337E-03
      0.195000          0.286214E-03
      0.200000          0.273296E-03
      0.205000          0.262925E-03
      0.210000          0.254615E-03
      0.215000          0.248011E-03
      0.220000          0.242866E-03
      0.225000          0.239004E-03
      0.230000          0.236300E-03
      0.235000          0.234655E-03
      0.240000          0.233979E-03
      0.245000          0.234181E-03
      0.250000          0.235155E-03
      0.255000          0.236779E-03
      0.260000          0.238909E-03
      0.265000          0.241385E-03
      0.270000          0.244033E-03
      0.275000          0.246668E-03
      0.280000          0.249106E-03
      0.285000          0.251169E-03
      0.290000          0.252693E-03
      0.295000          0.253534E-03
      0.300000          0.253576E-03
      0.305000          0.252735E-03
      0.310000          0.250958E-03
      0.315000          0.248229E-03
      0.320000          0.244564E-03
      0.325000          0.240009E-03
      0.330000          0.234638E-03
      0.335000          0.228546E-03
      0.340000          0.221842E-03
      0.345000          0.214645E-03
      0.350000          0.207079E-03
      0.355000          0.199263E-03
      0.360000          0.191314E-03
      0.365000          0.183335E-03
      0.370000          0.175418E-03
      0.375000          0.167641E-03
      0.380000          0.160068E-03
      0.385000          0.152749E-03
      0.390000          0.145723E-03
      0.395000          0.139016E-03
      0.400000          0.132647E-03
      0.405000          0.126628E-03
      0.410000          0.120966E-03
      0.415000          0.115669E-03
      0.420000          0.110738E-03
      0.425000          0.106179E-03
      0.430000          0.101994E-03
      0.435000          0.981890E-04
      0.440000          0.947665E-04
      0.445000          0.917304E-04
      0.450000          0.890822E-04
      0.455000          0.868215E-04
      0.460000          0.849446E-04
      0.465000          0.834437E-04
      0.470000          0.823066E-04
      0.475000          0.815164E-04
      0.480000          0.810511E-04
      0.485000          0.808839E-04
      0.490000          0.809837E-04
      0.495000          0.813158E-04
      0.500000          0.818423E-04
