 I_abs(s)[cm^-1]/c[mg/ml]
       0.00000          0.145050E-01
      0.500000E-02      0.144391E-01
      0.100000E-01      0.142433E-01
      0.150000E-01      0.139232E-01
      0.200000E-01      0.134880E-01
      0.250000E-01      0.129496E-01
      0.300000E-01      0.123229E-01
      0.350000E-01      0.116242E-01
      0.400000E-01      0.108712E-01
      0.450000E-01      0.100820E-01
      0.500000E-01      0.927459E-02
      0.550000E-01      0.846573E-02
      0.600000E-01      0.767089E-02
      0.650000E-01      0.690355E-02
      0.700000E-01      0.617488E-02
      0.750000E-01      0.549357E-02
      0.800000E-01      0.486577E-02
      0.850000E-01      0.429512E-02
      0.900000E-01      0.378298E-02
      0.950000E-01      0.332865E-02
      0.100000          0.292973E-02
      0.105000          0.258249E-02
      0.110000          0.228225E-02
      0.115000          0.202379E-02
      0.120000          0.180167E-02
      0.125000          0.161055E-02
      0.130000          0.144540E-02
      0.135000          0.130175E-02
      0.140000          0.117572E-02
      0.145000          0.106414E-02
      0.150000          0.964488E-03
      0.155000          0.874896E-03
      0.160000          0.794023E-03
      0.165000          0.720977E-03
      0.170000          0.655192E-03
      0.175000          0.596318E-03
      0.180000          0.544119E-03
      0.185000          0.498389E-03
      0.190000          0.458886E-03
      0.195000          0.425287E-03
      0.200000          0.397170E-03
      0.205000          0.374008E-03
      0.210000          0.355187E-03
      0.215000          0.340028E-03
      0.220000          0.327824E-03
      0.225000          0.317872E-03
      0.230000          0.309511E-03
      0.235000          0.302147E-03
      0.240000          0.295284E-03
      0.245000          0.288531E-03
      0.250000          0.281617E-03
      0.255000          0.274380E-03
      0.260000          0.266766E-03
      0.265000          0.258809E-03
      0.270000          0.250616E-03
      0.275000          0.242339E-03
      0.280000          0.234162E-03
      0.285000          0.226271E-03
      0.290000          0.218844E-03
      0.295000          0.212031E-03
      0.300000          0.205945E-03
      0.305000          0.200654E-03
      0.310000          0.196181E-03
      0.315000          0.192503E-03
      0.320000          0.189555E-03
      0.325000          0.187240E-03
      0.330000          0.185435E-03
      0.335000          0.184000E-03
      0.340000          0.182790E-03
      0.345000          0.181661E-03
      0.350000          0.180479E-03
      0.355000          0.179128E-03
      0.360000          0.177511E-03
      0.365000          0.175555E-03
      0.370000          0.173215E-03
      0.375000          0.170465E-03
      0.380000          0.167306E-03
      0.385000          0.163757E-03
      0.390000          0.159855E-03
      0.395000          0.155645E-03
      0.400000          0.151186E-03
      0.405000          0.146539E-03
      0.410000          0.141767E-03
      0.415000          0.136933E-03
      0.420000          0.132095E-03
      0.425000          0.127309E-03
      0.430000          0.122624E-03
      0.435000          0.118085E-03
      0.440000          0.113728E-03
      0.445000          0.109587E-03
      0.450000          0.105689E-03
      0.455000          0.102056E-03
      0.460000          0.987043E-04
      0.465000          0.956477E-04
      0.470000          0.928944E-04
      0.475000          0.904480E-04
      0.480000          0.883081E-04
      0.485000          0.864692E-04
      0.490000          0.849215E-04
      0.495000          0.836505E-04
      0.500000          0.826375E-04
