 I_abs(s)[cm^-1]/c[mg/ml]
       0.00000          0.146320E-01
      0.500000E-02      0.145750E-01
      0.100000E-01      0.144054E-01
      0.150000E-01      0.141275E-01
      0.200000E-01      0.137482E-01
      0.250000E-01      0.132767E-01
      0.300000E-01      0.127241E-01
      0.350000E-01      0.121031E-01
      0.400000E-01      0.114277E-01
      0.450000E-01      0.107119E-01
      0.500000E-01      0.997006E-02
      0.550000E-01      0.921608E-02
      0.600000E-01      0.846287E-02
      0.650000E-01      0.772213E-02
      0.700000E-01      0.700407E-02
      0.750000E-01      0.631720E-02
      0.800000E-01      0.566825E-02
      0.850000E-01      0.506215E-02
      0.900000E-01      0.450211E-02
      0.950000E-01      0.398975E-02
      0.100000          0.352528E-02
      0.105000          0.310773E-02
      0.110000          0.273515E-02
      0.115000          0.240490E-02
      0.120000          0.211384E-02
      0.125000          0.185857E-02
      0.130000          0.163555E-02
      0.135000          0.144132E-02
      0.140000          0.127256E-02
      0.145000          0.112615E-02
      0.150000          0.999296E-03
      0.155000          0.889455E-03
      0.160000          0.794392E-03
      0.165000          0.712144E-03
      0.170000          0.640994E-03
      0.175000          0.579446E-03
      0.180000          0.526188E-03
      0.185000          0.480071E-03
      0.190000          0.440083E-03
      0.195000          0.405332E-03
      0.200000          0.375031E-03
      0.205000          0.348492E-03
      0.210000          0.325120E-03
      0.215000          0.304406E-03
      0.220000          0.285927E-03
      0.225000          0.269341E-03
      0.230000          0.254378E-03
      0.235000          0.240835E-03
      0.240000          0.228568E-03
      0.245000          0.217475E-03
      0.250000          0.207493E-03
      0.255000          0.198578E-03
      0.260000          0.190703E-03
      0.265000          0.183838E-03
      0.270000          0.177954E-03
      0.275000          0.173009E-03
      0.280000          0.168948E-03
      0.285000          0.165704E-03
      0.290000          0.163194E-03
      0.295000          0.161329E-03
      0.300000          0.160009E-03
      0.305000          0.159133E-03
      0.310000          0.158601E-03
      0.315000          0.158316E-03
      0.320000          0.158190E-03
      0.325000          0.158144E-03
      0.330000          0.158110E-03
      0.335000          0.158030E-03
      0.340000          0.157859E-03
      0.345000          0.157563E-03
      0.350000          0.157116E-03
      0.355000          0.156501E-03
      0.360000          0.155710E-03
      0.365000          0.154738E-03
      0.370000          0.153588E-03
      0.375000          0.152266E-03
      0.380000          0.150779E-03
      0.385000          0.149140E-03
      0.390000          0.147359E-03
      0.395000          0.145452E-03
      0.400000          0.143431E-03
      0.405000          0.141311E-03
      0.410000          0.139104E-03
      0.415000          0.136823E-03
      0.420000          0.134479E-03
      0.425000          0.132082E-03
      0.430000          0.129641E-03
      0.435000          0.127164E-03
      0.440000          0.124658E-03
      0.445000          0.122131E-03
      0.450000          0.119591E-03
      0.455000          0.117048E-03
      0.460000          0.114511E-03
      0.465000          0.111994E-03
      0.470000          0.109510E-03
      0.475000          0.107075E-03
      0.480000          0.104704E-03
      0.485000          0.102416E-03
      0.490000          0.100226E-03
      0.495000          0.981505E-04
      0.500000          0.962020E-04
