 I_abs(s)[cm^-1]/c[mg/ml]
       0.00000          0.146081E-01
      0.500000E-02      0.145488E-01
      0.100000E-01      0.143722E-01
      0.150000E-01      0.140825E-01
      0.200000E-01      0.136865E-01
      0.250000E-01      0.131934E-01
      0.300000E-01      0.126144E-01
      0.350000E-01      0.119624E-01
      0.400000E-01      0.112513E-01
      0.450000E-01      0.104960E-01
      0.500000E-01      0.971138E-02
      0.550000E-01      0.891219E-02
      0.600000E-01      0.811249E-02
      0.650000E-01      0.732526E-02
      0.700000E-01      0.656213E-02
      0.750000E-01      0.583308E-02
      0.800000E-01      0.514630E-02
      0.850000E-01      0.450809E-02
      0.900000E-01      0.392288E-02
      0.950000E-01      0.339325E-02
      0.100000          0.292010E-02
      0.105000          0.250280E-02
      0.110000          0.213942E-02
      0.115000          0.182694E-02
      0.120000          0.156156E-02
      0.125000          0.133889E-02
      0.130000          0.115422E-02
      0.135000          0.100272E-02
      0.140000          0.879627E-03
      0.145000          0.780409E-03
      0.150000          0.700867E-03
      0.155000          0.637222E-03
      0.160000          0.586166E-03
      0.165000          0.544875E-03
      0.170000          0.511004E-03
      0.175000          0.482660E-03
      0.180000          0.458359E-03
      0.185000          0.436974E-03
      0.190000          0.417681E-03
      0.195000          0.399901E-03
      0.200000          0.383247E-03
      0.205000          0.367476E-03
      0.210000          0.352448E-03
      0.215000          0.338094E-03
      0.220000          0.324388E-03
      0.225000          0.311329E-03
      0.230000          0.298928E-03
      0.235000          0.287199E-03
      0.240000          0.276157E-03
      0.245000          0.265814E-03
      0.250000          0.256178E-03
      0.255000          0.247255E-03
      0.260000          0.239046E-03
      0.265000          0.231552E-03
      0.270000          0.224767E-03
      0.275000          0.218682E-03
      0.280000          0.213279E-03
      0.285000          0.208536E-03
      0.290000          0.204421E-03
      0.295000          0.200893E-03
      0.300000          0.197902E-03
      0.305000          0.195390E-03
      0.310000          0.193292E-03
      0.315000          0.191539E-03
      0.320000          0.190057E-03
      0.325000          0.188774E-03
      0.330000          0.187617E-03
      0.335000          0.186519E-03
      0.340000          0.185417E-03
      0.345000          0.184256E-03
      0.350000          0.182987E-03
      0.355000          0.181570E-03
      0.360000          0.179975E-03
      0.365000          0.178175E-03
      0.370000          0.176153E-03
      0.375000          0.173898E-03
      0.380000          0.171404E-03
      0.385000          0.168670E-03
      0.390000          0.165700E-03
      0.395000          0.162503E-03
      0.400000          0.159093E-03
      0.405000          0.155489E-03
      0.410000          0.151714E-03
      0.415000          0.147797E-03
      0.420000          0.143775E-03
      0.425000          0.139687E-03
      0.430000          0.135577E-03
      0.435000          0.131496E-03
      0.440000          0.127492E-03
      0.445000          0.123619E-03
      0.450000          0.119927E-03
      0.455000          0.116463E-03
      0.460000          0.113268E-03
      0.465000          0.110376E-03
      0.470000          0.107811E-03
      0.475000          0.105587E-03
      0.480000          0.103705E-03
      0.485000          0.102154E-03
      0.490000          0.100911E-03
      0.495000          0.999417E-04
      0.500000          0.992036E-04
