 I_abs(s)[cm^-1]/c[mg/ml]
       0.00000          0.146161E-01
      0.500000E-02      0.145438E-01
      0.100000E-01      0.143292E-01
      0.150000E-01      0.139791E-01
      0.200000E-01      0.135042E-01
      0.250000E-01      0.129190E-01
      0.300000E-01      0.122406E-01
      0.350000E-01      0.114884E-01
      0.400000E-01      0.106829E-01
      0.450000E-01      0.984461E-02
      0.500000E-01      0.899373E-02
      0.550000E-01      0.814888E-02
      0.600000E-01      0.732663E-02
      0.650000E-01      0.654101E-02
      0.700000E-01      0.580312E-02
      0.750000E-01      0.512103E-02
      0.800000E-01      0.449979E-02
      0.850000E-01      0.394162E-02
      0.900000E-01      0.344620E-02
      0.950000E-01      0.301111E-02
      0.100000          0.263232E-02
      0.105000          0.230461E-02
      0.110000          0.202213E-02
      0.115000          0.177882E-02
      0.120000          0.156877E-02
      0.125000          0.138654E-02
      0.130000          0.122736E-02
      0.135000          0.108727E-02
      0.140000          0.963122E-03
      0.145000          0.852585E-03
      0.150000          0.754024E-03
      0.155000          0.666385E-03
      0.160000          0.589042E-03
      0.165000          0.521639E-03
      0.170000          0.463947E-03
      0.175000          0.415743E-03
      0.180000          0.376709E-03
      0.185000          0.346374E-03
      0.190000          0.324085E-03
      0.195000          0.309000E-03
      0.200000          0.300121E-03
      0.205000          0.296331E-03
      0.210000          0.296452E-03
      0.215000          0.299302E-03
      0.220000          0.303754E-03
      0.225000          0.308781E-03
      0.230000          0.313503E-03
      0.235000          0.317212E-03
      0.240000          0.319384E-03
      0.245000          0.319682E-03
      0.250000          0.317951E-03
      0.255000          0.314193E-03
      0.260000          0.308548E-03
      0.265000          0.301260E-03
      0.270000          0.292654E-03
      0.275000          0.283096E-03
      0.280000          0.272973E-03
      0.285000          0.262665E-03
      0.290000          0.252520E-03
      0.295000          0.242843E-03
      0.300000          0.233881E-03
      0.305000          0.225813E-03
      0.310000          0.218751E-03
      0.315000          0.212736E-03
      0.320000          0.207746E-03
      0.325000          0.203701E-03
      0.330000          0.200474E-03
      0.335000          0.197902E-03
      0.340000          0.195799E-03
      0.345000          0.193973E-03
      0.350000          0.192235E-03
      0.355000          0.190414E-03
      0.360000          0.188365E-03
      0.365000          0.185980E-03
      0.370000          0.183192E-03
      0.375000          0.179976E-03
      0.380000          0.176350E-03
      0.385000          0.172368E-03
      0.390000          0.168116E-03
      0.395000          0.163702E-03
      0.400000          0.159246E-03
      0.405000          0.154871E-03
      0.410000          0.150691E-03
      0.415000          0.146805E-03
      0.420000          0.143287E-03
      0.425000          0.140185E-03
      0.430000          0.137515E-03
      0.435000          0.135263E-03
      0.440000          0.133388E-03
      0.445000          0.131826E-03
      0.450000          0.130493E-03
      0.455000          0.129299E-03
      0.460000          0.128146E-03
      0.465000          0.126944E-03
      0.470000          0.125610E-03
      0.475000          0.124076E-03
      0.480000          0.122292E-03
      0.485000          0.120229E-03
      0.490000          0.117879E-03
      0.495000          0.115252E-03
      0.500000          0.112377E-03
