 I_abs(s)[cm^-1]/c[mg/ml]
       0.00000          0.148957E-01
      0.500000E-02      0.148425E-01
      0.100000E-01      0.146841E-01
      0.150000E-01      0.144239E-01
      0.200000E-01      0.140675E-01
      0.250000E-01      0.136225E-01
      0.300000E-01      0.130982E-01
      0.350000E-01      0.125052E-01
      0.400000E-01      0.118551E-01
      0.450000E-01      0.111604E-01
      0.500000E-01      0.104335E-01
      0.550000E-01      0.968696E-02
      0.600000E-01      0.893278E-02
      0.650000E-01      0.818218E-02
      0.700000E-01      0.744539E-02
      0.750000E-01      0.673136E-02
      0.800000E-01      0.604769E-02
      0.850000E-01      0.540052E-02
      0.900000E-01      0.479450E-02
      0.950000E-01      0.423285E-02
      0.100000          0.371745E-02
      0.105000          0.324892E-02
      0.110000          0.282684E-02
      0.115000          0.244988E-02
      0.120000          0.211597E-02
      0.125000          0.182255E-02
      0.130000          0.156665E-02
      0.135000          0.134512E-02
      0.140000          0.115473E-02
      0.145000          0.992292E-03
      0.150000          0.854731E-03
      0.155000          0.739156E-03
      0.160000          0.642897E-03
      0.165000          0.563512E-03
      0.170000          0.498798E-03
      0.175000          0.446770E-03
      0.180000          0.405647E-03
      0.185000          0.373826E-03
      0.190000          0.349856E-03
      0.195000          0.332420E-03
      0.200000          0.320314E-03
      0.205000          0.312436E-03
      0.210000          0.307778E-03
      0.215000          0.305422E-03
      0.220000          0.304545E-03
      0.225000          0.304422E-03
      0.230000          0.304431E-03
      0.235000          0.304059E-03
      0.240000          0.302906E-03
      0.245000          0.300684E-03
      0.250000          0.297216E-03
      0.255000          0.292431E-03
      0.260000          0.286351E-03
      0.265000          0.279078E-03
      0.270000          0.270778E-03
      0.275000          0.261666E-03
      0.280000          0.251983E-03
      0.285000          0.241981E-03
      0.290000          0.231908E-03
      0.295000          0.221988E-03
      0.300000          0.212416E-03
      0.305000          0.203348E-03
      0.310000          0.194898E-03
      0.315000          0.187132E-03
      0.320000          0.180077E-03
      0.325000          0.173722E-03
      0.330000          0.168024E-03
      0.335000          0.162918E-03
      0.340000          0.158323E-03
      0.345000          0.154153E-03
      0.350000          0.150319E-03
      0.355000          0.146742E-03
      0.360000          0.143353E-03
      0.365000          0.140099E-03
      0.370000          0.136942E-03
      0.375000          0.133862E-03
      0.380000          0.130854E-03
      0.385000          0.127926E-03
      0.390000          0.125096E-03
      0.395000          0.122390E-03
      0.400000          0.119836E-03
      0.405000          0.117465E-03
      0.410000          0.115302E-03
      0.415000          0.113369E-03
      0.420000          0.111682E-03
      0.425000          0.110248E-03
      0.430000          0.109065E-03
      0.435000          0.108126E-03
      0.440000          0.107412E-03
      0.445000          0.106902E-03
      0.450000          0.106567E-03
      0.455000          0.106375E-03
      0.460000          0.106290E-03
      0.465000          0.106278E-03
      0.470000          0.106301E-03
      0.475000          0.106325E-03
      0.480000          0.106317E-03
      0.485000          0.106246E-03
      0.490000          0.106086E-03
      0.495000          0.105813E-03
      0.500000          0.105406E-03
