 I_abs(s)[cm^-1]/c[mg/ml]
       0.00000          0.147995E-01
      0.500000E-02      0.147494E-01
      0.100000E-01      0.146002E-01
      0.150000E-01      0.143549E-01
      0.200000E-01      0.140188E-01
      0.250000E-01      0.135988E-01
      0.300000E-01      0.131032E-01
      0.350000E-01      0.125420E-01
      0.400000E-01      0.119257E-01
      0.450000E-01      0.112657E-01
      0.500000E-01      0.105735E-01
      0.550000E-01      0.986068E-02
      0.600000E-01      0.913838E-02
      0.650000E-01      0.841703E-02
      0.700000E-01      0.770622E-02
      0.750000E-01      0.701442E-02
      0.800000E-01      0.634891E-02
      0.850000E-01      0.571568E-02
      0.900000E-01      0.511938E-02
      0.950000E-01      0.456341E-02
      0.100000          0.404989E-02
      0.105000          0.357984E-02
      0.110000          0.315326E-02
      0.115000          0.276931E-02
      0.120000          0.242639E-02
      0.125000          0.212239E-02
      0.130000          0.185475E-02
      0.135000          0.162064E-02
      0.140000          0.141708E-02
      0.145000          0.124105E-02
      0.150000          0.108955E-02
      0.155000          0.959696E-03
      0.160000          0.848773E-03
      0.165000          0.754253E-03
      0.170000          0.673828E-03
      0.175000          0.605422E-03
      0.180000          0.547191E-03
      0.185000          0.497515E-03
      0.190000          0.454991E-03
      0.195000          0.418415E-03
      0.200000          0.386770E-03
      0.205000          0.359202E-03
      0.210000          0.335010E-03
      0.215000          0.313621E-03
      0.220000          0.294576E-03
      0.225000          0.277513E-03
      0.230000          0.262152E-03
      0.235000          0.248278E-03
      0.240000          0.235727E-03
      0.245000          0.224376E-03
      0.250000          0.214131E-03
      0.255000          0.204913E-03
      0.260000          0.196659E-03
      0.265000          0.189306E-03
      0.270000          0.182791E-03
      0.275000          0.177050E-03
      0.280000          0.172011E-03
      0.285000          0.167598E-03
      0.290000          0.163731E-03
      0.295000          0.160329E-03
      0.300000          0.157308E-03
      0.305000          0.154590E-03
      0.310000          0.152100E-03
      0.315000          0.149771E-03
      0.320000          0.147547E-03
      0.325000          0.145380E-03
      0.330000          0.143235E-03
      0.335000          0.141087E-03
      0.340000          0.138923E-03
      0.345000          0.136737E-03
      0.350000          0.134532E-03
      0.355000          0.132316E-03
      0.360000          0.130101E-03
      0.365000          0.127902E-03
      0.370000          0.125734E-03
      0.375000          0.123612E-03
      0.380000          0.121549E-03
      0.385000          0.119557E-03
      0.390000          0.117644E-03
      0.395000          0.115818E-03
      0.400000          0.114084E-03
      0.405000          0.112445E-03
      0.410000          0.110904E-03
      0.415000          0.109462E-03
      0.420000          0.108122E-03
      0.425000          0.106884E-03
      0.430000          0.105750E-03
      0.435000          0.104719E-03
      0.440000          0.103793E-03
      0.445000          0.102970E-03
      0.450000          0.102246E-03
      0.455000          0.101619E-03
      0.460000          0.101079E-03
      0.465000          0.100619E-03
      0.470000          0.100226E-03
      0.475000          0.998847E-04
      0.480000          0.995790E-04
      0.485000          0.992906E-04
      0.490000          0.990004E-04
      0.495000          0.986891E-04
      0.500000          0.983386E-04
