 I_abs(s)[cm^-1]/c[mg/ml]
       0.00000          0.139248E-01
      0.500000E-02      0.138385E-01
      0.100000E-01      0.135833E-01
      0.150000E-01      0.131701E-01
      0.200000E-01      0.126161E-01
      0.250000E-01      0.119437E-01
      0.300000E-01      0.111792E-01
      0.350000E-01      0.103511E-01
      0.400000E-01      0.948793E-02
      0.450000E-01      0.861728E-02
      0.500000E-01      0.776392E-02
      0.550000E-01      0.694877E-02
      0.600000E-01      0.618818E-02
      0.650000E-01      0.549351E-02
      0.700000E-01      0.487117E-02
      0.750000E-01      0.432297E-02
      0.800000E-01      0.384680E-02
      0.850000E-01      0.343743E-02
      0.900000E-01      0.308745E-02
      0.950000E-01      0.278825E-02
      0.100000          0.253084E-02
      0.105000          0.230664E-02
      0.110000          0.210799E-02
      0.115000          0.192852E-02
      0.120000          0.176337E-02
      0.125000          0.160912E-02
      0.130000          0.146372E-02
      0.135000          0.132620E-02
      0.140000          0.119642E-02
      0.145000          0.107479E-02
      0.150000          0.961958E-03
      0.155000          0.858602E-03
      0.160000          0.765266E-03
      0.165000          0.682241E-03
      0.170000          0.609528E-03
      0.175000          0.546836E-03
      0.180000          0.493617E-03
      0.185000          0.449130E-03
      0.190000          0.412506E-03
      0.195000          0.382812E-03
      0.200000          0.359108E-03
      0.205000          0.340486E-03
      0.210000          0.326096E-03
      0.215000          0.315164E-03
      0.220000          0.306990E-03
      0.225000          0.300949E-03
      0.230000          0.296488E-03
      0.235000          0.293118E-03
      0.240000          0.290418E-03
      0.245000          0.288028E-03
      0.250000          0.285658E-03
      0.255000          0.283090E-03
      0.260000          0.280177E-03
      0.265000          0.276843E-03
      0.270000          0.273084E-03
      0.275000          0.268951E-03
      0.280000          0.264544E-03
      0.285000          0.259989E-03
      0.290000          0.255427E-03
      0.295000          0.250990E-03
      0.300000          0.246786E-03
      0.305000          0.242885E-03
      0.310000          0.239309E-03
      0.315000          0.236032E-03
      0.320000          0.232979E-03
      0.325000          0.230033E-03
      0.330000          0.227051E-03
      0.335000          0.223873E-03
      0.340000          0.220343E-03
      0.345000          0.216324E-03
      0.350000          0.211707E-03
      0.355000          0.206430E-03
      0.360000          0.200476E-03
      0.365000          0.193881E-03
      0.370000          0.186727E-03
      0.375000          0.179138E-03
      0.380000          0.171272E-03
      0.385000          0.163304E-03
      0.390000          0.155418E-03
      0.395000          0.147791E-03
      0.400000          0.140585E-03
      0.405000          0.133935E-03
      0.410000          0.127945E-03
      0.415000          0.122683E-03
      0.420000          0.118179E-03
      0.425000          0.114427E-03
      0.430000          0.111392E-03
      0.435000          0.109010E-03
      0.440000          0.107196E-03
      0.445000          0.105853E-03
      0.450000          0.104878E-03
      0.455000          0.104167E-03
      0.460000          0.103619E-03
      0.465000          0.103148E-03
      0.470000          0.102678E-03
      0.475000          0.102152E-03
      0.480000          0.101530E-03
      0.485000          0.100790E-03
      0.490000          0.999270E-04
      0.495000          0.989500E-04
      0.500000          0.978794E-04
