 I_abs(s)[cm^-1]/c[mg/ml]
       0.00000          0.137700E-01
      0.500000E-02      0.136919E-01
      0.100000E-01      0.134604E-01
      0.150000E-01      0.130832E-01
      0.200000E-01      0.125732E-01
      0.250000E-01      0.119472E-01
      0.300000E-01      0.112256E-01
      0.350000E-01      0.104309E-01
      0.400000E-01      0.958689E-02
      0.450000E-01      0.871770E-02
      0.500000E-01      0.784640E-02
      0.550000E-01      0.699427E-02
      0.600000E-01      0.617994E-02
      0.650000E-01      0.541881E-02
      0.700000E-01      0.472262E-02
      0.750000E-01      0.409931E-02
      0.800000E-01      0.355303E-02
      0.850000E-01      0.308442E-02
      0.900000E-01      0.269096E-02
      0.950000E-01      0.236755E-02
      0.100000          0.210708E-02
      0.105000          0.190106E-02
      0.110000          0.174030E-02
      0.115000          0.161549E-02
      0.120000          0.151767E-02
      0.125000          0.143872E-02
      0.130000          0.137158E-02
      0.135000          0.131055E-02
      0.140000          0.125125E-02
      0.145000          0.119072E-02
      0.150000          0.112723E-02
      0.155000          0.106016E-02
      0.160000          0.989778E-03
      0.165000          0.917034E-03
      0.170000          0.843311E-03
      0.175000          0.770223E-03
      0.180000          0.699420E-03
      0.185000          0.632438E-03
      0.190000          0.570582E-03
      0.195000          0.514851E-03
      0.200000          0.465899E-03
      0.205000          0.424029E-03
      0.210000          0.389214E-03
      0.215000          0.361139E-03
      0.220000          0.339251E-03
      0.225000          0.322827E-03
      0.230000          0.311033E-03
      0.235000          0.302982E-03
      0.240000          0.297790E-03
      0.245000          0.294623E-03
      0.250000          0.292724E-03
      0.255000          0.291443E-03
      0.260000          0.290249E-03
      0.265000          0.288736E-03
      0.270000          0.286617E-03
      0.275000          0.283717E-03
      0.280000          0.279958E-03
      0.285000          0.275340E-03
      0.290000          0.269925E-03
      0.295000          0.263816E-03
      0.300000          0.257139E-03
      0.305000          0.250028E-03
      0.310000          0.242616E-03
      0.315000          0.235020E-03
      0.320000          0.227338E-03
      0.325000          0.219652E-03
      0.330000          0.212020E-03
      0.335000          0.204484E-03
      0.340000          0.197077E-03
      0.345000          0.189821E-03
      0.350000          0.182736E-03
      0.355000          0.175843E-03
      0.360000          0.169167E-03
      0.365000          0.162736E-03
      0.370000          0.156578E-03
      0.375000          0.150722E-03
      0.380000          0.145196E-03
      0.385000          0.140017E-03
      0.390000          0.135192E-03
      0.395000          0.130718E-03
      0.400000          0.126573E-03
      0.405000          0.122727E-03
      0.410000          0.119136E-03
      0.415000          0.115751E-03
      0.420000          0.112523E-03
      0.425000          0.109405E-03
      0.430000          0.106362E-03
      0.435000          0.103374E-03
      0.440000          0.100439E-03
      0.445000          0.975737E-04
      0.450000          0.948145E-04
      0.455000          0.922125E-04
      0.460000          0.898293E-04
      0.465000          0.877299E-04
      0.470000          0.859755E-04
      0.475000          0.846158E-04
      0.480000          0.836826E-04
      0.485000          0.831842E-04
      0.490000          0.831027E-04
      0.495000          0.833931E-04
      0.500000          0.839852E-04
