 I_abs(s)[cm^-1]/c[mg/ml]
       0.00000          0.143628E-01
      0.500000E-02      0.143091E-01
      0.100000E-01      0.141493E-01
      0.150000E-01      0.138873E-01
      0.200000E-01      0.135294E-01
      0.250000E-01      0.130839E-01
      0.300000E-01      0.125612E-01
      0.350000E-01      0.119730E-01
      0.400000E-01      0.113320E-01
      0.450000E-01      0.106515E-01
      0.500000E-01      0.994500E-02
      0.550000E-01      0.922543E-02
      0.600000E-01      0.850518E-02
      0.650000E-01      0.779552E-02
      0.700000E-01      0.710635E-02
      0.750000E-01      0.644603E-02
      0.800000E-01      0.582124E-02
      0.850000E-01      0.523694E-02
      0.900000E-01      0.469642E-02
      0.950000E-01      0.420138E-02
      0.100000          0.375207E-02
      0.105000          0.334754E-02
      0.110000          0.298578E-02
      0.115000          0.266404E-02
      0.120000          0.237901E-02
      0.125000          0.212706E-02
      0.130000          0.190447E-02
      0.135000          0.170757E-02
      0.140000          0.153290E-02
      0.145000          0.137731E-02
      0.150000          0.123802E-02
      0.155000          0.111269E-02
      0.160000          0.999383E-03
      0.165000          0.896555E-03
      0.170000          0.803033E-03
      0.175000          0.717946E-03
      0.180000          0.640669E-03
      0.185000          0.570760E-03
      0.190000          0.507903E-03
      0.195000          0.451849E-03
      0.200000          0.402377E-03
      0.205000          0.359255E-03
      0.210000          0.322216E-03
      0.215000          0.290947E-03
      0.220000          0.265074E-03
      0.225000          0.244175E-03
      0.230000          0.227779E-03
      0.235000          0.215383E-03
      0.240000          0.206460E-03
      0.245000          0.200478E-03
      0.250000          0.196914E-03
      0.255000          0.195264E-03
      0.260000          0.195053E-03
      0.265000          0.195847E-03
      0.270000          0.197258E-03
      0.275000          0.198943E-03
      0.280000          0.200613E-03
      0.285000          0.202028E-03
      0.290000          0.202997E-03
      0.295000          0.203377E-03
      0.300000          0.203070E-03
      0.305000          0.202018E-03
      0.310000          0.200199E-03
      0.315000          0.197625E-03
      0.320000          0.194337E-03
      0.325000          0.190400E-03
      0.330000          0.185896E-03
      0.335000          0.180923E-03
      0.340000          0.175591E-03
      0.345000          0.170010E-03
      0.350000          0.164293E-03
      0.355000          0.158549E-03
      0.360000          0.152878E-03
      0.365000          0.147369E-03
      0.370000          0.142097E-03
      0.375000          0.137122E-03
      0.380000          0.132485E-03
      0.385000          0.128215E-03
      0.390000          0.124321E-03
      0.395000          0.120801E-03
      0.400000          0.117638E-03
      0.405000          0.114807E-03
      0.410000          0.112278E-03
      0.415000          0.110013E-03
      0.420000          0.107978E-03
      0.425000          0.106136E-03
      0.430000          0.104456E-03
      0.435000          0.102912E-03
      0.440000          0.101482E-03
      0.445000          0.100153E-03
      0.450000          0.989170E-04
      0.455000          0.977709E-04
      0.460000          0.967168E-04
      0.465000          0.957596E-04
      0.470000          0.949056E-04
      0.475000          0.941609E-04
      0.480000          0.935299E-04
      0.485000          0.930141E-04
      0.490000          0.926106E-04
      0.495000          0.923123E-04
      0.500000          0.921069E-04
