 I_abs(s)[cm^-1]/c[mg/ml]
       0.00000          0.146638E-01
      0.500000E-02      0.146092E-01
      0.100000E-01      0.144465E-01
      0.150000E-01      0.141792E-01
      0.200000E-01      0.138129E-01
      0.250000E-01      0.133552E-01
      0.300000E-01      0.128155E-01
      0.350000E-01      0.122046E-01
      0.400000E-01      0.115343E-01
      0.450000E-01      0.108174E-01
      0.500000E-01      0.100668E-01
      0.550000E-01      0.929580E-02
      0.600000E-01      0.851695E-02
      0.650000E-01      0.774234E-02
      0.700000E-01      0.698304E-02
      0.750000E-01      0.624897E-02
      0.800000E-01      0.554863E-02
      0.850000E-01      0.488905E-02
      0.900000E-01      0.427567E-02
      0.950000E-01      0.371237E-02
      0.100000          0.320149E-02
      0.105000          0.274395E-02
      0.110000          0.233933E-02
      0.115000          0.198610E-02
      0.120000          0.168176E-02
      0.125000          0.142304E-02
      0.130000          0.120611E-02
      0.135000          0.102676E-02
      0.140000          0.880623E-03
      0.145000          0.763272E-03
      0.150000          0.670414E-03
      0.155000          0.597985E-03
      0.160000          0.542238E-03
      0.165000          0.499809E-03
      0.170000          0.467748E-03
      0.175000          0.443540E-03
      0.180000          0.425088E-03
      0.185000          0.410701E-03
      0.190000          0.399050E-03
      0.195000          0.389131E-03
      0.200000          0.380215E-03
      0.205000          0.371797E-03
      0.210000          0.363551E-03
      0.215000          0.355286E-03
      0.220000          0.346905E-03
      0.225000          0.338377E-03
      0.230000          0.329707E-03
      0.235000          0.320919E-03
      0.240000          0.312042E-03
      0.245000          0.303105E-03
      0.250000          0.294130E-03
      0.255000          0.285132E-03
      0.260000          0.276126E-03
      0.265000          0.267123E-03
      0.270000          0.258137E-03
      0.275000          0.249188E-03
      0.280000          0.240305E-03
      0.285000          0.231525E-03
      0.290000          0.222893E-03
      0.295000          0.214465E-03
      0.300000          0.206300E-03
      0.305000          0.198460E-03
      0.310000          0.191008E-03
      0.315000          0.184001E-03
      0.320000          0.177488E-03
      0.325000          0.171510E-03
      0.330000          0.166092E-03
      0.335000          0.161246E-03
      0.340000          0.156969E-03
      0.345000          0.153240E-03
      0.350000          0.150025E-03
      0.355000          0.147279E-03
      0.360000          0.144944E-03
      0.365000          0.142953E-03
      0.370000          0.141235E-03
      0.375000          0.139719E-03
      0.380000          0.138330E-03
      0.385000          0.137001E-03
      0.390000          0.135670E-03
      0.395000          0.134283E-03
      0.400000          0.132796E-03
      0.405000          0.131179E-03
      0.410000          0.129410E-03
      0.415000          0.127485E-03
      0.420000          0.125407E-03
      0.425000          0.123193E-03
      0.430000          0.120871E-03
      0.435000          0.118475E-03
      0.440000          0.116047E-03
      0.445000          0.113633E-03
      0.450000          0.111281E-03
      0.455000          0.109039E-03
      0.460000          0.106952E-03
      0.465000          0.105061E-03
      0.470000          0.103401E-03
      0.475000          0.101998E-03
      0.480000          0.100869E-03
      0.485000          0.100024E-03
      0.490000          0.994599E-04
      0.495000          0.991653E-04
      0.500000          0.991194E-04
