 I_abs(s)[cm^-1]/c[mg/ml]
       0.00000          0.148556E-01
      0.500000E-02      0.148024E-01
      0.100000E-01      0.146439E-01
      0.150000E-01      0.143832E-01
      0.200000E-01      0.140256E-01
      0.250000E-01      0.135781E-01
      0.300000E-01      0.130494E-01
      0.350000E-01      0.124494E-01
      0.400000E-01      0.117895E-01
      0.450000E-01      0.110813E-01
      0.500000E-01      0.103374E-01
      0.550000E-01      0.957017E-02
      0.600000E-01      0.879176E-02
      0.650000E-01      0.801391E-02
      0.700000E-01      0.724750E-02
      0.750000E-01      0.650241E-02
      0.800000E-01      0.578730E-02
      0.850000E-01      0.510946E-02
      0.900000E-01      0.447477E-02
      0.950000E-01      0.388764E-02
      0.100000          0.335103E-02
      0.105000          0.286650E-02
      0.110000          0.243432E-02
      0.115000          0.205360E-02
      0.120000          0.172246E-02
      0.125000          0.143815E-02
      0.130000          0.119732E-02
      0.135000          0.996110E-03
      0.140000          0.830389E-03
      0.145000          0.695893E-03
      0.150000          0.588380E-03
      0.155000          0.503752E-03
      0.160000          0.438161E-03
      0.165000          0.388088E-03
      0.170000          0.350395E-03
      0.175000          0.322356E-03
      0.180000          0.301668E-03
      0.185000          0.286442E-03
      0.190000          0.275178E-03
      0.195000          0.266726E-03
      0.200000          0.260246E-03
      0.205000          0.255156E-03
      0.210000          0.251081E-03
      0.215000          0.247805E-03
      0.220000          0.245221E-03
      0.225000          0.243294E-03
      0.230000          0.242022E-03
      0.235000          0.241411E-03
      0.240000          0.241457E-03
      0.245000          0.242125E-03
      0.250000          0.243351E-03
      0.255000          0.245033E-03
      0.260000          0.247038E-03
      0.265000          0.249209E-03
      0.270000          0.251371E-03
      0.275000          0.253340E-03
      0.280000          0.254938E-03
      0.285000          0.255996E-03
      0.290000          0.256366E-03
      0.295000          0.255927E-03
      0.300000          0.254589E-03
      0.305000          0.252294E-03
      0.310000          0.249021E-03
      0.315000          0.244782E-03
      0.320000          0.239620E-03
      0.325000          0.233604E-03
      0.330000          0.226830E-03
      0.335000          0.219408E-03
      0.340000          0.211465E-03
      0.345000          0.203134E-03
      0.350000          0.194553E-03
      0.355000          0.185858E-03
      0.360000          0.177182E-03
      0.365000          0.168648E-03
      0.370000          0.160370E-03
      0.375000          0.152451E-03
      0.380000          0.144979E-03
      0.385000          0.138029E-03
      0.390000          0.131660E-03
      0.395000          0.125916E-03
      0.400000          0.120829E-03
      0.405000          0.116414E-03
      0.410000          0.112675E-03
      0.415000          0.109603E-03
      0.420000          0.107177E-03
      0.425000          0.105366E-03
      0.430000          0.104129E-03
      0.435000          0.103418E-03
      0.440000          0.103178E-03
      0.445000          0.103347E-03
      0.450000          0.103860E-03
      0.455000          0.104650E-03
      0.460000          0.105646E-03
      0.465000          0.106780E-03
      0.470000          0.107982E-03
      0.475000          0.109188E-03
      0.480000          0.110335E-03
      0.485000          0.111367E-03
      0.490000          0.112232E-03
      0.495000          0.112886E-03
      0.500000          0.113294E-03
