 I_abs(s)[cm^-1]/c[mg/ml]
       0.00000          0.149519E-01
      0.500000E-02      0.148972E-01
      0.100000E-01      0.147341E-01
      0.150000E-01      0.144665E-01
      0.200000E-01      0.141001E-01
      0.250000E-01      0.136431E-01
      0.300000E-01      0.131050E-01
      0.350000E-01      0.124972E-01
      0.400000E-01      0.118318E-01
      0.450000E-01      0.111217E-01
      0.500000E-01      0.103799E-01
      0.550000E-01      0.961947E-02
      0.600000E-01      0.885263E-02
      0.650000E-01      0.809095E-02
      0.700000E-01      0.734482E-02
      0.750000E-01      0.662332E-02
      0.800000E-01      0.593409E-02
      0.850000E-01      0.528324E-02
      0.900000E-01      0.467538E-02
      0.950000E-01      0.411363E-02
      0.100000          0.359976E-02
      0.105000          0.313429E-02
      0.110000          0.271669E-02
      0.115000          0.234550E-02
      0.120000          0.201857E-02
      0.125000          0.173321E-02
      0.130000          0.148635E-02
      0.135000          0.127468E-02
      0.140000          0.109481E-02
      0.145000          0.943347E-03
      0.150000          0.816987E-03
      0.155000          0.712571E-03
      0.160000          0.627135E-03
      0.165000          0.557929E-03
      0.170000          0.502433E-03
      0.175000          0.458366E-03
      0.180000          0.423676E-03
      0.185000          0.396538E-03
      0.190000          0.375348E-03
      0.195000          0.358707E-03
      0.200000          0.345418E-03
      0.205000          0.334471E-03
      0.210000          0.325036E-03
      0.215000          0.316453E-03
      0.220000          0.308216E-03
      0.225000          0.299966E-03
      0.230000          0.291470E-03
      0.235000          0.282608E-03
      0.240000          0.273357E-03
      0.245000          0.263765E-03
      0.250000          0.253941E-03
      0.255000          0.244026E-03
      0.260000          0.234184E-03
      0.265000          0.224577E-03
      0.270000          0.215358E-03
      0.275000          0.206658E-03
      0.280000          0.198577E-03
      0.285000          0.191179E-03
      0.290000          0.184495E-03
      0.295000          0.178518E-03
      0.300000          0.173215E-03
      0.305000          0.168524E-03
      0.310000          0.164367E-03
      0.315000          0.160654E-03
      0.320000          0.157292E-03
      0.325000          0.154188E-03
      0.330000          0.151260E-03
      0.335000          0.148434E-03
      0.340000          0.145655E-03
      0.345000          0.142882E-03
      0.350000          0.140090E-03
      0.355000          0.137271E-03
      0.360000          0.134429E-03
      0.365000          0.131583E-03
      0.370000          0.128757E-03
      0.375000          0.125982E-03
      0.380000          0.123291E-03
      0.385000          0.120719E-03
      0.390000          0.118298E-03
      0.395000          0.116056E-03
      0.400000          0.114014E-03
      0.405000          0.112189E-03
      0.410000          0.110589E-03
      0.415000          0.109217E-03
      0.420000          0.108066E-03
      0.425000          0.107124E-03
      0.430000          0.106375E-03
      0.435000          0.105794E-03
      0.440000          0.105355E-03
      0.445000          0.105029E-03
      0.450000          0.104784E-03
      0.455000          0.104589E-03
      0.460000          0.104414E-03
      0.465000          0.104228E-03
      0.470000          0.104007E-03
      0.475000          0.103727E-03
      0.480000          0.103370E-03
      0.485000          0.102922E-03
      0.490000          0.102374E-03
      0.495000          0.101721E-03
      0.500000          0.100965E-03
