 I_abs(s)[cm^-1]/c[mg/ml]
       0.00000          0.139947E-01
      0.500000E-02      0.139276E-01
      0.100000E-01      0.137280E-01
      0.150000E-01      0.134018E-01
      0.200000E-01      0.129586E-01
      0.250000E-01      0.124109E-01
      0.300000E-01      0.117740E-01
      0.350000E-01      0.110652E-01
      0.400000E-01      0.103030E-01
      0.450000E-01      0.950656E-02
      0.500000E-01      0.869464E-02
      0.550000E-01      0.788520E-02
      0.600000E-01      0.709464E-02
      0.650000E-01      0.633727E-02
      0.700000E-01      0.562502E-02
      0.750000E-01      0.496709E-02
      0.800000E-01      0.436989E-02
      0.850000E-01      0.383707E-02
      0.900000E-01      0.336967E-02
      0.950000E-01      0.296636E-02
      0.100000          0.262383E-02
      0.105000          0.233714E-02
      0.110000          0.210022E-02
      0.115000          0.190626E-02
      0.120000          0.174814E-02
      0.125000          0.161885E-02
      0.130000          0.151176E-02
      0.135000          0.142092E-02
      0.140000          0.134121E-02
      0.145000          0.126847E-02
      0.150000          0.119952E-02
      0.155000          0.113214E-02
      0.160000          0.106499E-02
      0.165000          0.997483E-03
      0.170000          0.929647E-03
      0.175000          0.861966E-03
      0.180000          0.795220E-03
      0.185000          0.730337E-03
      0.190000          0.668270E-03
      0.195000          0.609886E-03
      0.200000          0.555893E-03
      0.205000          0.506793E-03
      0.210000          0.462861E-03
      0.215000          0.424143E-03
      0.220000          0.390480E-03
      0.225000          0.361545E-03
      0.230000          0.336881E-03
      0.235000          0.315951E-03
      0.240000          0.298183E-03
      0.245000          0.283008E-03
      0.250000          0.269896E-03
      0.255000          0.258381E-03
      0.260000          0.248071E-03
      0.265000          0.238661E-03
      0.270000          0.229926E-03
      0.275000          0.221715E-03
      0.280000          0.213940E-03
      0.285000          0.206561E-03
      0.290000          0.199569E-03
      0.295000          0.192974E-03
      0.300000          0.186791E-03
      0.305000          0.181034E-03
      0.310000          0.175703E-03
      0.315000          0.170787E-03
      0.320000          0.166261E-03
      0.325000          0.162088E-03
      0.330000          0.158221E-03
      0.335000          0.154611E-03
      0.340000          0.151205E-03
      0.345000          0.147957E-03
      0.350000          0.144828E-03
      0.355000          0.141786E-03
      0.360000          0.138812E-03
      0.365000          0.135895E-03
      0.370000          0.133034E-03
      0.375000          0.130235E-03
      0.380000          0.127506E-03
      0.385000          0.124860E-03
      0.390000          0.122307E-03
      0.395000          0.119855E-03
      0.400000          0.117507E-03
      0.405000          0.115262E-03
      0.410000          0.113113E-03
      0.415000          0.111048E-03
      0.420000          0.109050E-03
      0.425000          0.107101E-03
      0.430000          0.105182E-03
      0.435000          0.103275E-03
      0.440000          0.101364E-03
      0.445000          0.994374E-04
      0.450000          0.974900E-04
      0.455000          0.955213E-04
      0.460000          0.935372E-04
      0.465000          0.915498E-04
      0.470000          0.895764E-04
      0.475000          0.876386E-04
      0.480000          0.857611E-04
      0.485000          0.839702E-04
      0.490000          0.822924E-04
      0.495000          0.807525E-04
      0.500000          0.793730E-04
