 I_abs(s)[cm^-1]/c[mg/ml]
       0.00000          0.150163E-01
      0.500000E-02      0.149696E-01
      0.100000E-01      0.148304E-01
      0.150000E-01      0.146012E-01
      0.200000E-01      0.142861E-01
      0.250000E-01      0.138907E-01
      0.300000E-01      0.134220E-01
      0.350000E-01      0.128879E-01
      0.400000E-01      0.122976E-01
      0.450000E-01      0.116605E-01
      0.500000E-01      0.109867E-01
      0.550000E-01      0.102864E-01
      0.600000E-01      0.956971E-02
      0.650000E-01      0.884645E-02
      0.700000E-01      0.812586E-02
      0.750000E-01      0.741649E-02
      0.800000E-01      0.672603E-02
      0.850000E-01      0.606120E-02
      0.900000E-01      0.542765E-02
      0.950000E-01      0.482996E-02
      0.100000          0.427159E-02
      0.105000          0.375495E-02
      0.110000          0.328139E-02
      0.115000          0.285137E-02
      0.120000          0.246448E-02
      0.125000          0.211958E-02
      0.130000          0.181493E-02
      0.135000          0.154830E-02
      0.140000          0.131709E-02
      0.145000          0.111846E-02
      0.150000          0.949408E-03
      0.155000          0.806912E-03
      0.160000          0.687966E-03
      0.165000          0.589672E-03
      0.170000          0.509285E-03
      0.175000          0.444256E-03
      0.180000          0.392253E-03
      0.185000          0.351179E-03
      0.190000          0.319174E-03
      0.195000          0.294608E-03
      0.200000          0.276071E-03
      0.205000          0.262357E-03
      0.210000          0.252446E-03
      0.215000          0.245478E-03
      0.220000          0.240740E-03
      0.225000          0.237637E-03
      0.230000          0.235681E-03
      0.235000          0.234470E-03
      0.240000          0.233674E-03
      0.245000          0.233024E-03
      0.250000          0.232304E-03
      0.255000          0.231339E-03
      0.260000          0.229994E-03
      0.265000          0.228167E-03
      0.270000          0.225786E-03
      0.275000          0.222808E-03
      0.280000          0.219213E-03
      0.285000          0.215007E-03
      0.290000          0.210217E-03
      0.295000          0.204889E-03
      0.300000          0.199087E-03
      0.305000          0.192888E-03
      0.310000          0.186379E-03
      0.315000          0.179656E-03
      0.320000          0.172819E-03
      0.325000          0.165967E-03
      0.330000          0.159197E-03
      0.335000          0.152602E-03
      0.340000          0.146262E-03
      0.345000          0.140250E-03
      0.350000          0.134623E-03
      0.355000          0.129426E-03
      0.360000          0.124690E-03
      0.365000          0.120429E-03
      0.370000          0.116644E-03
      0.375000          0.113325E-03
      0.380000          0.110450E-03
      0.385000          0.107986E-03
      0.390000          0.105896E-03
      0.395000          0.104136E-03
      0.400000          0.102661E-03
      0.405000          0.101424E-03
      0.410000          0.100383E-03
      0.415000          0.994971E-04
      0.420000          0.987302E-04
      0.425000          0.980530E-04
      0.430000          0.974422E-04
      0.435000          0.968815E-04
      0.440000          0.963604E-04
      0.445000          0.958746E-04
      0.450000          0.954247E-04
      0.455000          0.950151E-04
      0.460000          0.946533E-04
      0.465000          0.943479E-04
      0.470000          0.941082E-04
      0.475000          0.939423E-04
      0.480000          0.938569E-04
      0.485000          0.938557E-04
      0.490000          0.939393E-04
      0.495000          0.941048E-04
      0.500000          0.943454E-04
