 I_abs(s)[cm^-1]/c[mg/ml]
       0.00000          0.147675E-01
      0.500000E-02      0.147121E-01
      0.100000E-01      0.145469E-01
      0.150000E-01      0.142759E-01
      0.200000E-01      0.139050E-01
      0.250000E-01      0.134427E-01
      0.300000E-01      0.128988E-01
      0.350000E-01      0.122851E-01
      0.400000E-01      0.116140E-01
      0.450000E-01      0.108990E-01
      0.500000E-01      0.101536E-01
      0.550000E-01      0.939113E-02
      0.600000E-01      0.862440E-02
      0.650000E-01      0.786533E-02
      0.700000E-01      0.712466E-02
      0.750000E-01      0.641173E-02
      0.800000E-01      0.573434E-02
      0.850000E-01      0.509869E-02
      0.900000E-01      0.450932E-02
      0.950000E-01      0.396919E-02
      0.100000          0.347977E-02
      0.105000          0.304118E-02
      0.110000          0.265234E-02
      0.115000          0.231120E-02
      0.120000          0.201491E-02
      0.125000          0.176004E-02
      0.130000          0.154275E-02
      0.135000          0.135900E-02
      0.140000          0.120468E-02
      0.145000          0.107575E-02
      0.150000          0.968377E-03
      0.155000          0.878975E-03
      0.160000          0.804300E-03
      0.165000          0.741476E-03
      0.170000          0.688013E-03
      0.175000          0.641805E-03
      0.180000          0.601125E-03
      0.185000          0.564594E-03
      0.190000          0.531154E-03
      0.195000          0.500030E-03
      0.200000          0.470688E-03
      0.205000          0.442798E-03
      0.210000          0.416188E-03
      0.215000          0.390813E-03
      0.220000          0.366712E-03
      0.225000          0.343980E-03
      0.230000          0.322738E-03
      0.235000          0.303111E-03
      0.240000          0.285209E-03
      0.245000          0.269112E-03
      0.250000          0.254860E-03
      0.255000          0.242450E-03
      0.260000          0.231833E-03
      0.265000          0.222914E-03
      0.270000          0.215562E-03
      0.275000          0.209612E-03
      0.280000          0.204875E-03
      0.285000          0.201148E-03
      0.290000          0.198221E-03
      0.295000          0.195887E-03
      0.300000          0.193952E-03
      0.305000          0.192238E-03
      0.310000          0.190590E-03
      0.315000          0.188878E-03
      0.320000          0.187003E-03
      0.325000          0.184892E-03
      0.330000          0.182499E-03
      0.335000          0.179804E-03
      0.340000          0.176808E-03
      0.345000          0.173532E-03
      0.350000          0.170007E-03
      0.355000          0.166276E-03
      0.360000          0.162389E-03
      0.365000          0.158395E-03
      0.370000          0.154345E-03
      0.375000          0.150284E-03
      0.380000          0.146254E-03
      0.385000          0.142288E-03
      0.390000          0.138413E-03
      0.395000          0.134649E-03
      0.400000          0.131009E-03
      0.405000          0.127500E-03
      0.410000          0.124122E-03
      0.415000          0.120874E-03
      0.420000          0.117751E-03
      0.425000          0.114745E-03
      0.430000          0.111852E-03
      0.435000          0.109064E-03
      0.440000          0.106378E-03
      0.445000          0.103791E-03
      0.450000          0.101303E-03
      0.455000          0.989152E-04
      0.460000          0.966325E-04
      0.465000          0.944602E-04
      0.470000          0.924054E-04
      0.475000          0.904755E-04
      0.480000          0.886778E-04
      0.485000          0.870190E-04
      0.490000          0.855045E-04
      0.495000          0.841380E-04
      0.500000          0.829209E-04
