 I_abs(s)[cm^-1]/c[mg/ml]
       0.00000          0.144338E-01
      0.500000E-02      0.143610E-01
      0.100000E-01      0.141449E-01
      0.150000E-01      0.137927E-01
      0.200000E-01      0.133159E-01
      0.250000E-01      0.127294E-01
      0.300000E-01      0.120515E-01
      0.350000E-01      0.113021E-01
      0.400000E-01      0.105023E-01
      0.450000E-01      0.967335E-02
      0.500000E-01      0.883545E-02
      0.550000E-01      0.800720E-02
      0.600000E-01      0.720485E-02
      0.650000E-01      0.644185E-02
      0.700000E-01      0.572855E-02
      0.750000E-01      0.507218E-02
      0.800000E-01      0.447689E-02
      0.850000E-01      0.394408E-02
      0.900000E-01      0.347274E-02
      0.950000E-01      0.305990E-02
      0.100000          0.270119E-02
      0.105000          0.239127E-02
      0.110000          0.212434E-02
      0.115000          0.189453E-02
      0.120000          0.169621E-02
      0.125000          0.152425E-02
      0.130000          0.137417E-02
      0.135000          0.124218E-02
      0.140000          0.112521E-02
      0.145000          0.102086E-02
      0.150000          0.927288E-03
      0.155000          0.843124E-03
      0.160000          0.767344E-03
      0.165000          0.699177E-03
      0.170000          0.638005E-03
      0.175000          0.583305E-03
      0.180000          0.534589E-03
      0.185000          0.491388E-03
      0.190000          0.453231E-03
      0.195000          0.419650E-03
      0.200000          0.390185E-03
      0.205000          0.364398E-03
      0.210000          0.341881E-03
      0.215000          0.322263E-03
      0.220000          0.305215E-03
      0.225000          0.290447E-03
      0.230000          0.277705E-03
      0.235000          0.266766E-03
      0.240000          0.257427E-03
      0.245000          0.249503E-03
      0.250000          0.242817E-03
      0.255000          0.237200E-03
      0.260000          0.232487E-03
      0.265000          0.228520E-03
      0.270000          0.225149E-03
      0.275000          0.222233E-03
      0.280000          0.219646E-03
      0.285000          0.217275E-03
      0.290000          0.215026E-03
      0.295000          0.212818E-03
      0.300000          0.210590E-03
      0.305000          0.208293E-03
      0.310000          0.205891E-03
      0.315000          0.203360E-03
      0.320000          0.200687E-03
      0.325000          0.197865E-03
      0.330000          0.194896E-03
      0.335000          0.191791E-03
      0.340000          0.188566E-03
      0.345000          0.185246E-03
      0.350000          0.181860E-03
      0.355000          0.178443E-03
      0.360000          0.175032E-03
      0.365000          0.171664E-03
      0.370000          0.168372E-03
      0.375000          0.165185E-03
      0.380000          0.162122E-03
      0.385000          0.159193E-03
      0.390000          0.156399E-03
      0.395000          0.153727E-03
      0.400000          0.151158E-03
      0.405000          0.148667E-03
      0.410000          0.146226E-03
      0.415000          0.143807E-03
      0.420000          0.141387E-03
      0.425000          0.138950E-03
      0.430000          0.136489E-03
      0.435000          0.134006E-03
      0.440000          0.131513E-03
      0.445000          0.129025E-03
      0.450000          0.126564E-03
      0.455000          0.124150E-03
      0.460000          0.121797E-03
      0.465000          0.119515E-03
      0.470000          0.117301E-03
      0.475000          0.115143E-03
      0.480000          0.113020E-03
      0.485000          0.110901E-03
      0.490000          0.108750E-03
      0.495000          0.106533E-03
      0.500000          0.104218E-03
