 I_abs(s)[cm^-1]/c[mg/ml]
       0.00000          0.147515E-01
      0.500000E-02      0.146988E-01
      0.100000E-01      0.145418E-01
      0.150000E-01      0.142833E-01
      0.200000E-01      0.139283E-01
      0.250000E-01      0.134836E-01
      0.300000E-01      0.129573E-01
      0.350000E-01      0.123592E-01
      0.400000E-01      0.116998E-01
      0.450000E-01      0.109907E-01
      0.500000E-01      0.102440E-01
      0.550000E-01      0.947174E-02
      0.600000E-01      0.868617E-02
      0.650000E-01      0.789898E-02
      0.700000E-01      0.712123E-02
      0.750000E-01      0.636310E-02
      0.800000E-01      0.563373E-02
      0.850000E-01      0.494097E-02
      0.900000E-01      0.429138E-02
      0.950000E-01      0.369010E-02
      0.100000          0.314083E-02
      0.105000          0.264590E-02
      0.110000          0.220628E-02
      0.115000          0.182170E-02
      0.120000          0.149077E-02
      0.125000          0.121113E-02
      0.130000          0.979589E-03
      0.135000          0.792332E-03
      0.140000          0.645051E-03
      0.145000          0.533141E-03
      0.150000          0.451847E-03
      0.155000          0.396417E-03
      0.160000          0.362227E-03
      0.165000          0.344894E-03
      0.170000          0.340365E-03
      0.175000          0.344986E-03
      0.180000          0.355546E-03
      0.185000          0.369307E-03
      0.190000          0.384009E-03
      0.195000          0.397863E-03
      0.200000          0.409527E-03
      0.205000          0.418072E-03
      0.210000          0.422936E-03
      0.215000          0.423880E-03
      0.220000          0.420932E-03
      0.225000          0.414334E-03
      0.230000          0.404493E-03
      0.235000          0.391926E-03
      0.240000          0.377218E-03
      0.245000          0.360984E-03
      0.250000          0.343831E-03
      0.255000          0.326333E-03
      0.260000          0.309009E-03
      0.265000          0.292305E-03
      0.270000          0.276589E-03
      0.275000          0.262143E-03
      0.280000          0.249162E-03
      0.285000          0.237762E-03
      0.290000          0.227982E-03
      0.295000          0.219794E-03
      0.300000          0.213116E-03
      0.305000          0.207819E-03
      0.310000          0.203742E-03
      0.315000          0.200699E-03
      0.320000          0.198494E-03
      0.325000          0.196929E-03
      0.330000          0.195810E-03
      0.335000          0.194957E-03
      0.340000          0.194208E-03
      0.345000          0.193422E-03
      0.350000          0.192484E-03
      0.355000          0.191306E-03
      0.360000          0.189823E-03
      0.365000          0.187997E-03
      0.370000          0.185813E-03
      0.375000          0.183276E-03
      0.380000          0.180409E-03
      0.385000          0.177248E-03
      0.390000          0.173840E-03
      0.395000          0.170238E-03
      0.400000          0.166502E-03
      0.405000          0.162687E-03
      0.410000          0.158851E-03
      0.415000          0.155044E-03
      0.420000          0.151313E-03
      0.425000          0.147694E-03
      0.430000          0.144218E-03
      0.435000          0.140905E-03
      0.440000          0.137767E-03
      0.445000          0.134809E-03
      0.450000          0.132027E-03
      0.455000          0.129412E-03
      0.460000          0.126948E-03
      0.465000          0.124618E-03
      0.470000          0.122401E-03
      0.475000          0.120273E-03
      0.480000          0.118213E-03
      0.485000          0.116199E-03
      0.490000          0.114212E-03
      0.495000          0.112237E-03
      0.500000          0.110261E-03
