 I_abs(s)[cm^-1]/c[mg/ml]
       0.00000          0.145684E-01
      0.500000E-02      0.145048E-01
      0.100000E-01      0.143156E-01
      0.150000E-01      0.140059E-01
      0.200000E-01      0.135837E-01
      0.250000E-01      0.130599E-01
      0.300000E-01      0.124477E-01
      0.350000E-01      0.117619E-01
      0.400000E-01      0.110189E-01
      0.450000E-01      0.102354E-01
      0.500000E-01      0.942819E-02
      0.550000E-01      0.861344E-02
      0.600000E-01      0.780626E-02
      0.650000E-01      0.702023E-02
      0.700000E-01      0.626702E-02
      0.750000E-01      0.555623E-02
      0.800000E-01      0.489518E-02
      0.850000E-01      0.428897E-02
      0.900000E-01      0.374049E-02
      0.950000E-01      0.325065E-02
      0.100000          0.281854E-02
      0.105000          0.244180E-02
      0.110000          0.211685E-02
      0.115000          0.183926E-02
      0.120000          0.160407E-02
      0.125000          0.140605E-02
      0.130000          0.123999E-02
      0.135000          0.110089E-02
      0.140000          0.984160E-03
      0.145000          0.885684E-03
      0.150000          0.801929E-03
      0.155000          0.729948E-03
      0.160000          0.667370E-03
      0.165000          0.612355E-03
      0.170000          0.563528E-03
      0.175000          0.519905E-03
      0.180000          0.480805E-03
      0.185000          0.445773E-03
      0.190000          0.414505E-03
      0.195000          0.386782E-03
      0.200000          0.362426E-03
      0.205000          0.341253E-03
      0.210000          0.323060E-03
      0.215000          0.307604E-03
      0.220000          0.294606E-03
      0.225000          0.283753E-03
      0.230000          0.274712E-03
      0.235000          0.267137E-03
      0.240000          0.260693E-03
      0.245000          0.255058E-03
      0.250000          0.249943E-03
      0.255000          0.245098E-03
      0.260000          0.240315E-03
      0.265000          0.235434E-03
      0.270000          0.230343E-03
      0.275000          0.224971E-03
      0.280000          0.219291E-03
      0.285000          0.213311E-03
      0.290000          0.207067E-03
      0.295000          0.200623E-03
      0.300000          0.194058E-03
      0.305000          0.187464E-03
      0.310000          0.180941E-03
      0.315000          0.174591E-03
      0.320000          0.168515E-03
      0.325000          0.162806E-03
      0.330000          0.157549E-03
      0.335000          0.152816E-03
      0.340000          0.148665E-03
      0.345000          0.145136E-03
      0.350000          0.142252E-03
      0.355000          0.140018E-03
      0.360000          0.138419E-03
      0.365000          0.137422E-03
      0.370000          0.136982E-03
      0.375000          0.137035E-03
      0.380000          0.137509E-03
      0.385000          0.138323E-03
      0.390000          0.139392E-03
      0.395000          0.140628E-03
      0.400000          0.141944E-03
      0.405000          0.143261E-03
      0.410000          0.144504E-03
      0.415000          0.145607E-03
      0.420000          0.146516E-03
      0.425000          0.147187E-03
      0.430000          0.147588E-03
      0.435000          0.147699E-03
      0.440000          0.147507E-03
      0.445000          0.147013E-03
      0.450000          0.146222E-03
      0.455000          0.145148E-03
      0.460000          0.143807E-03
      0.465000          0.142220E-03
      0.470000          0.140412E-03
      0.475000          0.138405E-03
      0.480000          0.136223E-03
      0.485000          0.133890E-03
      0.490000          0.131428E-03
      0.495000          0.128859E-03
      0.500000          0.126201E-03
