 I_abs(s)[cm^-1]/c[mg/ml]
       0.00000          0.150082E-01
      0.500000E-02      0.149422E-01
      0.100000E-01      0.147460E-01
      0.150000E-01      0.144247E-01
      0.200000E-01      0.139868E-01
      0.250000E-01      0.134437E-01
      0.300000E-01      0.128090E-01
      0.350000E-01      0.120982E-01
      0.400000E-01      0.113282E-01
      0.450000E-01      0.105163E-01
      0.500000E-01      0.967968E-02
      0.550000E-01      0.883509E-02
      0.600000E-01      0.799794E-02
      0.650000E-01      0.718208E-02
      0.700000E-01      0.639941E-02
      0.750000E-01      0.565967E-02
      0.800000E-01      0.497031E-02
      0.850000E-01      0.433654E-02
      0.900000E-01      0.376139E-02
      0.950000E-01      0.324593E-02
      0.100000          0.278950E-02
      0.105000          0.238998E-02
      0.110000          0.204414E-02
      0.115000          0.174791E-02
      0.120000          0.149673E-02
      0.125000          0.128574E-02
      0.130000          0.111008E-02
      0.135000          0.965041E-03
      0.140000          0.846181E-03
      0.145000          0.749446E-03
      0.150000          0.671203E-03
      0.155000          0.608257E-03
      0.160000          0.557834E-03
      0.165000          0.517558E-03
      0.170000          0.485401E-03
      0.175000          0.459641E-03
      0.180000          0.438814E-03
      0.185000          0.421681E-03
      0.190000          0.407187E-03
      0.195000          0.394446E-03
      0.200000          0.382718E-03
      0.205000          0.371406E-03
      0.210000          0.360042E-03
      0.215000          0.348289E-03
      0.220000          0.335935E-03
      0.225000          0.322887E-03
      0.230000          0.309158E-03
      0.235000          0.294857E-03
      0.240000          0.280172E-03
      0.245000          0.265346E-03
      0.250000          0.250659E-03
      0.255000          0.236403E-03
      0.260000          0.222865E-03
      0.265000          0.210300E-03
      0.270000          0.198924E-03
      0.275000          0.188899E-03
      0.280000          0.180324E-03
      0.285000          0.173238E-03
      0.290000          0.167621E-03
      0.295000          0.163395E-03
      0.300000          0.160441E-03
      0.305000          0.158602E-03
      0.310000          0.157699E-03
      0.315000          0.157539E-03
      0.320000          0.157928E-03
      0.325000          0.158676E-03
      0.330000          0.159608E-03
      0.335000          0.160569E-03
      0.340000          0.161422E-03
      0.345000          0.162058E-03
      0.350000          0.162390E-03
      0.355000          0.162357E-03
      0.360000          0.161917E-03
      0.365000          0.161053E-03
      0.370000          0.159763E-03
      0.375000          0.158063E-03
      0.380000          0.155984E-03
      0.385000          0.153566E-03
      0.390000          0.150862E-03
      0.395000          0.147931E-03
      0.400000          0.144836E-03
      0.405000          0.141645E-03
      0.410000          0.138426E-03
      0.415000          0.135243E-03
      0.420000          0.132160E-03
      0.425000          0.129230E-03
      0.430000          0.126503E-03
      0.435000          0.124017E-03
      0.440000          0.121798E-03
      0.445000          0.119864E-03
      0.450000          0.118219E-03
      0.455000          0.116859E-03
      0.460000          0.115767E-03
      0.465000          0.114918E-03
      0.470000          0.114282E-03
      0.475000          0.113820E-03
      0.480000          0.113492E-03
      0.485000          0.113253E-03
      0.490000          0.113060E-03
      0.495000          0.112871E-03
      0.500000          0.112647E-03
