 I_abs(s)[cm^-1]/c[mg/ml]
       0.00000          0.146957E-01
      0.500000E-02      0.146257E-01
      0.100000E-01      0.144178E-01
      0.150000E-01      0.140787E-01
      0.200000E-01      0.136189E-01
      0.250000E-01      0.130522E-01
      0.300000E-01      0.123954E-01
      0.350000E-01      0.116669E-01
      0.400000E-01      0.108861E-01
      0.450000E-01      0.100726E-01
      0.500000E-01      0.924523E-02
      0.550000E-01      0.842113E-02
      0.600000E-01      0.761555E-02
      0.650000E-01      0.684122E-02
      0.700000E-01      0.610820E-02
      0.750000E-01      0.542379E-02
      0.800000E-01      0.479265E-02
      0.850000E-01      0.421707E-02
      0.900000E-01      0.369728E-02
      0.950000E-01      0.323186E-02
      0.100000          0.281814E-02
      0.105000          0.245263E-02
      0.110000          0.213139E-02
      0.115000          0.185029E-02
      0.120000          0.160532E-02
      0.125000          0.139269E-02
      0.130000          0.120894E-02
      0.135000          0.105096E-02
      0.140000          0.916019E-03
      0.145000          0.801654E-03
      0.150000          0.705657E-03
      0.155000          0.625996E-03
      0.160000          0.560762E-03
      0.165000          0.508137E-03
      0.170000          0.466374E-03
      0.175000          0.433793E-03
      0.180000          0.408800E-03
      0.185000          0.389909E-03
      0.190000          0.375765E-03
      0.195000          0.365173E-03
      0.200000          0.357111E-03
      0.205000          0.350742E-03
      0.210000          0.345405E-03
      0.215000          0.340604E-03
      0.220000          0.335984E-03
      0.225000          0.331305E-03
      0.230000          0.326409E-03
      0.235000          0.321195E-03
      0.240000          0.315593E-03
      0.245000          0.309549E-03
      0.250000          0.303014E-03
      0.255000          0.295942E-03
      0.260000          0.288295E-03
      0.265000          0.280046E-03
      0.270000          0.271193E-03
      0.275000          0.261762E-03
      0.280000          0.251819E-03
      0.285000          0.241469E-03
      0.290000          0.230851E-03
      0.295000          0.220137E-03
      0.300000          0.209518E-03
      0.305000          0.199193E-03
      0.310000          0.189355E-03
      0.315000          0.180176E-03
      0.320000          0.171798E-03
      0.325000          0.164327E-03
      0.330000          0.157824E-03
      0.335000          0.152307E-03
      0.340000          0.147756E-03
      0.345000          0.144113E-03
      0.350000          0.141296E-03
      0.355000          0.139205E-03
      0.360000          0.137729E-03
      0.365000          0.136754E-03
      0.370000          0.136168E-03
      0.375000          0.135870E-03
      0.380000          0.135763E-03
      0.385000          0.135762E-03
      0.390000          0.135792E-03
      0.395000          0.135784E-03
      0.400000          0.135677E-03
      0.405000          0.135413E-03
      0.410000          0.134944E-03
      0.415000          0.134225E-03
      0.420000          0.133220E-03
      0.425000          0.131905E-03
      0.430000          0.130266E-03
      0.435000          0.128304E-03
      0.440000          0.126037E-03
      0.445000          0.123500E-03
      0.450000          0.120743E-03
      0.455000          0.117831E-03
      0.460000          0.114840E-03
      0.465000          0.111851E-03
      0.470000          0.108952E-03
      0.475000          0.106223E-03
      0.480000          0.103737E-03
      0.485000          0.101556E-03
      0.490000          0.997234E-04
      0.495000          0.982648E-04
      0.500000          0.971852E-04
