 I_abs(s)[cm^-1]/c[mg/ml]
       0.00000          0.144259E-01
      0.500000E-02      0.143727E-01
      0.100000E-01      0.142142E-01
      0.150000E-01      0.139545E-01
      0.200000E-01      0.135996E-01
      0.250000E-01      0.131579E-01
      0.300000E-01      0.126397E-01
      0.350000E-01      0.120566E-01
      0.400000E-01      0.114210E-01
      0.450000E-01      0.107463E-01
      0.500000E-01      0.100457E-01
      0.550000E-01      0.933194E-02
      0.600000E-01      0.861726E-02
      0.650000E-01      0.791273E-02
      0.700000E-01      0.722806E-02
      0.750000E-01      0.657142E-02
      0.800000E-01      0.594934E-02
      0.850000E-01      0.536666E-02
      0.900000E-01      0.482656E-02
      0.950000E-01      0.433069E-02
      0.100000          0.387929E-02
      0.105000          0.347143E-02
      0.110000          0.310518E-02
      0.115000          0.277791E-02
      0.120000          0.248645E-02
      0.125000          0.222737E-02
      0.130000          0.199714E-02
      0.135000          0.179230E-02
      0.140000          0.160961E-02
      0.145000          0.144612E-02
      0.150000          0.129927E-02
      0.155000          0.116686E-02
      0.160000          0.104711E-02
      0.165000          0.938569E-03
      0.170000          0.840138E-03
      0.175000          0.750972E-03
      0.180000          0.670438E-03
      0.185000          0.598049E-03
      0.190000          0.533413E-03
      0.195000          0.476180E-03
      0.200000          0.426006E-03
      0.205000          0.382523E-03
      0.210000          0.345320E-03
      0.215000          0.313937E-03
      0.220000          0.287864E-03
      0.225000          0.266549E-03
      0.230000          0.249413E-03
      0.235000          0.235861E-03
      0.240000          0.225304E-03
      0.245000          0.217175E-03
      0.250000          0.210942E-03
      0.255000          0.206122E-03
      0.260000          0.202292E-03
      0.265000          0.199093E-03
      0.270000          0.196231E-03
      0.275000          0.193480E-03
      0.280000          0.190675E-03
      0.285000          0.187709E-03
      0.290000          0.184522E-03
      0.295000          0.181096E-03
      0.300000          0.177443E-03
      0.305000          0.173598E-03
      0.310000          0.169611E-03
      0.315000          0.165538E-03
      0.320000          0.161437E-03
      0.325000          0.157361E-03
      0.330000          0.153356E-03
      0.335000          0.149460E-03
      0.340000          0.145697E-03
      0.345000          0.142084E-03
      0.350000          0.138625E-03
      0.355000          0.135319E-03
      0.360000          0.132156E-03
      0.365000          0.129123E-03
      0.370000          0.126203E-03
      0.375000          0.123380E-03
      0.380000          0.120639E-03
      0.385000          0.117966E-03
      0.390000          0.115351E-03
      0.395000          0.112786E-03
      0.400000          0.110268E-03
      0.405000          0.107797E-03
      0.410000          0.105374E-03
      0.415000          0.103003E-03
      0.420000          0.100692E-03
      0.425000          0.984470E-04
      0.430000          0.962757E-04
      0.435000          0.941859E-04
      0.440000          0.921854E-04
      0.445000          0.902818E-04
      0.450000          0.884822E-04
      0.455000          0.867938E-04
      0.460000          0.852231E-04
      0.465000          0.837765E-04
      0.470000          0.824601E-04
      0.475000          0.812793E-04
      0.480000          0.802388E-04
      0.485000          0.793420E-04
      0.490000          0.785906E-04
      0.495000          0.779844E-04
      0.500000          0.775208E-04
