 I_abs(s)[cm^-1]/c[mg/ml]
       0.00000          0.147915E-01
      0.500000E-02      0.147394E-01
      0.100000E-01      0.145840E-01
      0.150000E-01      0.143285E-01
      0.200000E-01      0.139780E-01
      0.250000E-01      0.135392E-01
      0.300000E-01      0.130208E-01
      0.350000E-01      0.124324E-01
      0.400000E-01      0.117851E-01
      0.450000E-01      0.110904E-01
      0.500000E-01      0.103603E-01
      0.550000E-01      0.960708E-02
      0.600000E-01      0.884261E-02
      0.650000E-01      0.807830E-02
      0.700000E-01      0.732481E-02
      0.750000E-01      0.659176E-02
      0.800000E-01      0.588762E-02
      0.850000E-01      0.521953E-02
      0.900000E-01      0.459324E-02
      0.950000E-01      0.401307E-02
      0.100000          0.348194E-02
      0.105000          0.300140E-02
      0.110000          0.257176E-02
      0.115000          0.219220E-02
      0.120000          0.186090E-02
      0.125000          0.157527E-02
      0.130000          0.133205E-02
      0.135000          0.112753E-02
      0.140000          0.957715E-03
      0.145000          0.818484E-03
      0.150000          0.705719E-03
      0.155000          0.615437E-03
      0.160000          0.543889E-03
      0.165000          0.487636E-03
      0.170000          0.443599E-03
      0.175000          0.409095E-03
      0.180000          0.381845E-03
      0.185000          0.359968E-03
      0.190000          0.341960E-03
      0.195000          0.326664E-03
      0.200000          0.313224E-03
      0.205000          0.301049E-03
      0.210000          0.289757E-03
      0.215000          0.279134E-03
      0.220000          0.269093E-03
      0.225000          0.259626E-03
      0.230000          0.250781E-03
      0.235000          0.242626E-03
      0.240000          0.235233E-03
      0.245000          0.228658E-03
      0.250000          0.222934E-03
      0.255000          0.218063E-03
      0.260000          0.214018E-03
      0.265000          0.210740E-03
      0.270000          0.208145E-03
      0.275000          0.206130E-03
      0.280000          0.204576E-03
      0.285000          0.203355E-03
      0.290000          0.202338E-03
      0.295000          0.201397E-03
      0.300000          0.200412E-03
      0.305000          0.199274E-03
      0.310000          0.197887E-03
      0.315000          0.196172E-03
      0.320000          0.194065E-03
      0.325000          0.191521E-03
      0.330000          0.188512E-03
      0.335000          0.185027E-03
      0.340000          0.181074E-03
      0.345000          0.176675E-03
      0.350000          0.171867E-03
      0.355000          0.166702E-03
      0.360000          0.161241E-03
      0.365000          0.155556E-03
      0.370000          0.149728E-03
      0.375000          0.143838E-03
      0.380000          0.137975E-03
      0.385000          0.132223E-03
      0.390000          0.126664E-03
      0.395000          0.121376E-03
      0.400000          0.116425E-03
      0.405000          0.111869E-03
      0.410000          0.107753E-03
      0.415000          0.104108E-03
      0.420000          0.100950E-03
      0.425000          0.982836E-04
      0.430000          0.960959E-04
      0.435000          0.943632E-04
      0.440000          0.930504E-04
      0.445000          0.921132E-04
      0.450000          0.915006E-04
      0.455000          0.911575E-04
      0.460000          0.910272E-04
      0.465000          0.910542E-04
      0.470000          0.911859E-04
      0.475000          0.913750E-04
      0.480000          0.915812E-04
      0.485000          0.917717E-04
      0.490000          0.919219E-04
      0.495000          0.920158E-04
      0.500000          0.920450E-04
