 I_abs(s)[cm^-1]/c[mg/ml]
       0.00000          0.147835E-01
      0.500000E-02      0.147380E-01
      0.100000E-01      0.146022E-01
      0.150000E-01      0.143787E-01
      0.200000E-01      0.140715E-01
      0.250000E-01      0.136860E-01
      0.300000E-01      0.132290E-01
      0.350000E-01      0.127084E-01
      0.400000E-01      0.121331E-01
      0.450000E-01      0.115123E-01
      0.500000E-01      0.108559E-01
      0.550000E-01      0.101739E-01
      0.600000E-01      0.947621E-02
      0.650000E-01      0.877231E-02
      0.700000E-01      0.807126E-02
      0.750000E-01      0.738139E-02
      0.800000E-01      0.671018E-02
      0.850000E-01      0.606413E-02
      0.900000E-01      0.544870E-02
      0.950000E-01      0.486827E-02
      0.100000          0.432611E-02
      0.105000          0.382445E-02
      0.110000          0.336450E-02
      0.115000          0.294656E-02
      0.120000          0.257008E-02
      0.125000          0.223381E-02
      0.130000          0.193593E-02
      0.135000          0.167412E-02
      0.140000          0.144576E-02
      0.145000          0.124798E-02
      0.150000          0.107781E-02
      0.155000          0.932274E-03
      0.160000          0.808449E-03
      0.165000          0.703552E-03
      0.170000          0.614986E-03
      0.175000          0.540375E-03
      0.180000          0.477588E-03
      0.185000          0.424745E-03
      0.190000          0.380220E-03
      0.195000          0.342625E-03
      0.200000          0.310798E-03
      0.205000          0.283777E-03
      0.210000          0.260778E-03
      0.215000          0.241166E-03
      0.220000          0.224432E-03
      0.225000          0.210167E-03
      0.230000          0.198041E-03
      0.235000          0.187784E-03
      0.240000          0.179170E-03
      0.245000          0.172005E-03
      0.250000          0.166116E-03
      0.255000          0.161346E-03
      0.260000          0.157549E-03
      0.265000          0.154586E-03
      0.270000          0.152327E-03
      0.275000          0.150647E-03
      0.280000          0.149432E-03
      0.285000          0.148573E-03
      0.290000          0.147973E-03
      0.295000          0.147545E-03
      0.300000          0.147212E-03
      0.305000          0.146910E-03
      0.310000          0.146582E-03
      0.315000          0.146187E-03
      0.320000          0.145691E-03
      0.325000          0.145068E-03
      0.330000          0.144302E-03
      0.335000          0.143385E-03
      0.340000          0.142313E-03
      0.345000          0.141088E-03
      0.350000          0.139718E-03
      0.355000          0.138213E-03
      0.360000          0.136585E-03
      0.365000          0.134850E-03
      0.370000          0.133024E-03
      0.375000          0.131124E-03
      0.380000          0.129169E-03
      0.385000          0.127174E-03
      0.390000          0.125158E-03
      0.395000          0.123135E-03
      0.400000          0.121119E-03
      0.405000          0.119123E-03
      0.410000          0.117155E-03
      0.415000          0.115225E-03
      0.420000          0.113337E-03
      0.425000          0.111495E-03
      0.430000          0.109699E-03
      0.435000          0.107950E-03
      0.440000          0.106245E-03
      0.445000          0.104582E-03
      0.450000          0.102958E-03
      0.455000          0.101369E-03
      0.460000          0.998119E-04
      0.465000          0.982852E-04
      0.470000          0.967875E-04
      0.475000          0.953193E-04
      0.480000          0.938822E-04
      0.485000          0.924795E-04
      0.490000          0.911158E-04
      0.495000          0.897967E-04
      0.500000          0.885290E-04
