 I_abs(s)[cm^-1]/c[mg/ml]
       0.00000          0.131370E-01
      0.500000E-02      0.129897E-01
      0.100000E-01      0.125600E-01
      0.150000E-01      0.118828E-01
      0.200000E-01      0.110112E-01
      0.250000E-01      0.100098E-01
      0.300000E-01      0.894681E-02
      0.350000E-01      0.788629E-02
      0.400000E-01      0.688191E-02
      0.450000E-01      0.597261E-02
      0.500000E-01      0.518087E-02
      0.550000E-01      0.451345E-02
      0.600000E-01      0.396411E-02
      0.650000E-01      0.351766E-02
      0.700000E-01      0.315434E-02
      0.750000E-01      0.285385E-02
      0.800000E-01      0.259837E-02
      0.850000E-01      0.237435E-02
      0.900000E-01      0.217301E-02
      0.950000E-01      0.198974E-02
      0.100000          0.182296E-02
      0.105000          0.167267E-02
      0.110000          0.153918E-02
      0.115000          0.142228E-02
      0.120000          0.132082E-02
      0.125000          0.123277E-02
      0.130000          0.115553E-02
      0.135000          0.108644E-02
      0.140000          0.102318E-02
      0.145000          0.963981E-03
      0.150000          0.907761E-03
      0.155000          0.854005E-03
      0.160000          0.802597E-03
      0.165000          0.753618E-03
      0.170000          0.707192E-03
      0.175000          0.663408E-03
      0.180000          0.622310E-03
      0.185000          0.583940E-03
      0.190000          0.548383E-03
      0.195000          0.515787E-03
      0.200000          0.486349E-03
      0.205000          0.460249E-03
      0.210000          0.437578E-03
      0.215000          0.418265E-03
      0.220000          0.402040E-03
      0.225000          0.388442E-03
      0.230000          0.376877E-03
      0.235000          0.366696E-03
      0.240000          0.357297E-03
      0.245000          0.348196E-03
      0.250000          0.339077E-03
      0.255000          0.329791E-03
      0.260000          0.320327E-03
      0.265000          0.310759E-03
      0.270000          0.301186E-03
      0.275000          0.291687E-03
      0.280000          0.282294E-03
      0.285000          0.272994E-03
      0.290000          0.263744E-03
      0.295000          0.254499E-03
      0.300000          0.245239E-03
      0.305000          0.235988E-03
      0.310000          0.226814E-03
      0.315000          0.217821E-03
      0.320000          0.209127E-03
      0.325000          0.200846E-03
      0.330000          0.193068E-03
      0.335000          0.185847E-03
      0.340000          0.179199E-03
      0.345000          0.173106E-03
      0.350000          0.167526E-03
      0.355000          0.162404E-03
      0.360000          0.157679E-03
      0.365000          0.153294E-03
      0.370000          0.149197E-03
      0.375000          0.145344E-03
      0.380000          0.141701E-03
      0.385000          0.138242E-03
      0.390000          0.134948E-03
      0.395000          0.131804E-03
      0.400000          0.128798E-03
      0.405000          0.125914E-03
      0.410000          0.123131E-03
      0.415000          0.120419E-03
      0.420000          0.117738E-03
      0.425000          0.115043E-03
      0.430000          0.112287E-03
      0.435000          0.109435E-03
      0.440000          0.106463E-03
      0.445000          0.103373E-03
      0.450000          0.100190E-03
      0.455000          0.969582E-04
      0.460000          0.937371E-04
      0.465000          0.905888E-04
      0.470000          0.875671E-04
      0.475000          0.847095E-04
      0.480000          0.820319E-04
      0.485000          0.795295E-04
      0.490000          0.771834E-04
      0.495000          0.749696E-04
      0.500000          0.728696E-04
