 I_abs(s)[cm^-1]/c[mg/ml]
       0.00000          0.142684E-01
      0.500000E-02      0.141910E-01
      0.100000E-01      0.139617E-01
      0.150000E-01      0.135884E-01
      0.200000E-01      0.130838E-01
      0.250000E-01      0.124648E-01
      0.300000E-01      0.117513E-01
      0.350000E-01      0.109656E-01
      0.400000E-01      0.101309E-01
      0.450000E-01      0.927039E-02
      0.500000E-01      0.840599E-02
      0.550000E-01      0.755775E-02
      0.600000E-01      0.674291E-02
      0.650000E-01      0.597550E-02
      0.700000E-01      0.526600E-02
      0.750000E-01      0.462138E-02
      0.800000E-01      0.404520E-02
      0.850000E-01      0.353800E-02
      0.900000E-01      0.309772E-02
      0.950000E-01      0.272029E-02
      0.100000          0.240019E-02
      0.105000          0.213101E-02
      0.110000          0.190600E-02
      0.115000          0.171847E-02
      0.120000          0.156211E-02
      0.125000          0.143127E-02
      0.130000          0.132106E-02
      0.135000          0.122738E-02
      0.140000          0.114692E-02
      0.145000          0.107702E-02
      0.150000          0.101560E-02
      0.155000          0.961030E-03
      0.160000          0.911989E-03
      0.165000          0.867381E-03
      0.170000          0.826260E-03
      0.175000          0.787785E-03
      0.180000          0.751200E-03
      0.185000          0.715839E-03
      0.190000          0.681140E-03
      0.195000          0.646668E-03
      0.200000          0.612134E-03
      0.205000          0.577407E-03
      0.210000          0.542517E-03
      0.215000          0.507638E-03
      0.220000          0.473067E-03
      0.225000          0.439188E-03
      0.230000          0.406430E-03
      0.235000          0.375224E-03
      0.240000          0.345964E-03
      0.245000          0.318974E-03
      0.250000          0.294484E-03
      0.255000          0.272618E-03
      0.260000          0.253389E-03
      0.265000          0.236711E-03
      0.270000          0.222414E-03
      0.275000          0.210265E-03
      0.280000          0.199992E-03
      0.285000          0.191310E-03
      0.290000          0.183940E-03
      0.295000          0.177627E-03
      0.300000          0.172150E-03
      0.305000          0.167331E-03
      0.310000          0.163034E-03
      0.315000          0.159161E-03
      0.320000          0.155649E-03
      0.325000          0.152457E-03
      0.330000          0.149562E-03
      0.335000          0.146950E-03
      0.340000          0.144606E-03
      0.345000          0.142512E-03
      0.350000          0.140645E-03
      0.355000          0.138973E-03
      0.360000          0.137455E-03
      0.365000          0.136045E-03
      0.370000          0.134694E-03
      0.375000          0.133348E-03
      0.380000          0.131955E-03
      0.385000          0.130469E-03
      0.390000          0.128845E-03
      0.395000          0.127048E-03
      0.400000          0.125054E-03
      0.405000          0.122847E-03
      0.410000          0.120424E-03
      0.415000          0.117794E-03
      0.420000          0.114981E-03
      0.425000          0.112018E-03
      0.430000          0.108952E-03
      0.435000          0.105837E-03
      0.440000          0.102736E-03
      0.445000          0.997130E-04
      0.450000          0.968332E-04
      0.455000          0.941569E-04
      0.460000          0.917360E-04
      0.465000          0.896108E-04
      0.470000          0.878067E-04
      0.475000          0.863329E-04
      0.480000          0.851814E-04
      0.485000          0.843281E-04
      0.490000          0.837347E-04
      0.495000          0.833517E-04
      0.500000          0.831224E-04
