 I_abs(s)[cm^-1]/c[mg/ml]
       0.00000          0.141508E-01
      0.500000E-02      0.140709E-01
      0.100000E-01      0.138340E-01
      0.150000E-01      0.134483E-01
      0.200000E-01      0.129271E-01
      0.250000E-01      0.122880E-01
      0.300000E-01      0.115519E-01
      0.350000E-01      0.107422E-01
      0.400000E-01      0.988351E-02
      0.450000E-01      0.900040E-02
      0.500000E-01      0.811646E-02
      0.550000E-01      0.725322E-02
      0.600000E-01      0.642933E-02
      0.650000E-01      0.565999E-02
      0.700000E-01      0.495653E-02
      0.750000E-01      0.432629E-02
      0.800000E-01      0.377272E-02
      0.850000E-01      0.329568E-02
      0.900000E-01      0.289190E-02
      0.950000E-01      0.255560E-02
      0.100000          0.227915E-02
      0.105000          0.205377E-02
      0.110000          0.187022E-02
      0.115000          0.171941E-02
      0.120000          0.159291E-02
      0.125000          0.148333E-02
      0.130000          0.138461E-02
      0.135000          0.129216E-02
      0.140000          0.120282E-02
      0.145000          0.111481E-02
      0.150000          0.102750E-02
      0.155000          0.941210E-03
      0.160000          0.856928E-03
      0.165000          0.776017E-03
      0.170000          0.699975E-03
      0.175000          0.630210E-03
      0.180000          0.567869E-03
      0.185000          0.513720E-03
      0.190000          0.468095E-03
      0.195000          0.430882E-03
      0.200000          0.401563E-03
      0.205000          0.379284E-03
      0.210000          0.362952E-03
      0.215000          0.351337E-03
      0.220000          0.343174E-03
      0.225000          0.337259E-03
      0.230000          0.332520E-03
      0.235000          0.328073E-03
      0.240000          0.323252E-03
      0.245000          0.317616E-03
      0.250000          0.310938E-03
      0.255000          0.303175E-03
      0.260000          0.294436E-03
      0.265000          0.284930E-03
      0.270000          0.274928E-03
      0.275000          0.264720E-03
      0.280000          0.254584E-03
      0.285000          0.244753E-03
      0.290000          0.235410E-03
      0.295000          0.226671E-03
      0.300000          0.218594E-03
      0.305000          0.211181E-03
      0.310000          0.204393E-03
      0.315000          0.198165E-03
      0.320000          0.192416E-03
      0.325000          0.187064E-03
      0.330000          0.182037E-03
      0.335000          0.177279E-03
      0.340000          0.172749E-03
      0.345000          0.168428E-03
      0.350000          0.164310E-03
      0.355000          0.160400E-03
      0.360000          0.156708E-03
      0.365000          0.153242E-03
      0.370000          0.150006E-03
      0.375000          0.146994E-03
      0.380000          0.144191E-03
      0.385000          0.141570E-03
      0.390000          0.139096E-03
      0.395000          0.136728E-03
      0.400000          0.134423E-03
      0.405000          0.132142E-03
      0.410000          0.129854E-03
      0.415000          0.127537E-03
      0.420000          0.125181E-03
      0.425000          0.122793E-03
      0.430000          0.120391E-03
      0.435000          0.118005E-03
      0.440000          0.115676E-03
      0.445000          0.113449E-03
      0.450000          0.111368E-03
      0.455000          0.109476E-03
      0.460000          0.107808E-03
      0.465000          0.106386E-03
      0.470000          0.105221E-03
      0.475000          0.104309E-03
      0.480000          0.103630E-03
      0.485000          0.103151E-03
      0.490000          0.102830E-03
      0.495000          0.102614E-03
      0.500000          0.102447E-03
