 I_abs(s)[cm^-1]/c[mg/ml]
       0.00000          0.148315E-01
      0.500000E-02      0.147787E-01
      0.100000E-01      0.146213E-01
      0.150000E-01      0.143626E-01
      0.200000E-01      0.140080E-01
      0.250000E-01      0.135647E-01
      0.300000E-01      0.130417E-01
      0.350000E-01      0.124492E-01
      0.400000E-01      0.117985E-01
      0.450000E-01      0.111018E-01
      0.500000E-01      0.103715E-01
      0.550000E-01      0.961987E-02
      0.600000E-01      0.885912E-02
      0.650000E-01      0.810067E-02
      0.700000E-01      0.735508E-02
      0.750000E-01      0.663177E-02
      0.800000E-01      0.593888E-02
      0.850000E-01      0.528313E-02
      0.900000E-01      0.466979E-02
      0.950000E-01      0.410267E-02
      0.100000          0.358414E-02
      0.105000          0.311526E-02
      0.110000          0.269587E-02
      0.115000          0.232474E-02
      0.120000          0.199978E-02
      0.125000          0.171816E-02
      0.130000          0.147656E-02
      0.135000          0.127128E-02
      0.140000          0.109845E-02
      0.145000          0.954127E-03
      0.150000          0.834490E-03
      0.155000          0.735884E-03
      0.160000          0.654922E-03
      0.165000          0.588539E-03
      0.170000          0.534024E-03
      0.175000          0.489035E-03
      0.180000          0.451595E-03
      0.185000          0.420075E-03
      0.190000          0.393167E-03
      0.195000          0.369852E-03
      0.200000          0.349355E-03
      0.205000          0.331111E-03
      0.210000          0.314719E-03
      0.215000          0.299910E-03
      0.220000          0.286509E-03
      0.225000          0.274406E-03
      0.230000          0.263533E-03
      0.235000          0.253843E-03
      0.240000          0.245296E-03
      0.245000          0.237846E-03
      0.250000          0.231438E-03
      0.255000          0.226000E-03
      0.260000          0.221447E-03
      0.265000          0.217678E-03
      0.270000          0.214580E-03
      0.275000          0.212031E-03
      0.280000          0.209906E-03
      0.285000          0.208078E-03
      0.290000          0.206424E-03
      0.295000          0.204830E-03
      0.300000          0.203192E-03
      0.305000          0.201421E-03
      0.310000          0.199444E-03
      0.315000          0.197206E-03
      0.320000          0.194672E-03
      0.325000          0.191824E-03
      0.330000          0.188663E-03
      0.335000          0.185209E-03
      0.340000          0.181495E-03
      0.345000          0.177567E-03
      0.350000          0.173482E-03
      0.355000          0.169301E-03
      0.360000          0.165092E-03
      0.365000          0.160919E-03
      0.370000          0.156848E-03
      0.375000          0.152933E-03
      0.380000          0.149226E-03
      0.385000          0.145763E-03
      0.390000          0.142574E-03
      0.395000          0.139673E-03
      0.400000          0.137064E-03
      0.405000          0.134738E-03
      0.410000          0.132679E-03
      0.415000          0.130857E-03
      0.420000          0.129241E-03
      0.425000          0.127790E-03
      0.430000          0.126464E-03
      0.435000          0.125221E-03
      0.440000          0.124020E-03
      0.445000          0.122824E-03
      0.450000          0.121601E-03
      0.455000          0.120324E-03
      0.460000          0.118973E-03
      0.465000          0.117532E-03
      0.470000          0.115996E-03
      0.475000          0.114361E-03
      0.480000          0.112631E-03
      0.485000          0.110814E-03
      0.490000          0.108921E-03
      0.495000          0.106966E-03
      0.500000          0.104962E-03
