 I_abs(s)[cm^-1]/c[mg/ml]
       0.00000          0.144180E-01
      0.500000E-02      0.143618E-01
      0.100000E-01      0.141947E-01
      0.150000E-01      0.139209E-01
      0.200000E-01      0.135471E-01
      0.250000E-01      0.130827E-01
      0.300000E-01      0.125386E-01
      0.350000E-01      0.119276E-01
      0.400000E-01      0.112632E-01
      0.450000E-01      0.105598E-01
      0.500000E-01      0.983140E-02
      0.550000E-01      0.909181E-02
      0.600000E-01      0.835384E-02
      0.650000E-01      0.762910E-02
      0.700000E-01      0.692767E-02
      0.750000E-01      0.625795E-02
      0.800000E-01      0.562651E-02
      0.850000E-01      0.503814E-02
      0.900000E-01      0.449589E-02
      0.950000E-01      0.400118E-02
      0.100000          0.355403E-02
      0.105000          0.315324E-02
      0.110000          0.279665E-02
      0.115000          0.248135E-02
      0.120000          0.220397E-02
      0.125000          0.196087E-02
      0.130000          0.174828E-02
      0.135000          0.156255E-02
      0.140000          0.140020E-02
      0.145000          0.125804E-02
      0.150000          0.113320E-02
      0.155000          0.102318E-02
      0.160000          0.925847E-03
      0.165000          0.839411E-03
      0.170000          0.762397E-03
      0.175000          0.693610E-03
      0.180000          0.632091E-03
      0.185000          0.577072E-03
      0.190000          0.527938E-03
      0.195000          0.484187E-03
      0.200000          0.445399E-03
      0.205000          0.411208E-03
      0.210000          0.381280E-03
      0.215000          0.355296E-03
      0.220000          0.332942E-03
      0.225000          0.313899E-03
      0.230000          0.297838E-03
      0.235000          0.284423E-03
      0.240000          0.273305E-03
      0.245000          0.264134E-03
      0.250000          0.256559E-03
      0.255000          0.250234E-03
      0.260000          0.244832E-03
      0.265000          0.240045E-03
      0.270000          0.235597E-03
      0.275000          0.231248E-03
      0.280000          0.226802E-03
      0.285000          0.222108E-03
      0.290000          0.217066E-03
      0.295000          0.211621E-03
      0.300000          0.205766E-03
      0.305000          0.199532E-03
      0.310000          0.192989E-03
      0.315000          0.186228E-03
      0.320000          0.179361E-03
      0.325000          0.172508E-03
      0.330000          0.165790E-03
      0.335000          0.159318E-03
      0.340000          0.153189E-03
      0.345000          0.147482E-03
      0.350000          0.142252E-03
      0.355000          0.137528E-03
      0.360000          0.133315E-03
      0.365000          0.129597E-03
      0.370000          0.126336E-03
      0.375000          0.123480E-03
      0.380000          0.120964E-03
      0.385000          0.118719E-03
      0.390000          0.116672E-03
      0.395000          0.114754E-03
      0.400000          0.112902E-03
      0.405000          0.111062E-03
      0.410000          0.109193E-03
      0.415000          0.107265E-03
      0.420000          0.105262E-03
      0.425000          0.103182E-03
      0.430000          0.101033E-03
      0.435000          0.988334E-04
      0.440000          0.966111E-04
      0.445000          0.943985E-04
      0.450000          0.922321E-04
      0.455000          0.901489E-04
      0.460000          0.881846E-04
      0.465000          0.863713E-04
      0.470000          0.847357E-04
      0.475000          0.832979E-04
      0.480000          0.820700E-04
      0.485000          0.810561E-04
      0.490000          0.802519E-04
      0.495000          0.796452E-04
      0.500000          0.792168E-04
