 I_abs(s)[cm^-1]/c[mg/ml]
       0.00000          0.135778E-01
      0.500000E-02      0.134792E-01
      0.100000E-01      0.131890E-01
      0.150000E-01      0.127237E-01
      0.200000E-01      0.121087E-01
      0.250000E-01      0.113765E-01
      0.300000E-01      0.105633E-01
      0.350000E-01      0.970603E-02
      0.400000E-01      0.883953E-02
      0.450000E-01      0.799388E-02
      0.500000E-01      0.719271E-02
      0.550000E-01      0.645224E-02
      0.600000E-01      0.578122E-02
      0.650000E-01      0.518170E-02
      0.700000E-01      0.465028E-02
      0.750000E-01      0.417987E-02
      0.800000E-01      0.376140E-02
      0.850000E-01      0.338552E-02
      0.900000E-01      0.304391E-02
      0.950000E-01      0.273012E-02
      0.100000          0.243998E-02
      0.105000          0.217150E-02
      0.110000          0.192444E-02
      0.115000          0.169968E-02
      0.120000          0.149845E-02
      0.125000          0.132171E-02
      0.130000          0.116964E-02
      0.135000          0.104134E-02
      0.140000          0.934889E-03
      0.145000          0.847432E-03
      0.150000          0.775578E-03
      0.155000          0.715769E-03
      0.160000          0.664673E-03
      0.165000          0.619493E-03
      0.170000          0.578160E-03
      0.175000          0.539384E-03
      0.180000          0.502592E-03
      0.185000          0.467765E-03
      0.190000          0.435226E-03
      0.195000          0.405424E-03
      0.200000          0.378755E-03
      0.205000          0.355436E-03
      0.210000          0.335450E-03
      0.215000          0.318562E-03
      0.220000          0.304372E-03
      0.225000          0.292409E-03
      0.230000          0.282210E-03
      0.235000          0.273392E-03
      0.240000          0.265694E-03
      0.245000          0.258974E-03
      0.250000          0.253184E-03
      0.255000          0.248333E-03
      0.260000          0.244426E-03
      0.265000          0.241435E-03
      0.270000          0.239266E-03
      0.275000          0.237762E-03
      0.280000          0.236723E-03
      0.285000          0.235932E-03
      0.290000          0.235198E-03
      0.295000          0.234383E-03
      0.300000          0.233422E-03
      0.305000          0.232320E-03
      0.310000          0.231140E-03
      0.315000          0.229964E-03
      0.320000          0.228865E-03
      0.325000          0.227865E-03
      0.330000          0.226912E-03
      0.335000          0.225874E-03
      0.340000          0.224546E-03
      0.345000          0.222678E-03
      0.350000          0.220010E-03
      0.355000          0.216321E-03
      0.360000          0.211459E-03
      0.365000          0.205379E-03
      0.370000          0.198148E-03
      0.375000          0.189943E-03
      0.380000          0.181028E-03
      0.385000          0.171719E-03
      0.390000          0.162348E-03
      0.395000          0.153217E-03
      0.400000          0.144569E-03
      0.405000          0.136570E-03
      0.410000          0.129299E-03
      0.415000          0.122756E-03
      0.420000          0.116882E-03
      0.425000          0.111585E-03
      0.430000          0.106765E-03
      0.435000          0.102335E-03
      0.440000          0.982440E-04
      0.445000          0.944783E-04
      0.450000          0.910619E-04
      0.455000          0.880460E-04
      0.460000          0.854937E-04
      0.465000          0.834634E-04
      0.470000          0.819930E-04
      0.475000          0.810895E-04
      0.480000          0.807230E-04
      0.485000          0.808284E-04
      0.490000          0.813120E-04
      0.495000          0.820619E-04
      0.500000          0.829613E-04
