 I_abs(s)[cm^-1]/c[mg/ml]
       0.00000          0.131294E-01
      0.500000E-02      0.129669E-01
      0.100000E-01      0.124949E-01
      0.150000E-01      0.117577E-01
      0.200000E-01      0.108223E-01
      0.250000E-01      0.976827E-02
      0.300000E-01      0.867727E-02
      0.350000E-01      0.762264E-02
      0.400000E-01      0.666121E-02
      0.450000E-01      0.582851E-02
      0.500000E-01      0.513775E-02
      0.550000E-01      0.458243E-02
      0.600000E-01      0.414159E-02
      0.650000E-01      0.378646E-02
      0.700000E-01      0.348718E-02
      0.750000E-01      0.321822E-02
      0.800000E-01      0.296187E-02
      0.850000E-01      0.270938E-02
      0.900000E-01      0.246006E-02
      0.950000E-01      0.221880E-02
      0.100000          0.199305E-02
      0.105000          0.178982E-02
      0.110000          0.161354E-02
      0.115000          0.146502E-02
      0.120000          0.134152E-02
      0.125000          0.123779E-02
      0.130000          0.114754E-02
      0.135000          0.106491E-02
      0.140000          0.985667E-03
      0.145000          0.907732E-03
      0.150000          0.831148E-03
      0.155000          0.757521E-03
      0.160000          0.689195E-03
      0.165000          0.628424E-03
      0.170000          0.576719E-03
      0.175000          0.534526E-03
      0.180000          0.501228E-03
      0.185000          0.475422E-03
      0.190000          0.455317E-03
      0.195000          0.439147E-03
      0.200000          0.425472E-03
      0.205000          0.413322E-03
      0.210000          0.402177E-03
      0.215000          0.391844E-03
      0.220000          0.382281E-03
      0.225000          0.373442E-03
      0.230000          0.365186E-03
      0.235000          0.357265E-03
      0.240000          0.349364E-03
      0.245000          0.341185E-03
      0.250000          0.332506E-03
      0.255000          0.323227E-03
      0.260000          0.313363E-03
      0.265000          0.303013E-03
      0.270000          0.292308E-03
      0.275000          0.281374E-03
      0.280000          0.270309E-03
      0.285000          0.259197E-03
      0.290000          0.248127E-03
      0.295000          0.237226E-03
      0.300000          0.226669E-03
      0.305000          0.216673E-03
      0.310000          0.207454E-03
      0.315000          0.199181E-03
      0.320000          0.191920E-03
      0.325000          0.185601E-03
      0.330000          0.180017E-03
      0.335000          0.174860E-03
      0.340000          0.169787E-03
      0.345000          0.164494E-03
      0.350000          0.158790E-03
      0.355000          0.152646E-03
      0.360000          0.146196E-03
      0.365000          0.139713E-03
      0.370000          0.133538E-03
      0.375000          0.128010E-03
      0.380000          0.123384E-03
      0.385000          0.119781E-03
      0.390000          0.117165E-03
      0.395000          0.115355E-03
      0.400000          0.114070E-03
      0.405000          0.112985E-03
      0.410000          0.111797E-03
      0.415000          0.110276E-03
      0.420000          0.108299E-03
      0.425000          0.105862E-03
      0.430000          0.103064E-03
      0.435000          0.100081E-03
      0.440000          0.971236E-04
      0.445000          0.943989E-04
      0.450000          0.920750E-04
      0.455000          0.902559E-04
      0.460000          0.889702E-04
      0.465000          0.881723E-04
      0.470000          0.877547E-04
      0.475000          0.875701E-04
      0.480000          0.874581E-04
      0.485000          0.872732E-04
      0.490000          0.869081E-04
      0.495000          0.863109E-04
      0.500000          0.854907E-04
