 I_abs(s)[cm^-1]/c[mg/ml]
       0.00000          0.144891E-01
      0.500000E-02      0.144323E-01
      0.100000E-01      0.142631E-01
      0.150000E-01      0.139855E-01
      0.200000E-01      0.136061E-01
      0.250000E-01      0.131338E-01
      0.300000E-01      0.125792E-01
      0.350000E-01      0.119548E-01
      0.400000E-01      0.112740E-01
      0.450000E-01      0.105509E-01
      0.500000E-01      0.979993E-02
      0.550000E-01      0.903520E-02
      0.600000E-01      0.827013E-02
      0.650000E-01      0.751709E-02
      0.700000E-01      0.678712E-02
      0.750000E-01      0.608961E-02
      0.800000E-01      0.543220E-02
      0.850000E-01      0.482069E-02
      0.900000E-01      0.425898E-02
      0.950000E-01      0.374923E-02
      0.100000          0.329191E-02
      0.105000          0.288605E-02
      0.110000          0.252941E-02
      0.115000          0.221881E-02
      0.120000          0.195029E-02
      0.125000          0.171948E-02
      0.130000          0.152178E-02
      0.135000          0.135259E-02
      0.140000          0.120753E-02
      0.145000          0.108256E-02
      0.150000          0.974101E-03
      0.155000          0.879102E-03
      0.160000          0.795062E-03
      0.165000          0.720024E-03
      0.170000          0.652537E-03
      0.175000          0.591588E-03
      0.180000          0.536532E-03
      0.185000          0.486995E-03
      0.190000          0.442797E-03
      0.195000          0.403857E-03
      0.200000          0.370129E-03
      0.205000          0.341535E-03
      0.210000          0.317925E-03
      0.215000          0.299047E-03
      0.220000          0.284540E-03
      0.225000          0.273932E-03
      0.230000          0.266661E-03
      0.235000          0.262099E-03
      0.240000          0.259585E-03
      0.245000          0.258459E-03
      0.250000          0.258094E-03
      0.255000          0.257927E-03
      0.260000          0.257486E-03
      0.265000          0.256403E-03
      0.270000          0.254427E-03
      0.275000          0.251420E-03
      0.280000          0.247355E-03
      0.285000          0.242299E-03
      0.290000          0.236399E-03
      0.295000          0.229853E-03
      0.300000          0.222896E-03
      0.305000          0.215769E-03
      0.310000          0.208702E-03
      0.315000          0.201898E-03
      0.320000          0.195516E-03
      0.325000          0.189664E-03
      0.330000          0.184398E-03
      0.335000          0.179716E-03
      0.340000          0.175574E-03
      0.345000          0.171884E-03
      0.350000          0.168530E-03
      0.355000          0.165383E-03
      0.360000          0.162307E-03
      0.365000          0.159175E-03
      0.370000          0.155878E-03
      0.375000          0.152333E-03
      0.380000          0.148487E-03
      0.385000          0.144322E-03
      0.390000          0.139853E-03
      0.395000          0.135124E-03
      0.400000          0.130206E-03
      0.405000          0.125189E-03
      0.410000          0.120173E-03
      0.415000          0.115263E-03
      0.420000          0.110562E-03
      0.425000          0.106160E-03
      0.430000          0.102132E-03
      0.435000          0.985366E-04
      0.440000          0.954066E-04
      0.445000          0.927544E-04
      0.450000          0.905705E-04
      0.455000          0.888263E-04
      0.460000          0.874774E-04
      0.465000          0.864676E-04
      0.470000          0.857338E-04
      0.475000          0.852100E-04
      0.480000          0.848318E-04
      0.485000          0.845402E-04
      0.490000          0.842843E-04
      0.495000          0.840233E-04
      0.500000          0.837275E-04
