 I_abs(s)[cm^-1]/c[mg/ml]
       0.00000          0.145843E-01
      0.500000E-02      0.145275E-01
      0.100000E-01      0.143583E-01
      0.150000E-01      0.140803E-01
      0.200000E-01      0.136993E-01
      0.250000E-01      0.132234E-01
      0.300000E-01      0.126623E-01
      0.350000E-01      0.120273E-01
      0.400000E-01      0.113310E-01
      0.450000E-01      0.105867E-01
      0.500000E-01      0.980828E-02
      0.550000E-01      0.900950E-02
      0.600000E-01      0.820392E-02
      0.650000E-01      0.740440E-02
      0.700000E-01      0.662283E-02
      0.750000E-01      0.586987E-02
      0.800000E-01      0.515471E-02
      0.850000E-01      0.448497E-02
      0.900000E-01      0.386659E-02
      0.950000E-01      0.330377E-02
      0.100000          0.279905E-02
      0.105000          0.235337E-02
      0.110000          0.196619E-02
      0.115000          0.163566E-02
      0.120000          0.135881E-02
      0.125000          0.113178E-02
      0.130000          0.950003E-03
      0.135000          0.808450E-03
      0.140000          0.701840E-03
      0.145000          0.624828E-03
      0.150000          0.572185E-03
      0.155000          0.538939E-03
      0.160000          0.520501E-03
      0.165000          0.512748E-03
      0.170000          0.512086E-03
      0.175000          0.515483E-03
      0.180000          0.520466E-03
      0.185000          0.525113E-03
      0.190000          0.528010E-03
      0.195000          0.528205E-03
      0.200000          0.525148E-03
      0.205000          0.518623E-03
      0.210000          0.508684E-03
      0.215000          0.495586E-03
      0.220000          0.479728E-03
      0.225000          0.461595E-03
      0.230000          0.441714E-03
      0.235000          0.420613E-03
      0.240000          0.398796E-03
      0.245000          0.376717E-03
      0.250000          0.354773E-03
      0.255000          0.333293E-03
      0.260000          0.312541E-03
      0.265000          0.292719E-03
      0.270000          0.273972E-03
      0.275000          0.256397E-03
      0.280000          0.240054E-03
      0.285000          0.224971E-03
      0.290000          0.211154E-03
      0.295000          0.198594E-03
      0.300000          0.187269E-03
      0.305000          0.177151E-03
      0.310000          0.168204E-03
      0.315000          0.160388E-03
      0.320000          0.153659E-03
      0.325000          0.147965E-03
      0.330000          0.143247E-03
      0.335000          0.139439E-03
      0.340000          0.136467E-03
      0.345000          0.134248E-03
      0.350000          0.132693E-03
      0.355000          0.131706E-03
      0.360000          0.131188E-03
      0.365000          0.131036E-03
      0.370000          0.131151E-03
      0.375000          0.131436E-03
      0.380000          0.131801E-03
      0.385000          0.132167E-03
      0.390000          0.132463E-03
      0.395000          0.132636E-03
      0.400000          0.132641E-03
      0.405000          0.132454E-03
      0.410000          0.132060E-03
      0.415000          0.131459E-03
      0.420000          0.130663E-03
      0.425000          0.129694E-03
      0.430000          0.128580E-03
      0.435000          0.127355E-03
      0.440000          0.126055E-03
      0.445000          0.124716E-03
      0.450000          0.123372E-03
      0.455000          0.122054E-03
      0.460000          0.120787E-03
      0.465000          0.119588E-03
      0.470000          0.118468E-03
      0.475000          0.117432E-03
      0.480000          0.116475E-03
      0.485000          0.115590E-03
      0.490000          0.114759E-03
      0.495000          0.113966E-03
      0.500000          0.113186E-03
