 I_abs(s)[cm^-1]/c[mg/ml]
       0.00000          0.142056E-01
      0.500000E-02      0.141382E-01
      0.100000E-01      0.139379E-01
      0.150000E-01      0.136105E-01
      0.200000E-01      0.131652E-01
      0.250000E-01      0.126143E-01
      0.300000E-01      0.119729E-01
      0.350000E-01      0.112578E-01
      0.400000E-01      0.104873E-01
      0.450000E-01      0.968032E-02
      0.500000E-01      0.885543E-02
      0.550000E-01      0.803049E-02
      0.600000E-01      0.722195E-02
      0.650000E-01      0.644427E-02
      0.700000E-01      0.570965E-02
      0.750000E-01      0.502766E-02
      0.800000E-01      0.440523E-02
      0.850000E-01      0.384654E-02
      0.900000E-01      0.335325E-02
      0.950000E-01      0.292467E-02
      0.100000          0.255808E-02
      0.105000          0.224914E-02
      0.110000          0.199226E-02
      0.115000          0.178103E-02
      0.120000          0.160863E-02
      0.125000          0.146817E-02
      0.130000          0.135307E-02
      0.135000          0.125727E-02
      0.140000          0.117543E-02
      0.145000          0.110308E-02
      0.150000          0.103665E-02
      0.155000          0.973502E-03
      0.160000          0.911844E-03
      0.165000          0.850655E-03
      0.170000          0.789566E-03
      0.175000          0.728718E-03
      0.180000          0.668624E-03
      0.185000          0.610025E-03
      0.190000          0.553776E-03
      0.195000          0.500728E-03
      0.200000          0.451650E-03
      0.205000          0.407166E-03
      0.210000          0.367717E-03
      0.215000          0.333546E-03
      0.220000          0.304694E-03
      0.225000          0.281023E-03
      0.230000          0.262240E-03
      0.235000          0.247927E-03
      0.240000          0.237581E-03
      0.245000          0.230645E-03
      0.250000          0.226542E-03
      0.255000          0.224705E-03
      0.260000          0.224592E-03
      0.265000          0.225706E-03
      0.270000          0.227605E-03
      0.275000          0.229905E-03
      0.280000          0.232282E-03
      0.285000          0.234470E-03
      0.290000          0.236253E-03
      0.295000          0.237467E-03
      0.300000          0.237987E-03
      0.305000          0.237728E-03
      0.310000          0.236636E-03
      0.315000          0.234689E-03
      0.320000          0.231889E-03
      0.325000          0.228263E-03
      0.330000          0.223861E-03
      0.335000          0.218754E-03
      0.340000          0.213028E-03
      0.345000          0.206786E-03
      0.350000          0.200144E-03
      0.355000          0.193225E-03
      0.360000          0.186156E-03
      0.365000          0.179064E-03
      0.370000          0.172070E-03
      0.375000          0.165286E-03
      0.380000          0.158808E-03
      0.385000          0.152719E-03
      0.390000          0.147078E-03
      0.395000          0.141926E-03
      0.400000          0.137279E-03
      0.405000          0.133135E-03
      0.410000          0.129472E-03
      0.415000          0.126251E-03
      0.420000          0.123420E-03
      0.425000          0.120917E-03
      0.430000          0.118677E-03
      0.435000          0.116631E-03
      0.440000          0.114713E-03
      0.445000          0.112864E-03
      0.450000          0.111033E-03
      0.455000          0.109180E-03
      0.460000          0.107276E-03
      0.465000          0.105306E-03
      0.470000          0.103266E-03
      0.475000          0.101165E-03
      0.480000          0.990189E-04
      0.485000          0.968533E-04
      0.490000          0.946983E-04
      0.495000          0.925867E-04
      0.500000          0.905518E-04
