 I_abs(s)[cm^-1]/c[mg/ml]
       0.00000          0.146081E-01
      0.500000E-02      0.145575E-01
      0.100000E-01      0.144065E-01
      0.150000E-01      0.141582E-01
      0.200000E-01      0.138174E-01
      0.250000E-01      0.133908E-01
      0.300000E-01      0.128867E-01
      0.350000E-01      0.123144E-01
      0.400000E-01      0.116845E-01
      0.450000E-01      0.110083E-01
      0.500000E-01      0.102973E-01
      0.550000E-01      0.956353E-02
      0.600000E-01      0.881839E-02
      0.650000E-01      0.807300E-02
      0.700000E-01      0.733772E-02
      0.750000E-01      0.662192E-02
      0.800000E-01      0.593386E-02
      0.850000E-01      0.528052E-02
      0.900000E-01      0.466751E-02
      0.950000E-01      0.409910E-02
      0.100000          0.357814E-02
      0.105000          0.310620E-02
      0.110000          0.268359E-02
      0.115000          0.230953E-02
      0.120000          0.198227E-02
      0.125000          0.169929E-02
      0.130000          0.145740E-02
      0.135000          0.125298E-02
      0.140000          0.108214E-02
      0.145000          0.940813E-03
      0.150000          0.824990E-03
      0.155000          0.730775E-03
      0.160000          0.654509E-03
      0.165000          0.592847E-03
      0.170000          0.542810E-03
      0.175000          0.501818E-03
      0.180000          0.467701E-03
      0.185000          0.438691E-03
      0.190000          0.413403E-03
      0.195000          0.390799E-03
      0.200000          0.370146E-03
      0.205000          0.350969E-03
      0.210000          0.333001E-03
      0.215000          0.316132E-03
      0.220000          0.300365E-03
      0.225000          0.285772E-03
      0.230000          0.272456E-03
      0.235000          0.260524E-03
      0.240000          0.250064E-03
      0.245000          0.241129E-03
      0.250000          0.233724E-03
      0.255000          0.227808E-03
      0.260000          0.223290E-03
      0.265000          0.220037E-03
      0.270000          0.217880E-03
      0.275000          0.216623E-03
      0.280000          0.216057E-03
      0.285000          0.215964E-03
      0.290000          0.216131E-03
      0.295000          0.216358E-03
      0.300000          0.216464E-03
      0.305000          0.216292E-03
      0.310000          0.215713E-03
      0.315000          0.214632E-03
      0.320000          0.212980E-03
      0.325000          0.210721E-03
      0.330000          0.207844E-03
      0.335000          0.204367E-03
      0.340000          0.200325E-03
      0.345000          0.195772E-03
      0.350000          0.190778E-03
      0.355000          0.185420E-03
      0.360000          0.179782E-03
      0.365000          0.173951E-03
      0.370000          0.168011E-03
      0.375000          0.162047E-03
      0.380000          0.156135E-03
      0.385000          0.150346E-03
      0.390000          0.144743E-03
      0.395000          0.139377E-03
      0.400000          0.134292E-03
      0.405000          0.129522E-03
      0.410000          0.125090E-03
      0.415000          0.121011E-03
      0.420000          0.117291E-03
      0.425000          0.113928E-03
      0.430000          0.110913E-03
      0.435000          0.108232E-03
      0.440000          0.105866E-03
      0.445000          0.103794E-03
      0.450000          0.101989E-03
      0.455000          0.100427E-03
      0.460000          0.990786E-04
      0.465000          0.979184E-04
      0.470000          0.969197E-04
      0.475000          0.960574E-04
      0.480000          0.953080E-04
      0.485000          0.946492E-04
      0.490000          0.940608E-04
      0.495000          0.935238E-04
      0.500000          0.930211E-04
