 I_abs(s)[cm^-1]/c[mg/ml]
       0.00000          0.147595E-01
      0.500000E-02      0.147060E-01
      0.100000E-01      0.145464E-01
      0.150000E-01      0.142840E-01
      0.200000E-01      0.139240E-01
      0.250000E-01      0.134735E-01
      0.300000E-01      0.129413E-01
      0.350000E-01      0.123374E-01
      0.400000E-01      0.116732E-01
      0.450000E-01      0.109608E-01
      0.500000E-01      0.102125E-01
      0.550000E-01      0.944117E-02
      0.600000E-01      0.865912E-02
      0.650000E-01      0.787830E-02
      0.700000E-01      0.710984E-02
      0.750000E-01      0.636384E-02
      0.800000E-01      0.564917E-02
      0.850000E-01      0.497334E-02
      0.900000E-01      0.434239E-02
      0.950000E-01      0.376082E-02
      0.100000          0.323165E-02
      0.105000          0.275644E-02
      0.110000          0.233539E-02
      0.115000          0.196746E-02
      0.120000          0.165055E-02
      0.125000          0.138167E-02
      0.130000          0.115710E-02
      0.135000          0.972623E-03
      0.140000          0.823702E-03
      0.145000          0.705650E-03
      0.150000          0.613805E-03
      0.155000          0.543667E-03
      0.160000          0.491019E-03
      0.165000          0.452022E-03
      0.170000          0.423280E-03
      0.175000          0.401880E-03
      0.180000          0.385411E-03
      0.185000          0.371954E-03
      0.190000          0.360062E-03
      0.195000          0.348715E-03
      0.200000          0.337271E-03
      0.205000          0.325404E-03
      0.210000          0.313044E-03
      0.215000          0.300310E-03
      0.220000          0.287449E-03
      0.225000          0.274784E-03
      0.230000          0.262659E-03
      0.235000          0.251407E-03
      0.240000          0.241310E-03
      0.245000          0.232583E-03
      0.250000          0.225361E-03
      0.255000          0.219692E-03
      0.260000          0.215541E-03
      0.265000          0.212799E-03
      0.270000          0.211294E-03
      0.275000          0.210807E-03
      0.280000          0.211090E-03
      0.285000          0.211883E-03
      0.290000          0.212930E-03
      0.295000          0.213990E-03
      0.300000          0.214855E-03
      0.305000          0.215353E-03
      0.310000          0.215357E-03
      0.315000          0.214787E-03
      0.320000          0.213605E-03
      0.325000          0.211821E-03
      0.330000          0.209479E-03
      0.335000          0.206654E-03
      0.340000          0.203444E-03
      0.345000          0.199964E-03
      0.350000          0.196331E-03
      0.355000          0.192665E-03
      0.360000          0.189074E-03
      0.365000          0.185654E-03
      0.370000          0.182482E-03
      0.375000          0.179613E-03
      0.380000          0.177080E-03
      0.385000          0.174891E-03
      0.390000          0.173034E-03
      0.395000          0.171477E-03
      0.400000          0.170168E-03
      0.405000          0.169046E-03
      0.410000          0.168039E-03
      0.415000          0.167069E-03
      0.420000          0.166060E-03
      0.425000          0.164936E-03
      0.430000          0.163630E-03
      0.435000          0.162083E-03
      0.440000          0.160250E-03
      0.445000          0.158096E-03
      0.450000          0.155605E-03
      0.455000          0.152772E-03
      0.460000          0.149608E-03
      0.465000          0.146135E-03
      0.470000          0.142390E-03
      0.475000          0.138418E-03
      0.480000          0.134271E-03
      0.485000          0.130007E-03
      0.490000          0.125686E-03
      0.495000          0.121371E-03
      0.500000          0.117120E-03
