 I_abs(s)[cm^-1]/c[mg/ml]
       0.00000          0.147915E-01
      0.500000E-02      0.147356E-01
      0.100000E-01      0.145693E-01
      0.150000E-01      0.142965E-01
      0.200000E-01      0.139238E-01
      0.250000E-01      0.134598E-01
      0.300000E-01      0.129151E-01
      0.350000E-01      0.123017E-01
      0.400000E-01      0.116325E-01
      0.450000E-01      0.109209E-01
      0.500000E-01      0.101806E-01
      0.550000E-01      0.942464E-02
      0.600000E-01      0.866529E-02
      0.650000E-01      0.791381E-02
      0.700000E-01      0.718010E-02
      0.750000E-01      0.647257E-02
      0.800000E-01      0.579806E-02
      0.850000E-01      0.516184E-02
      0.900000E-01      0.456769E-02
      0.950000E-01      0.401799E-02
      0.100000          0.351391E-02
      0.105000          0.305557E-02
      0.110000          0.264224E-02
      0.115000          0.227252E-02
      0.120000          0.194451E-02
      0.125000          0.165597E-02
      0.130000          0.140443E-02
      0.135000          0.118731E-02
      0.140000          0.100196E-02
      0.145000          0.845738E-03
      0.150000          0.716012E-03
      0.155000          0.610195E-03
      0.160000          0.525743E-03
      0.165000          0.460162E-03
      0.170000          0.411015E-03
      0.175000          0.375928E-03
      0.180000          0.352611E-03
      0.185000          0.338871E-03
      0.190000          0.332639E-03
      0.195000          0.331997E-03
      0.200000          0.335203E-03
      0.205000          0.340715E-03
      0.210000          0.347209E-03
      0.215000          0.353589E-03
      0.220000          0.358994E-03
      0.225000          0.362791E-03
      0.230000          0.364558E-03
      0.235000          0.364071E-03
      0.240000          0.361270E-03
      0.245000          0.356234E-03
      0.250000          0.349146E-03
      0.255000          0.340264E-03
      0.260000          0.329890E-03
      0.265000          0.318343E-03
      0.270000          0.305942E-03
      0.275000          0.292985E-03
      0.280000          0.279741E-03
      0.285000          0.266442E-03
      0.290000          0.253282E-03
      0.295000          0.240415E-03
      0.300000          0.227962E-03
      0.305000          0.216016E-03
      0.310000          0.204641E-03
      0.315000          0.193884E-03
      0.320000          0.183776E-03
      0.325000          0.174334E-03
      0.330000          0.165570E-03
      0.335000          0.157484E-03
      0.340000          0.150070E-03
      0.345000          0.143318E-03
      0.350000          0.137209E-03
      0.355000          0.131719E-03
      0.360000          0.126819E-03
      0.365000          0.122472E-03
      0.370000          0.118639E-03
      0.375000          0.115276E-03
      0.380000          0.112339E-03
      0.385000          0.109780E-03
      0.390000          0.107554E-03
      0.395000          0.105619E-03
      0.400000          0.103932E-03
      0.405000          0.102460E-03
      0.410000          0.101168E-03
      0.415000          0.100032E-03
      0.420000          0.990286E-04
      0.425000          0.981412E-04
      0.430000          0.973565E-04
      0.435000          0.966653E-04
      0.440000          0.960610E-04
      0.445000          0.955394E-04
      0.450000          0.950976E-04
      0.455000          0.947336E-04
      0.460000          0.944455E-04
      0.465000          0.942311E-04
      0.470000          0.940872E-04
      0.475000          0.940090E-04
      0.480000          0.939907E-04
      0.485000          0.940241E-04
      0.490000          0.940997E-04
      0.495000          0.942061E-04
      0.500000          0.943304E-04
