 I_abs(s)[cm^-1]/c[mg/ml]
       0.00000          0.141899E-01
      0.500000E-02      0.141247E-01
      0.100000E-01      0.139312E-01
      0.150000E-01      0.136151E-01
      0.200000E-01      0.131857E-01
      0.250000E-01      0.126554E-01
      0.300000E-01      0.120392E-01
      0.350000E-01      0.113538E-01
      0.400000E-01      0.106171E-01
      0.450000E-01      0.984736E-02
      0.500000E-01      0.906225E-02
      0.550000E-01      0.827848E-02
      0.600000E-01      0.751109E-02
      0.650000E-01      0.677298E-02
      0.700000E-01      0.607463E-02
      0.750000E-01      0.542391E-02
      0.800000E-01      0.482609E-02
      0.850000E-01      0.428395E-02
      0.900000E-01      0.379800E-02
      0.950000E-01      0.336681E-02
      0.100000          0.298739E-02
      0.105000          0.265561E-02
      0.110000          0.236659E-02
      0.115000          0.211512E-02
      0.120000          0.189598E-02
      0.125000          0.170425E-02
      0.130000          0.153549E-02
      0.135000          0.138587E-02
      0.140000          0.125230E-02
      0.145000          0.113234E-02
      0.150000          0.102421E-02
      0.155000          0.926674E-03
      0.160000          0.838916E-03
      0.165000          0.760425E-03
      0.170000          0.690861E-03
      0.175000          0.629946E-03
      0.180000          0.577369E-03
      0.185000          0.532728E-03
      0.190000          0.495484E-03
      0.195000          0.464960E-03
      0.200000          0.440348E-03
      0.205000          0.420742E-03
      0.210000          0.405181E-03
      0.215000          0.392697E-03
      0.220000          0.382365E-03
      0.225000          0.373345E-03
      0.230000          0.364918E-03
      0.235000          0.356510E-03
      0.240000          0.347701E-03
      0.245000          0.338228E-03
      0.250000          0.327971E-03
      0.255000          0.316933E-03
      0.260000          0.305220E-03
      0.265000          0.293009E-03
      0.270000          0.280522E-03
      0.275000          0.267997E-03
      0.280000          0.255671E-03
      0.285000          0.243757E-03
      0.290000          0.232435E-03
      0.295000          0.221843E-03
      0.300000          0.212073E-03
      0.305000          0.203177E-03
      0.310000          0.195164E-03
      0.315000          0.188011E-03
      0.320000          0.181669E-03
      0.325000          0.176069E-03
      0.330000          0.171126E-03
      0.335000          0.166750E-03
      0.340000          0.162848E-03
      0.345000          0.159329E-03
      0.350000          0.156105E-03
      0.355000          0.153094E-03
      0.360000          0.150225E-03
      0.365000          0.147434E-03
      0.370000          0.144670E-03
      0.375000          0.141893E-03
      0.380000          0.139074E-03
      0.385000          0.136197E-03
      0.390000          0.133257E-03
      0.395000          0.130260E-03
      0.400000          0.127223E-03
      0.405000          0.124169E-03
      0.410000          0.121129E-03
      0.415000          0.118135E-03
      0.420000          0.115221E-03
      0.425000          0.112422E-03
      0.430000          0.109765E-03
      0.435000          0.107275E-03
      0.440000          0.104969E-03
      0.445000          0.102857E-03
      0.450000          0.100941E-03
      0.455000          0.992159E-04
      0.460000          0.976717E-04
      0.465000          0.962920E-04
      0.470000          0.950573E-04
      0.475000          0.939460E-04
      0.480000          0.929360E-04
      0.485000          0.920055E-04
      0.490000          0.911342E-04
      0.495000          0.903035E-04
      0.500000          0.894972E-04
