 I_abs(s)[cm^-1]/c[mg/ml]
       0.00000          0.149358E-01
      0.500000E-02      0.148861E-01
      0.100000E-01      0.147380E-01
      0.150000E-01      0.144943E-01
      0.200000E-01      0.141597E-01
      0.250000E-01      0.137403E-01
      0.300000E-01      0.132440E-01
      0.350000E-01      0.126797E-01
      0.400000E-01      0.120576E-01
      0.450000E-01      0.113882E-01
      0.500000E-01      0.106829E-01
      0.550000E-01      0.995287E-02
      0.600000E-01      0.920934E-02
      0.650000E-01      0.846309E-02
      0.700000E-01      0.772423E-02
      0.750000E-01      0.700203E-02
      0.800000E-01      0.630471E-02
      0.850000E-01      0.563932E-02
      0.900000E-01      0.501167E-02
      0.950000E-01      0.442624E-02
      0.100000          0.388622E-02
      0.105000          0.339353E-02
      0.110000          0.294889E-02
      0.115000          0.255195E-02
      0.120000          0.220137E-02
      0.125000          0.189504E-02
      0.130000          0.163016E-02
      0.135000          0.140344E-02
      0.140000          0.121127E-02
      0.145000          0.104986E-02
      0.150000          0.915366E-03
      0.155000          0.804028E-03
      0.160000          0.712270E-03
      0.165000          0.636783E-03
      0.170000          0.574581E-03
      0.175000          0.523042E-03
      0.180000          0.479928E-03
      0.185000          0.443380E-03
      0.190000          0.411910E-03
      0.195000          0.384363E-03
      0.200000          0.359888E-03
      0.205000          0.337888E-03
      0.210000          0.317976E-03
      0.215000          0.299922E-03
      0.220000          0.283613E-03
      0.225000          0.269007E-03
      0.230000          0.256099E-03
      0.235000          0.244889E-03
      0.240000          0.235362E-03
      0.245000          0.227470E-03
      0.250000          0.221125E-03
      0.255000          0.216196E-03
      0.260000          0.212513E-03
      0.265000          0.209872E-03
      0.270000          0.208043E-03
      0.275000          0.206788E-03
      0.280000          0.205866E-03
      0.285000          0.205047E-03
      0.290000          0.204124E-03
      0.295000          0.202921E-03
      0.300000          0.201296E-03
      0.305000          0.199150E-03
      0.310000          0.196426E-03
      0.315000          0.193106E-03
      0.320000          0.189210E-03
      0.325000          0.184791E-03
      0.330000          0.179930E-03
      0.335000          0.174724E-03
      0.340000          0.169287E-03
      0.345000          0.163735E-03
      0.350000          0.158183E-03
      0.355000          0.152740E-03
      0.360000          0.147500E-03
      0.365000          0.142544E-03
      0.370000          0.137935E-03
      0.375000          0.133714E-03
      0.380000          0.129905E-03
      0.385000          0.126513E-03
      0.390000          0.123527E-03
      0.395000          0.120921E-03
      0.400000          0.118658E-03
      0.405000          0.116694E-03
      0.410000          0.114978E-03
      0.415000          0.113460E-03
      0.420000          0.112087E-03
      0.425000          0.110811E-03
      0.430000          0.109588E-03
      0.435000          0.108381E-03
      0.440000          0.107160E-03
      0.445000          0.105901E-03
      0.450000          0.104589E-03
      0.455000          0.103217E-03
      0.460000          0.101783E-03
      0.465000          0.100291E-03
      0.470000          0.987528E-04
      0.475000          0.971809E-04
      0.480000          0.955924E-04
      0.485000          0.940065E-04
      0.490000          0.924431E-04
      0.495000          0.909222E-04
      0.500000          0.894635E-04
