 I_abs(s)[cm^-1]/c[mg/ml]
       0.00000          0.139171E-01
      0.500000E-02      0.137777E-01
      0.100000E-01      0.133701E-01
      0.150000E-01      0.127239E-01
      0.200000E-01      0.118847E-01
      0.250000E-01      0.109086E-01
      0.300000E-01      0.985582E-02
      0.350000E-01      0.878433E-02
      0.400000E-01      0.774473E-02
      0.450000E-01      0.677625E-02
      0.500000E-01      0.590483E-02
      0.550000E-01      0.514321E-02
      0.600000E-01      0.449251E-02
      0.650000E-01      0.394497E-02
      0.700000E-01      0.348722E-02
      0.750000E-01      0.310342E-02
      0.800000E-01      0.277788E-02
      0.850000E-01      0.249685E-02
      0.900000E-01      0.224944E-02
      0.950000E-01      0.202783E-02
      0.100000          0.182688E-02
      0.105000          0.164350E-02
      0.110000          0.147596E-02
      0.115000          0.132335E-02
      0.120000          0.118514E-02
      0.125000          0.106101E-02
      0.130000          0.950730E-03
      0.135000          0.854135E-03
      0.140000          0.771036E-03
      0.145000          0.701129E-03
      0.150000          0.643866E-03
      0.155000          0.598334E-03
      0.160000          0.563202E-03
      0.165000          0.536751E-03
      0.170000          0.517002E-03
      0.175000          0.501925E-03
      0.180000          0.489661E-03
      0.185000          0.478735E-03
      0.190000          0.468172E-03
      0.195000          0.457524E-03
      0.200000          0.446785E-03
      0.205000          0.436233E-03
      0.210000          0.426232E-03
      0.215000          0.417063E-03
      0.220000          0.408799E-03
      0.225000          0.401272E-03
      0.230000          0.394106E-03
      0.235000          0.386815E-03
      0.240000          0.378924E-03
      0.245000          0.370074E-03
      0.250000          0.360100E-03
      0.255000          0.349043E-03
      0.260000          0.337125E-03
      0.265000          0.324679E-03
      0.270000          0.312074E-03
      0.275000          0.299637E-03
      0.280000          0.287608E-03
      0.285000          0.276120E-03
      0.290000          0.265213E-03
      0.295000          0.254858E-03
      0.300000          0.244995E-03
      0.305000          0.235569E-03
      0.310000          0.226546E-03
      0.315000          0.217922E-03
      0.320000          0.209723E-03
      0.325000          0.201988E-03
      0.330000          0.194766E-03
      0.335000          0.188098E-03
      0.340000          0.182019E-03
      0.345000          0.176547E-03
      0.350000          0.171688E-03
      0.355000          0.167427E-03
      0.360000          0.163730E-03
      0.365000          0.160536E-03
      0.370000          0.157759E-03
      0.375000          0.155288E-03
      0.380000          0.152995E-03
      0.385000          0.150750E-03
      0.390000          0.148435E-03
      0.395000          0.145960E-03
      0.400000          0.143274E-03
      0.405000          0.140371E-03
      0.410000          0.137289E-03
      0.415000          0.134096E-03
      0.420000          0.130882E-03
      0.425000          0.127737E-03
      0.430000          0.124741E-03
      0.435000          0.121956E-03
      0.440000          0.119415E-03
      0.445000          0.117126E-03
      0.450000          0.115077E-03
      0.455000          0.113237E-03
      0.460000          0.111560E-03
      0.465000          0.109996E-03
      0.470000          0.108490E-03
      0.475000          0.106987E-03
      0.480000          0.105437E-03
      0.485000          0.103801E-03
      0.490000          0.102051E-03
      0.495000          0.100178E-03
      0.500000          0.981912E-04
