 I_abs(s)[cm^-1]/c[mg/ml]
       0.00000          0.145129E-01
      0.500000E-02      0.144532E-01
      0.100000E-01      0.142759E-01
      0.150000E-01      0.139857E-01
      0.200000E-01      0.135907E-01
      0.250000E-01      0.131014E-01
      0.300000E-01      0.125305E-01
      0.350000E-01      0.118924E-01
      0.400000E-01      0.112021E-01
      0.450000E-01      0.104755E-01
      0.500000E-01      0.972760E-02
      0.550000E-01      0.897305E-02
      0.600000E-01      0.822499E-02
      0.650000E-01      0.749498E-02
      0.700000E-01      0.679270E-02
      0.750000E-01      0.612580E-02
      0.800000E-01      0.549995E-02
      0.850000E-01      0.491887E-02
      0.900000E-01      0.438451E-02
      0.950000E-01      0.389732E-02
      0.100000          0.345644E-02
      0.105000          0.306004E-02
      0.110000          0.270557E-02
      0.115000          0.239001E-02
      0.120000          0.211012E-02
      0.125000          0.186259E-02
      0.130000          0.164419E-02
      0.135000          0.145187E-02
      0.140000          0.128282E-02
      0.145000          0.113450E-02
      0.150000          0.100462E-02
      0.155000          0.891161E-03
      0.160000          0.792320E-03
      0.165000          0.706488E-03
      0.170000          0.632226E-03
      0.175000          0.568231E-03
      0.180000          0.513319E-03
      0.185000          0.466407E-03
      0.190000          0.426500E-03
      0.195000          0.392684E-03
      0.200000          0.364120E-03
      0.205000          0.340043E-03
      0.210000          0.319756E-03
      0.215000          0.302628E-03
      0.220000          0.288094E-03
      0.225000          0.275647E-03
      0.230000          0.264844E-03
      0.235000          0.255296E-03
      0.240000          0.246669E-03
      0.245000          0.238686E-03
      0.250000          0.231119E-03
      0.255000          0.223794E-03
      0.260000          0.216586E-03
      0.265000          0.209416E-03
      0.270000          0.202248E-03
      0.275000          0.195080E-03
      0.280000          0.187943E-03
      0.285000          0.180885E-03
      0.290000          0.173968E-03
      0.295000          0.167259E-03
      0.300000          0.160818E-03
      0.305000          0.154697E-03
      0.310000          0.148933E-03
      0.315000          0.143548E-03
      0.320000          0.138547E-03
      0.325000          0.133922E-03
      0.330000          0.129657E-03
      0.335000          0.125734E-03
      0.340000          0.122132E-03
      0.345000          0.118840E-03
      0.350000          0.115854E-03
      0.355000          0.113183E-03
      0.360000          0.110841E-03
      0.365000          0.108854E-03
      0.370000          0.107246E-03
      0.375000          0.106041E-03
      0.380000          0.105253E-03
      0.385000          0.104882E-03
      0.390000          0.104909E-03
      0.395000          0.105295E-03
      0.400000          0.105980E-03
      0.405000          0.106884E-03
      0.410000          0.107915E-03
      0.415000          0.108971E-03
      0.420000          0.109949E-03
      0.425000          0.110754E-03
      0.430000          0.111305E-03
      0.435000          0.111542E-03
      0.440000          0.111431E-03
      0.445000          0.110966E-03
      0.450000          0.110169E-03
      0.455000          0.109088E-03
      0.460000          0.107792E-03
      0.465000          0.106365E-03
      0.470000          0.104899E-03
      0.475000          0.103484E-03
      0.480000          0.102205E-03
      0.485000          0.101131E-03
      0.490000          0.100312E-03
      0.495000          0.997769E-04
      0.500000          0.995290E-04
