 I_abs(s)[cm^-1]/c[mg/ml]
       0.00000          0.147755E-01
      0.500000E-02      0.147239E-01
      0.100000E-01      0.145702E-01
      0.150000E-01      0.143176E-01
      0.200000E-01      0.139712E-01
      0.250000E-01      0.135381E-01
      0.300000E-01      0.130268E-01
      0.350000E-01      0.124474E-01
      0.400000E-01      0.118108E-01
      0.450000E-01      0.111288E-01
      0.500000E-01      0.104134E-01
      0.550000E-01      0.967664E-02
      0.600000E-01      0.893035E-02
      0.650000E-01      0.818569E-02
      0.700000E-01      0.745295E-02
      0.750000E-01      0.674135E-02
      0.800000E-01      0.605886E-02
      0.850000E-01      0.541210E-02
      0.900000E-01      0.480623E-02
      0.950000E-01      0.424503E-02
      0.100000          0.373085E-02
      0.105000          0.326475E-02
      0.110000          0.284659E-02
      0.115000          0.247523E-02
      0.120000          0.214862E-02
      0.125000          0.186404E-02
      0.130000          0.161823E-02
      0.135000          0.140763E-02
      0.140000          0.122847E-02
      0.145000          0.107698E-02
      0.150000          0.949465E-03
      0.155000          0.842429E-03
      0.160000          0.752656E-03
      0.165000          0.677255E-03
      0.170000          0.613687E-03
      0.175000          0.559780E-03
      0.180000          0.513719E-03
      0.185000          0.474022E-03
      0.190000          0.439507E-03
      0.195000          0.409254E-03
      0.200000          0.382561E-03
      0.205000          0.358902E-03
      0.210000          0.337883E-03
      0.215000          0.319210E-03
      0.220000          0.302650E-03
      0.225000          0.288014E-03
      0.230000          0.275131E-03
      0.235000          0.263839E-03
      0.240000          0.253976E-03
      0.245000          0.245376E-03
      0.250000          0.237873E-03
      0.255000          0.231301E-03
      0.260000          0.225499E-03
      0.265000          0.220317E-03
      0.270000          0.215619E-03
      0.275000          0.211289E-03
      0.280000          0.207231E-03
      0.285000          0.203371E-03
      0.290000          0.199657E-03
      0.295000          0.196058E-03
      0.300000          0.192556E-03
      0.305000          0.189149E-03
      0.310000          0.185844E-03
      0.315000          0.182650E-03
      0.320000          0.179579E-03
      0.325000          0.176641E-03
      0.330000          0.173840E-03
      0.335000          0.171174E-03
      0.340000          0.168633E-03
      0.345000          0.166199E-03
      0.350000          0.163850E-03
      0.355000          0.161557E-03
      0.360000          0.159287E-03
      0.365000          0.157007E-03
      0.370000          0.154684E-03
      0.375000          0.152289E-03
      0.380000          0.149794E-03
      0.385000          0.147181E-03
      0.390000          0.144437E-03
      0.395000          0.141554E-03
      0.400000          0.138534E-03
      0.405000          0.135386E-03
      0.410000          0.132123E-03
      0.415000          0.128765E-03
      0.420000          0.125337E-03
      0.425000          0.121865E-03
      0.430000          0.118379E-03
      0.435000          0.114909E-03
      0.440000          0.111485E-03
      0.445000          0.108134E-03
      0.450000          0.104884E-03
      0.455000          0.101758E-03
      0.460000          0.987780E-04
      0.465000          0.959612E-04
      0.470000          0.933221E-04
      0.475000          0.908715E-04
      0.480000          0.886167E-04
      0.485000          0.865617E-04
      0.490000          0.847072E-04
      0.495000          0.830509E-04
      0.500000          0.815874E-04
