 I_abs(s)[cm^-1]/c[mg/ml]
       0.00000          0.149680E-01
      0.500000E-02      0.149126E-01
      0.100000E-01      0.147477E-01
      0.150000E-01      0.144766E-01
      0.200000E-01      0.141048E-01
      0.250000E-01      0.136398E-01
      0.300000E-01      0.130908E-01
      0.350000E-01      0.124684E-01
      0.400000E-01      0.117846E-01
      0.450000E-01      0.110518E-01
      0.500000E-01      0.102831E-01
      0.550000E-01      0.949166E-02
      0.600000E-01      0.869029E-02
      0.650000E-01      0.789125E-02
      0.700000E-01      0.710594E-02
      0.750000E-01      0.634460E-02
      0.800000E-01      0.561618E-02
      0.850000E-01      0.492817E-02
      0.900000E-01      0.428653E-02
      0.950000E-01      0.369563E-02
      0.100000          0.315830E-02
      0.105000          0.267592E-02
      0.110000          0.224848E-02
      0.115000          0.187477E-02
      0.120000          0.155253E-02
      0.125000          0.127866E-02
      0.130000          0.104942E-02
      0.135000          0.860567E-03
      0.140000          0.707638E-03
      0.145000          0.586055E-03
      0.150000          0.491302E-03
      0.155000          0.419060E-03
      0.160000          0.365302E-03
      0.165000          0.326376E-03
      0.170000          0.299057E-03
      0.175000          0.280566E-03
      0.180000          0.268580E-03
      0.185000          0.261211E-03
      0.190000          0.256975E-03
      0.195000          0.254751E-03
      0.200000          0.253725E-03
      0.205000          0.253338E-03
      0.210000          0.253235E-03
      0.215000          0.253206E-03
      0.220000          0.253143E-03
      0.225000          0.253002E-03
      0.230000          0.252767E-03
      0.235000          0.252428E-03
      0.240000          0.251969E-03
      0.245000          0.251351E-03
      0.250000          0.250521E-03
      0.255000          0.249405E-03
      0.260000          0.247923E-03
      0.265000          0.245992E-03
      0.270000          0.243539E-03
      0.275000          0.240507E-03
      0.280000          0.236869E-03
      0.285000          0.232625E-03
      0.290000          0.227811E-03
      0.295000          0.222498E-03
      0.300000          0.216788E-03
      0.305000          0.210807E-03
      0.310000          0.204704E-03
      0.315000          0.198635E-03
      0.320000          0.192758E-03
      0.325000          0.187224E-03
      0.330000          0.182164E-03
      0.335000          0.177687E-03
      0.340000          0.173869E-03
      0.345000          0.170752E-03
      0.350000          0.168343E-03
      0.355000          0.166610E-03
      0.360000          0.165489E-03
      0.365000          0.164885E-03
      0.370000          0.164679E-03
      0.375000          0.164737E-03
      0.380000          0.164915E-03
      0.385000          0.165066E-03
      0.390000          0.165051E-03
      0.395000          0.164743E-03
      0.400000          0.164036E-03
      0.405000          0.162846E-03
      0.410000          0.161117E-03
      0.415000          0.158824E-03
      0.420000          0.155968E-03
      0.425000          0.152582E-03
      0.430000          0.148720E-03
      0.435000          0.144460E-03
      0.440000          0.139897E-03
      0.445000          0.135138E-03
      0.450000          0.130293E-03
      0.455000          0.125476E-03
      0.460000          0.120794E-03
      0.465000          0.116345E-03
      0.470000          0.112214E-03
      0.475000          0.108466E-03
      0.480000          0.105151E-03
      0.485000          0.102298E-03
      0.490000          0.999134E-04
      0.495000          0.979874E-04
      0.500000          0.964916E-04
