 I_abs(s)[cm^-1]/c[mg/ml]
       0.00000          0.144180E-01
      0.500000E-02      0.143568E-01
      0.100000E-01      0.141749E-01
      0.150000E-01      0.138771E-01
      0.200000E-01      0.134710E-01
      0.250000E-01      0.129673E-01
      0.300000E-01      0.123784E-01
      0.350000E-01      0.117188E-01
      0.400000E-01      0.110041E-01
      0.450000E-01      0.102505E-01
      0.500000E-01      0.947403E-02
      0.550000E-01      0.869038E-02
      0.600000E-01      0.791409E-02
      0.650000E-01      0.715824E-02
      0.700000E-01      0.643408E-02
      0.750000E-01      0.575082E-02
      0.800000E-01      0.511546E-02
      0.850000E-01      0.453282E-02
      0.900000E-01      0.400555E-02
      0.950000E-01      0.353436E-02
      0.100000          0.311816E-02
      0.105000          0.275442E-02
      0.110000          0.243943E-02
      0.115000          0.216866E-02
      0.120000          0.193704E-02
      0.125000          0.173931E-02
      0.130000          0.157024E-02
      0.135000          0.142490E-02
      0.140000          0.129877E-02
      0.145000          0.118794E-02
      0.150000          0.108910E-02
      0.155000          0.999630E-03
      0.160000          0.917517E-03
      0.165000          0.841351E-03
      0.170000          0.770223E-03
      0.175000          0.703635E-03
      0.180000          0.641400E-03
      0.185000          0.583540E-03
      0.190000          0.530196E-03
      0.195000          0.481545E-03
      0.200000          0.437737E-03
      0.205000          0.398849E-03
      0.210000          0.364852E-03
      0.215000          0.335603E-03
      0.220000          0.310841E-03
      0.225000          0.290206E-03
      0.230000          0.273256E-03
      0.235000          0.259496E-03
      0.240000          0.248405E-03
      0.245000          0.239467E-03
      0.250000          0.232191E-03
      0.255000          0.226135E-03
      0.260000          0.220921E-03
      0.265000          0.216241E-03
      0.270000          0.211861E-03
      0.275000          0.207622E-03
      0.280000          0.203427E-03
      0.285000          0.199237E-03
      0.290000          0.195054E-03
      0.295000          0.190914E-03
      0.300000          0.186868E-03
      0.305000          0.182973E-03
      0.310000          0.179282E-03
      0.315000          0.175838E-03
      0.320000          0.172664E-03
      0.325000          0.169765E-03
      0.330000          0.167127E-03
      0.335000          0.164716E-03
      0.340000          0.162486E-03
      0.345000          0.160378E-03
      0.350000          0.158333E-03
      0.355000          0.156291E-03
      0.360000          0.154200E-03
      0.365000          0.152017E-03
      0.370000          0.149719E-03
      0.375000          0.147294E-03
      0.380000          0.144752E-03
      0.385000          0.142118E-03
      0.390000          0.139432E-03
      0.395000          0.136746E-03
      0.400000          0.134120E-03
      0.405000          0.131615E-03
      0.410000          0.129291E-03
      0.415000          0.127202E-03
      0.420000          0.125389E-03
      0.425000          0.123879E-03
      0.430000          0.122683E-03
      0.435000          0.121793E-03
      0.440000          0.121181E-03
      0.445000          0.120806E-03
      0.450000          0.120609E-03
      0.455000          0.120520E-03
      0.460000          0.120464E-03
      0.465000          0.120362E-03
      0.470000          0.120137E-03
      0.475000          0.119718E-03
      0.480000          0.119046E-03
      0.485000          0.118073E-03
      0.490000          0.116771E-03
      0.495000          0.115125E-03
      0.500000          0.113141E-03
