 I_abs(s)[cm^-1]/c[mg/ml]
       0.00000          0.141351E-01
      0.500000E-02      0.140637E-01
      0.100000E-01      0.138517E-01
      0.150000E-01      0.135064E-01
      0.200000E-01      0.130392E-01
      0.250000E-01      0.124651E-01
      0.300000E-01      0.118023E-01
      0.350000E-01      0.110705E-01
      0.400000E-01      0.102907E-01
      0.450000E-01      0.948371E-02
      0.500000E-01      0.866940E-02
      0.550000E-01      0.786581E-02
      0.600000E-01      0.708858E-02
      0.650000E-01      0.635045E-02
      0.700000E-01      0.566109E-02
      0.750000E-01      0.502701E-02
      0.800000E-01      0.445174E-02
      0.850000E-01      0.393611E-02
      0.900000E-01      0.347873E-02
      0.950000E-01      0.307640E-02
      0.100000          0.272470E-02
      0.105000          0.241844E-02
      0.110000          0.215217E-02
      0.115000          0.192048E-02
      0.120000          0.171837E-02
      0.125000          0.154136E-02
      0.130000          0.138566E-02
      0.135000          0.124813E-02
      0.140000          0.112627E-02
      0.145000          0.101810E-02
      0.150000          0.922063E-03
      0.155000          0.836886E-03
      0.160000          0.761490E-03
      0.165000          0.694893E-03
      0.170000          0.636150E-03
      0.175000          0.584328E-03
      0.180000          0.538503E-03
      0.185000          0.497778E-03
      0.190000          0.461320E-03
      0.195000          0.428391E-03
      0.200000          0.398383E-03
      0.205000          0.370841E-03
      0.210000          0.345473E-03
      0.215000          0.322140E-03
      0.220000          0.300836E-03
      0.225000          0.281652E-03
      0.230000          0.264736E-03
      0.235000          0.250247E-03
      0.240000          0.238311E-03
      0.245000          0.228991E-03
      0.250000          0.222252E-03
      0.255000          0.217959E-03
      0.260000          0.215867E-03
      0.265000          0.215640E-03
      0.270000          0.216865E-03
      0.275000          0.219082E-03
      0.280000          0.221814E-03
      0.285000          0.224598E-03
      0.290000          0.227008E-03
      0.295000          0.228682E-03
      0.300000          0.229332E-03
      0.305000          0.228759E-03
      0.310000          0.226846E-03
      0.315000          0.223564E-03
      0.320000          0.218954E-03
      0.325000          0.213124E-03
      0.330000          0.206230E-03
      0.335000          0.198464E-03
      0.340000          0.190043E-03
      0.345000          0.181195E-03
      0.350000          0.172153E-03
      0.355000          0.163141E-03
      0.360000          0.154369E-03
      0.365000          0.146029E-03
      0.370000          0.138287E-03
      0.375000          0.131278E-03
      0.380000          0.125105E-03
      0.385000          0.119831E-03
      0.390000          0.115486E-03
      0.395000          0.112057E-03
      0.400000          0.109496E-03
      0.405000          0.107723E-03
      0.410000          0.106627E-03
      0.415000          0.106080E-03
      0.420000          0.105940E-03
      0.425000          0.106061E-03
      0.430000          0.106305E-03
      0.435000          0.106547E-03
      0.440000          0.106683E-03
      0.445000          0.106639E-03
      0.450000          0.106367E-03
      0.455000          0.105850E-03
      0.460000          0.105099E-03
      0.465000          0.104145E-03
      0.470000          0.103040E-03
      0.475000          0.101841E-03
      0.480000          0.100610E-03
      0.485000          0.994052E-04
      0.490000          0.982718E-04
      0.495000          0.972427E-04
      0.500000          0.963339E-04
