 I_abs(s)[cm^-1]/c[mg/ml]
       0.00000          0.147915E-01
      0.500000E-02      0.147255E-01
      0.100000E-01      0.145293E-01
      0.150000E-01      0.142083E-01
      0.200000E-01      0.137712E-01
      0.250000E-01      0.132298E-01
      0.300000E-01      0.125982E-01
      0.350000E-01      0.118922E-01
      0.400000E-01      0.111290E-01
      0.450000E-01      0.103262E-01
      0.500000E-01      0.950111E-02
      0.550000E-01      0.867042E-02
      0.600000E-01      0.784940E-02
      0.650000E-01      0.705156E-02
      0.700000E-01      0.628835E-02
      0.750000E-01      0.556899E-02
      0.800000E-01      0.490034E-02
      0.850000E-01      0.428700E-02
      0.900000E-01      0.373143E-02
      0.950000E-01      0.323415E-02
      0.100000          0.279408E-02
      0.105000          0.240876E-02
      0.110000          0.207474E-02
      0.115000          0.178784E-02
      0.120000          0.154347E-02
      0.125000          0.133687E-02
      0.130000          0.116332E-02
      0.135000          0.101827E-02
      0.140000          0.897500E-03
      0.145000          0.797166E-03
      0.150000          0.713841E-03
      0.155000          0.644528E-03
      0.160000          0.586642E-03
      0.165000          0.537987E-03
      0.170000          0.496718E-03
      0.175000          0.461310E-03
      0.180000          0.430516E-03
      0.185000          0.403334E-03
      0.190000          0.378980E-03
      0.195000          0.356860E-03
      0.200000          0.336544E-03
      0.205000          0.317744E-03
      0.210000          0.300294E-03
      0.215000          0.284124E-03
      0.220000          0.269236E-03
      0.225000          0.255687E-03
      0.230000          0.243556E-03
      0.235000          0.232929E-03
      0.240000          0.223879E-03
      0.245000          0.216443E-03
      0.250000          0.210619E-03
      0.255000          0.206351E-03
      0.260000          0.203535E-03
      0.265000          0.202016E-03
      0.270000          0.201599E-03
      0.275000          0.202059E-03
      0.280000          0.203155E-03
      0.285000          0.204644E-03
      0.290000          0.206295E-03
      0.295000          0.207900E-03
      0.300000          0.209284E-03
      0.305000          0.210312E-03
      0.310000          0.210891E-03
      0.315000          0.210971E-03
      0.320000          0.210538E-03
      0.325000          0.209614E-03
      0.330000          0.208244E-03
      0.335000          0.206493E-03
      0.340000          0.204434E-03
      0.345000          0.202143E-03
      0.350000          0.199690E-03
      0.355000          0.197140E-03
      0.360000          0.194542E-03
      0.365000          0.191936E-03
      0.370000          0.189346E-03
      0.375000          0.186784E-03
      0.380000          0.184253E-03
      0.385000          0.181747E-03
      0.390000          0.179256E-03
      0.395000          0.176766E-03
      0.400000          0.174259E-03
      0.405000          0.171720E-03
      0.410000          0.169131E-03
      0.415000          0.166478E-03
      0.420000          0.163744E-03
      0.425000          0.160917E-03
      0.430000          0.157981E-03
      0.435000          0.154924E-03
      0.440000          0.151733E-03
      0.445000          0.148399E-03
      0.450000          0.144913E-03
      0.455000          0.141272E-03
      0.460000          0.137476E-03
      0.465000          0.133534E-03
      0.470000          0.129459E-03
      0.475000          0.125272E-03
      0.480000          0.121004E-03
      0.485000          0.116691E-03
      0.490000          0.112375E-03
      0.495000          0.108102E-03
      0.500000          0.103922E-03
