 I_abs(s)[cm^-1]/c[mg/ml]
       0.00000          0.147835E-01
      0.500000E-02      0.147261E-01
      0.100000E-01      0.145553E-01
      0.150000E-01      0.142752E-01
      0.200000E-01      0.138925E-01
      0.250000E-01      0.134162E-01
      0.300000E-01      0.128572E-01
      0.350000E-01      0.122279E-01
      0.400000E-01      0.115419E-01
      0.450000E-01      0.108132E-01
      0.500000E-01      0.100563E-01
      0.550000E-01      0.928479E-02
      0.600000E-01      0.851196E-02
      0.650000E-01      0.774976E-02
      0.700000E-01      0.700881E-02
      0.750000E-01      0.629811E-02
      0.800000E-01      0.562498E-02
      0.850000E-01      0.499496E-02
      0.900000E-01      0.441190E-02
      0.950000E-01      0.387801E-02
      0.100000          0.339409E-02
      0.105000          0.295962E-02
      0.110000          0.257306E-02
      0.115000          0.223204E-02
      0.120000          0.193355E-02
      0.125000          0.167421E-02
      0.130000          0.145041E-02
      0.135000          0.125849E-02
      0.140000          0.109484E-02
      0.145000          0.956016E-03
      0.150000          0.838824E-03
      0.155000          0.740321E-03
      0.160000          0.657860E-03
      0.165000          0.589080E-03
      0.170000          0.531896E-03
      0.175000          0.484480E-03
      0.180000          0.445234E-03
      0.185000          0.412766E-03
      0.190000          0.385868E-03
      0.195000          0.363490E-03
      0.200000          0.344728E-03
      0.205000          0.328809E-03
      0.210000          0.315076E-03
      0.215000          0.302983E-03
      0.220000          0.292086E-03
      0.225000          0.282031E-03
      0.230000          0.272554E-03
      0.235000          0.263464E-03
      0.240000          0.254638E-03
      0.245000          0.246007E-03
      0.250000          0.237549E-03
      0.255000          0.229274E-03
      0.260000          0.221216E-03
      0.265000          0.213421E-03
      0.270000          0.205941E-03
      0.275000          0.198829E-03
      0.280000          0.192129E-03
      0.285000          0.185879E-03
      0.290000          0.180107E-03
      0.295000          0.174833E-03
      0.300000          0.170067E-03
      0.305000          0.165813E-03
      0.310000          0.162069E-03
      0.315000          0.158831E-03
      0.320000          0.156090E-03
      0.325000          0.153835E-03
      0.330000          0.152054E-03
      0.335000          0.150727E-03
      0.340000          0.149836E-03
      0.345000          0.149351E-03
      0.350000          0.149239E-03
      0.355000          0.149459E-03
      0.360000          0.149961E-03
      0.365000          0.150690E-03
      0.370000          0.151582E-03
      0.375000          0.152568E-03
      0.380000          0.153579E-03
      0.385000          0.154541E-03
      0.390000          0.155385E-03
      0.395000          0.156045E-03
      0.400000          0.156462E-03
      0.405000          0.156587E-03
      0.410000          0.156381E-03
      0.415000          0.155815E-03
      0.420000          0.154876E-03
      0.425000          0.153559E-03
      0.430000          0.151873E-03
      0.435000          0.149836E-03
      0.440000          0.147477E-03
      0.445000          0.144831E-03
      0.450000          0.141936E-03
      0.455000          0.138838E-03
      0.460000          0.135581E-03
      0.465000          0.132211E-03
      0.470000          0.128773E-03
      0.475000          0.125306E-03
      0.480000          0.121851E-03
      0.485000          0.118440E-03
      0.490000          0.115102E-03
      0.495000          0.111863E-03
      0.500000          0.108742E-03
