 I_abs(s)[cm^-1]/c[mg/ml]
       0.00000          0.147625E-01
      0.500000E-02      0.147256E-01
      0.100000E-01      0.146154E-01
      0.150000E-01      0.144336E-01
      0.200000E-01      0.141826E-01
      0.250000E-01      0.138660E-01
      0.300000E-01      0.134882E-01
      0.350000E-01      0.130544E-01
      0.400000E-01      0.125705E-01
      0.450000E-01      0.120428E-01
      0.500000E-01      0.114781E-01
      0.550000E-01      0.108836E-01
      0.600000E-01      0.102663E-01
      0.650000E-01      0.963350E-02
      0.700000E-01      0.899226E-02
      0.750000E-01      0.834933E-02
      0.800000E-01      0.771114E-02
      0.850000E-01      0.708363E-02
      0.900000E-01      0.647218E-02
      0.950000E-01      0.588155E-02
      0.100000          0.531586E-02
      0.105000          0.477850E-02
      0.110000          0.427218E-02
      0.115000          0.379892E-02
      0.120000          0.336003E-02
      0.125000          0.295622E-02
      0.130000          0.258757E-02
      0.135000          0.225366E-02
      0.140000          0.195358E-02
      0.145000          0.168601E-02
      0.150000          0.144931E-02
      0.155000          0.124160E-02
      0.160000          0.106077E-02
      0.165000          0.904642E-03
      0.170000          0.770930E-03
      0.175000          0.657371E-03
      0.180000          0.561737E-03
      0.185000          0.481885E-03
      0.190000          0.415789E-03
      0.195000          0.361563E-03
      0.200000          0.317479E-03
      0.205000          0.281976E-03
      0.210000          0.253662E-03
      0.215000          0.231316E-03
      0.220000          0.213879E-03
      0.225000          0.200443E-03
      0.230000          0.190238E-03
      0.235000          0.182622E-03
      0.240000          0.177060E-03
      0.245000          0.173111E-03
      0.250000          0.170415E-03
      0.255000          0.168675E-03
      0.260000          0.167648E-03
      0.265000          0.167134E-03
      0.270000          0.166965E-03
      0.275000          0.167001E-03
      0.280000          0.167119E-03
      0.285000          0.167217E-03
      0.290000          0.167203E-03
      0.295000          0.167001E-03
      0.300000          0.166545E-03
      0.305000          0.165782E-03
      0.310000          0.164670E-03
      0.315000          0.163180E-03
      0.320000          0.161298E-03
      0.325000          0.159019E-03
      0.330000          0.156353E-03
      0.335000          0.153323E-03
      0.340000          0.149960E-03
      0.345000          0.146307E-03
      0.350000          0.142413E-03
      0.355000          0.138334E-03
      0.360000          0.134130E-03
      0.365000          0.129859E-03
      0.370000          0.125582E-03
      0.375000          0.121354E-03
      0.380000          0.117226E-03
      0.385000          0.113244E-03
      0.390000          0.109445E-03
      0.395000          0.105856E-03
      0.400000          0.102499E-03
      0.405000          0.993835E-04
      0.410000          0.965123E-04
      0.415000          0.938801E-04
      0.420000          0.914748E-04
      0.425000          0.892786E-04
      0.430000          0.872694E-04
      0.435000          0.854224E-04
      0.440000          0.837114E-04
      0.445000          0.821101E-04
      0.450000          0.805937E-04
      0.455000          0.791396E-04
      0.460000          0.777289E-04
      0.465000          0.763465E-04
      0.470000          0.749819E-04
      0.475000          0.736296E-04
      0.480000          0.722885E-04
      0.485000          0.709625E-04
      0.490000          0.696592E-04
      0.495000          0.683900E-04
      0.500000          0.671689E-04
