 I_abs(s)[cm^-1]/c[mg/ml]
       0.00000          0.145873E-01
      0.500000E-02      0.145490E-01
      0.100000E-01      0.144350E-01
      0.150000E-01      0.142468E-01
      0.200000E-01      0.139873E-01
      0.250000E-01      0.136606E-01
      0.300000E-01      0.132714E-01
      0.350000E-01      0.128255E-01
      0.400000E-01      0.123293E-01
      0.450000E-01      0.117898E-01
      0.500000E-01      0.112143E-01
      0.550000E-01      0.106105E-01
      0.600000E-01      0.998607E-02
      0.650000E-01      0.934863E-02
      0.700000E-01      0.870557E-02
      0.750000E-01      0.806392E-02
      0.800000E-01      0.743021E-02
      0.850000E-01      0.681042E-02
      0.900000E-01      0.620982E-02
      0.950000E-01      0.563301E-02
      0.100000          0.508378E-02
      0.105000          0.456518E-02
      0.110000          0.407947E-02
      0.115000          0.362818E-02
      0.120000          0.321213E-02
      0.125000          0.283148E-02
      0.130000          0.248581E-02
      0.135000          0.217420E-02
      0.140000          0.189529E-02
      0.145000          0.164738E-02
      0.150000          0.142850E-02
      0.155000          0.123649E-02
      0.160000          0.106909E-02
      0.165000          0.923976E-03
      0.170000          0.798861E-03
      0.175000          0.691509E-03
      0.180000          0.599793E-03
      0.185000          0.521726E-03
      0.190000          0.455481E-03
      0.195000          0.399405E-03
      0.200000          0.352028E-03
      0.205000          0.312058E-03
      0.210000          0.278377E-03
      0.215000          0.250030E-03
      0.220000          0.226210E-03
      0.225000          0.206243E-03
      0.230000          0.189566E-03
      0.235000          0.175716E-03
      0.240000          0.164306E-03
      0.245000          0.155016E-03
      0.250000          0.147573E-03
      0.255000          0.141739E-03
      0.260000          0.137306E-03
      0.265000          0.134084E-03
      0.270000          0.131895E-03
      0.275000          0.130573E-03
      0.280000          0.129959E-03
      0.285000          0.129899E-03
      0.290000          0.130249E-03
      0.295000          0.130872E-03
      0.300000          0.131643E-03
      0.305000          0.132447E-03
      0.310000          0.133184E-03
      0.315000          0.133769E-03
      0.320000          0.134135E-03
      0.325000          0.134229E-03
      0.330000          0.134016E-03
      0.335000          0.133480E-03
      0.340000          0.132617E-03
      0.345000          0.131438E-03
      0.350000          0.129967E-03
      0.355000          0.128237E-03
      0.360000          0.126287E-03
      0.365000          0.124164E-03
      0.370000          0.121916E-03
      0.375000          0.119591E-03
      0.380000          0.117236E-03
      0.385000          0.114895E-03
      0.390000          0.112608E-03
      0.395000          0.110406E-03
      0.400000          0.108317E-03
      0.405000          0.106360E-03
      0.410000          0.104547E-03
      0.415000          0.102884E-03
      0.420000          0.101371E-03
      0.425000          0.999997E-04
      0.430000          0.987600E-04
      0.435000          0.976364E-04
      0.440000          0.966107E-04
      0.445000          0.956629E-04
      0.450000          0.947720E-04
      0.455000          0.939172E-04
      0.460000          0.930784E-04
      0.465000          0.922371E-04
      0.470000          0.913767E-04
      0.475000          0.904833E-04
      0.480000          0.895457E-04
      0.485000          0.885554E-04
      0.490000          0.875069E-04
      0.495000          0.863976E-04
      0.500000          0.852273E-04
