 I_abs(s)[cm^-1]/c[mg/ml]
       0.00000          0.146190E-01
      0.500000E-02      0.145823E-01
      0.100000E-01      0.144724E-01
      0.150000E-01      0.142910E-01
      0.200000E-01      0.140408E-01
      0.250000E-01      0.137251E-01
      0.300000E-01      0.133484E-01
      0.350000E-01      0.129159E-01
      0.400000E-01      0.124334E-01
      0.450000E-01      0.119073E-01
      0.500000E-01      0.113443E-01
      0.550000E-01      0.107517E-01
      0.600000E-01      0.101365E-01
      0.650000E-01      0.950596E-02
      0.700000E-01      0.886722E-02
      0.750000E-01      0.822706E-02
      0.800000E-01      0.759193E-02
      0.850000E-01      0.696782E-02
      0.900000E-01      0.636015E-02
      0.950000E-01      0.577374E-02
      0.100000          0.521271E-02
      0.105000          0.468053E-02
      0.110000          0.417990E-02
      0.115000          0.371285E-02
      0.120000          0.328070E-02
      0.125000          0.288413E-02
      0.130000          0.252319E-02
      0.135000          0.219740E-02
      0.140000          0.190577E-02
      0.145000          0.164691E-02
      0.150000          0.141908E-02
      0.155000          0.122024E-02
      0.160000          0.104821E-02
      0.165000          0.900621E-03
      0.170000          0.775088E-03
      0.175000          0.669202E-03
      0.180000          0.580606E-03
      0.185000          0.507040E-03
      0.190000          0.446373E-03
      0.195000          0.396632E-03
      0.200000          0.356024E-03
      0.205000          0.322944E-03
      0.210000          0.295985E-03
      0.215000          0.273932E-03
      0.220000          0.255758E-03
      0.225000          0.240614E-03
      0.230000          0.227810E-03
      0.235000          0.216802E-03
      0.240000          0.207172E-03
      0.245000          0.198610E-03
      0.250000          0.190891E-03
      0.255000          0.183863E-03
      0.260000          0.177425E-03
      0.265000          0.171515E-03
      0.270000          0.166096E-03
      0.275000          0.161145E-03
      0.280000          0.156645E-03
      0.285000          0.152578E-03
      0.290000          0.148921E-03
      0.295000          0.145647E-03
      0.300000          0.142716E-03
      0.305000          0.140083E-03
      0.310000          0.137697E-03
      0.315000          0.135502E-03
      0.320000          0.133440E-03
      0.325000          0.131454E-03
      0.330000          0.129492E-03
      0.335000          0.127505E-03
      0.340000          0.125455E-03
      0.345000          0.123310E-03
      0.350000          0.121050E-03
      0.355000          0.118666E-03
      0.360000          0.116159E-03
      0.365000          0.113537E-03
      0.370000          0.110822E-03
      0.375000          0.108038E-03
      0.380000          0.105217E-03
      0.385000          0.102395E-03
      0.390000          0.996107E-04
      0.395000          0.969007E-04
      0.400000          0.943020E-04
      0.405000          0.918480E-04
      0.410000          0.895685E-04
      0.415000          0.874876E-04
      0.420000          0.856242E-04
      0.425000          0.839907E-04
      0.430000          0.825935E-04
      0.435000          0.814328E-04
      0.440000          0.805031E-04
      0.445000          0.797940E-04
      0.450000          0.792905E-04
      0.455000          0.789743E-04
      0.460000          0.788243E-04
      0.465000          0.788179E-04
      0.470000          0.789315E-04
      0.475000          0.791416E-04
      0.480000          0.794253E-04
      0.485000          0.797613E-04
      0.490000          0.801301E-04
      0.495000          0.805143E-04
      0.500000          0.808993E-04
