 I_abs(s)[cm^-1]/c[mg/ml]
       0.00000          0.144525E-01
      0.500000E-02      0.144174E-01
      0.100000E-01      0.143124E-01
      0.150000E-01      0.141390E-01
      0.200000E-01      0.138996E-01
      0.250000E-01      0.135976E-01
      0.300000E-01      0.132370E-01
      0.350000E-01      0.128227E-01
      0.400000E-01      0.123602E-01
      0.450000E-01      0.118553E-01
      0.500000E-01      0.113146E-01
      0.550000E-01      0.107445E-01
      0.600000E-01      0.101520E-01
      0.650000E-01      0.954374E-02
      0.700000E-01      0.892641E-02
      0.750000E-01      0.830643E-02
      0.800000E-01      0.768991E-02
      0.850000E-01      0.708252E-02
      0.900000E-01      0.648941E-02
      0.950000E-01      0.591519E-02
      0.100000          0.536385E-02
      0.105000          0.483873E-02
      0.110000          0.434253E-02
      0.115000          0.387728E-02
      0.120000          0.344441E-02
      0.125000          0.304472E-02
      0.130000          0.267844E-02
      0.135000          0.234532E-02
      0.140000          0.204463E-02
      0.145000          0.177526E-02
      0.150000          0.153577E-02
      0.155000          0.132446E-02
      0.160000          0.113944E-02
      0.165000          0.978681E-03
      0.170000          0.840076E-03
      0.175000          0.721504E-03
      0.180000          0.620862E-03
      0.185000          0.536112E-03
      0.190000          0.465311E-03
      0.195000          0.406636E-03
      0.200000          0.358403E-03
      0.205000          0.319078E-03
      0.210000          0.287282E-03
      0.215000          0.261793E-03
      0.220000          0.241539E-03
      0.225000          0.225595E-03
      0.230000          0.213167E-03
      0.235000          0.203585E-03
      0.240000          0.196285E-03
      0.245000          0.190799E-03
      0.250000          0.186739E-03
      0.255000          0.183784E-03
      0.260000          0.181670E-03
      0.265000          0.180178E-03
      0.270000          0.179126E-03
      0.275000          0.178360E-03
      0.280000          0.177751E-03
      0.285000          0.177185E-03
      0.290000          0.176568E-03
      0.295000          0.175817E-03
      0.300000          0.174862E-03
      0.305000          0.173644E-03
      0.310000          0.172117E-03
      0.315000          0.170246E-03
      0.320000          0.168008E-03
      0.325000          0.165393E-03
      0.330000          0.162401E-03
      0.335000          0.159046E-03
      0.340000          0.155351E-03
      0.345000          0.151348E-03
      0.350000          0.147080E-03
      0.355000          0.142595E-03
      0.360000          0.137945E-03
      0.365000          0.133187E-03
      0.370000          0.128377E-03
      0.375000          0.123573E-03
      0.380000          0.118826E-03
      0.385000          0.114186E-03
      0.390000          0.109697E-03
      0.395000          0.105395E-03
      0.400000          0.101310E-03
      0.405000          0.974640E-04
      0.410000          0.938702E-04
      0.415000          0.905351E-04
      0.420000          0.874579E-04
      0.425000          0.846314E-04
      0.430000          0.820429E-04
      0.435000          0.796754E-04
      0.440000          0.775088E-04
      0.445000          0.755205E-04
      0.450000          0.736873E-04
      0.455000          0.719860E-04
      0.460000          0.703946E-04
      0.465000          0.688930E-04
      0.470000          0.674637E-04
      0.475000          0.660926E-04
      0.480000          0.647689E-04
      0.485000          0.634858E-04
      0.490000          0.622399E-04
      0.495000          0.610316E-04
      0.500000          0.598644E-04
