 I_abs(s)[cm^-1]/c[mg/ml]
       0.00000          0.144921E-01
      0.500000E-02      0.144567E-01
      0.100000E-01      0.143509E-01
      0.150000E-01      0.141762E-01
      0.200000E-01      0.139350E-01
      0.250000E-01      0.136306E-01
      0.300000E-01      0.132668E-01
      0.350000E-01      0.128487E-01
      0.400000E-01      0.123815E-01
      0.450000E-01      0.118712E-01
      0.500000E-01      0.113242E-01
      0.550000E-01      0.107471E-01
      0.600000E-01      0.101466E-01
      0.650000E-01      0.952954E-02
      0.700000E-01      0.890267E-02
      0.750000E-01      0.827249E-02
      0.800000E-01      0.764522E-02
      0.850000E-01      0.702666E-02
      0.900000E-01      0.642214E-02
      0.950000E-01      0.583646E-02
      0.100000          0.527381E-02
      0.105000          0.473775E-02
      0.110000          0.423120E-02
      0.115000          0.375641E-02
      0.120000          0.331501E-02
      0.125000          0.290800E-02
      0.130000          0.253579E-02
      0.135000          0.219825E-02
      0.140000          0.189478E-02
      0.145000          0.162433E-02
      0.150000          0.138551E-02
      0.155000          0.117660E-02
      0.160000          0.995656E-03
      0.165000          0.840570E-03
      0.170000          0.709113E-03
      0.175000          0.599002E-03
      0.180000          0.507949E-03
      0.185000          0.433706E-03
      0.190000          0.374105E-03
      0.195000          0.327090E-03
      0.200000          0.290736E-03
      0.205000          0.263277E-03
      0.210000          0.243108E-03
      0.215000          0.228800E-03
      0.220000          0.219094E-03
      0.225000          0.212901E-03
      0.230000          0.209295E-03
      0.235000          0.207502E-03
      0.240000          0.206886E-03
      0.245000          0.206939E-03
      0.250000          0.207265E-03
      0.255000          0.207562E-03
      0.260000          0.207612E-03
      0.265000          0.207267E-03
      0.270000          0.206432E-03
      0.275000          0.205057E-03
      0.280000          0.203126E-03
      0.285000          0.200650E-03
      0.290000          0.197655E-03
      0.295000          0.194182E-03
      0.300000          0.190277E-03
      0.305000          0.185991E-03
      0.310000          0.181378E-03
      0.315000          0.176488E-03
      0.320000          0.171374E-03
      0.325000          0.166083E-03
      0.330000          0.160663E-03
      0.335000          0.155159E-03
      0.340000          0.149611E-03
      0.345000          0.144061E-03
      0.350000          0.138547E-03
      0.355000          0.133106E-03
      0.360000          0.127772E-03
      0.365000          0.122577E-03
      0.370000          0.117552E-03
      0.375000          0.112724E-03
      0.380000          0.108117E-03
      0.385000          0.103753E-03
      0.390000          0.996487E-04
      0.395000          0.958183E-04
      0.400000          0.922710E-04
      0.405000          0.890122E-04
      0.410000          0.860427E-04
      0.415000          0.833597E-04
      0.420000          0.809560E-04
      0.425000          0.788210E-04
      0.430000          0.769410E-04
      0.435000          0.752994E-04
      0.440000          0.738775E-04
      0.445000          0.726549E-04
      0.450000          0.716105E-04
      0.455000          0.707226E-04
      0.460000          0.699696E-04
      0.465000          0.693308E-04
      0.470000          0.687868E-04
      0.475000          0.683196E-04
      0.480000          0.679133E-04
      0.485000          0.675542E-04
      0.490000          0.672310E-04
      0.495000          0.669350E-04
      0.500000          0.666597E-04
