 I_abs(s)[cm^-1]/c[mg/ml]
       0.00000          0.146429E-01
      0.500000E-02      0.146076E-01
      0.100000E-01      0.145022E-01
      0.150000E-01      0.143280E-01
      0.200000E-01      0.140874E-01
      0.250000E-01      0.137836E-01
      0.300000E-01      0.134204E-01
      0.350000E-01      0.130025E-01
      0.400000E-01      0.125353E-01
      0.450000E-01      0.120246E-01
      0.500000E-01      0.114765E-01
      0.550000E-01      0.108976E-01
      0.600000E-01      0.102945E-01
      0.650000E-01      0.967400E-02
      0.700000E-01      0.904277E-02
      0.750000E-01      0.840729E-02
      0.800000E-01      0.777379E-02
      0.850000E-01      0.714813E-02
      0.900000E-01      0.653571E-02
      0.950000E-01      0.594141E-02
      0.100000          0.536956E-02
      0.105000          0.482386E-02
      0.110000          0.430736E-02
      0.115000          0.382251E-02
      0.120000          0.337108E-02
      0.125000          0.295422E-02
      0.130000          0.257252E-02
      0.135000          0.222596E-02
      0.140000          0.191407E-02
      0.145000          0.163590E-02
      0.150000          0.139010E-02
      0.155000          0.117501E-02
      0.160000          0.988709E-03
      0.165000          0.829064E-03
      0.170000          0.693814E-03
      0.175000          0.580618E-03
      0.180000          0.487115E-03
      0.185000          0.410969E-03
      0.190000          0.349913E-03
      0.195000          0.301786E-03
      0.200000          0.264565E-03
      0.205000          0.236381E-03
      0.210000          0.215543E-03
      0.215000          0.200540E-03
      0.220000          0.190050E-03
      0.225000          0.182936E-03
      0.230000          0.178241E-03
      0.235000          0.175177E-03
      0.240000          0.173113E-03
      0.245000          0.171560E-03
      0.250000          0.170156E-03
      0.255000          0.168644E-03
      0.260000          0.166862E-03
      0.265000          0.164721E-03
      0.270000          0.162188E-03
      0.275000          0.159277E-03
      0.280000          0.156033E-03
      0.285000          0.152518E-03
      0.290000          0.148807E-03
      0.295000          0.144974E-03
      0.300000          0.141091E-03
      0.305000          0.137224E-03
      0.310000          0.133426E-03
      0.315000          0.129738E-03
      0.320000          0.126190E-03
      0.325000          0.122799E-03
      0.330000          0.119571E-03
      0.335000          0.116504E-03
      0.340000          0.113589E-03
      0.345000          0.110813E-03
      0.350000          0.108158E-03
      0.355000          0.105606E-03
      0.360000          0.103142E-03
      0.365000          0.100750E-03
      0.370000          0.984188E-04
      0.375000          0.961417E-04
      0.380000          0.939156E-04
      0.385000          0.917421E-04
      0.390000          0.896270E-04
      0.395000          0.875797E-04
      0.400000          0.856131E-04
      0.405000          0.837422E-04
      0.410000          0.819835E-04
      0.415000          0.803542E-04
      0.420000          0.788710E-04
      0.425000          0.775499E-04
      0.430000          0.764047E-04
      0.435000          0.754468E-04
      0.440000          0.746845E-04
      0.445000          0.741228E-04
      0.450000          0.737630E-04
      0.455000          0.736026E-04
      0.460000          0.736353E-04
      0.465000          0.738513E-04
      0.470000          0.742373E-04
      0.475000          0.747772E-04
      0.480000          0.754521E-04
      0.485000          0.762410E-04
      0.490000          0.771215E-04
      0.495000          0.780700E-04
      0.500000          0.790624E-04
