 I_abs(s)[cm^-1]/c[mg/ml]
       0.00000          0.146190E-01
      0.500000E-02      0.145815E-01
      0.100000E-01      0.144696E-01
      0.150000E-01      0.142849E-01
      0.200000E-01      0.140302E-01
      0.250000E-01      0.137095E-01
      0.300000E-01      0.133273E-01
      0.350000E-01      0.128894E-01
      0.400000E-01      0.124018E-01
      0.450000E-01      0.118715E-01
      0.500000E-01      0.113055E-01
      0.550000E-01      0.107112E-01
      0.600000E-01      0.100962E-01
      0.650000E-01      0.946764E-02
      0.700000E-01      0.883280E-02
      0.750000E-01      0.819843E-02
      0.800000E-01      0.757083E-02
      0.850000E-01      0.695575E-02
      0.900000E-01      0.635830E-02
      0.950000E-01      0.578290E-02
      0.100000          0.523326E-02
      0.105000          0.471235E-02
      0.110000          0.422242E-02
      0.115000          0.376504E-02
      0.120000          0.334110E-02
      0.125000          0.295092E-02
      0.130000          0.259427E-02
      0.135000          0.227044E-02
      0.140000          0.197834E-02
      0.145000          0.171657E-02
      0.150000          0.148346E-02
      0.155000          0.127718E-02
      0.160000          0.109579E-02
      0.165000          0.937268E-03
      0.170000          0.799620E-03
      0.175000          0.680866E-03
      0.180000          0.579101E-03
      0.185000          0.492514E-03
      0.190000          0.419405E-03
      0.195000          0.358197E-03
      0.200000          0.307445E-03
      0.205000          0.265827E-03
      0.210000          0.232151E-03
      0.215000          0.205340E-03
      0.220000          0.184431E-03
      0.225000          0.168559E-03
      0.230000          0.156953E-03
      0.235000          0.148921E-03
      0.240000          0.143846E-03
      0.245000          0.141178E-03
      0.250000          0.140423E-03
      0.255000          0.141142E-03
      0.260000          0.142946E-03
      0.265000          0.145489E-03
      0.270000          0.148471E-03
      0.275000          0.151632E-03
      0.280000          0.154750E-03
      0.285000          0.157642E-03
      0.290000          0.160163E-03
      0.295000          0.162198E-03
      0.300000          0.163669E-03
      0.305000          0.164524E-03
      0.310000          0.164742E-03
      0.315000          0.164323E-03
      0.320000          0.163289E-03
      0.325000          0.161679E-03
      0.330000          0.159548E-03
      0.335000          0.156957E-03
      0.340000          0.153977E-03
      0.345000          0.150680E-03
      0.350000          0.147142E-03
      0.355000          0.143432E-03
      0.360000          0.139619E-03
      0.365000          0.135764E-03
      0.370000          0.131921E-03
      0.375000          0.128135E-03
      0.380000          0.124444E-03
      0.385000          0.120877E-03
      0.390000          0.117453E-03
      0.395000          0.114185E-03
      0.400000          0.111077E-03
      0.405000          0.108129E-03
      0.410000          0.105333E-03
      0.415000          0.102679E-03
      0.420000          0.100153E-03
      0.425000          0.977393E-04
      0.430000          0.954213E-04
      0.435000          0.931823E-04
      0.440000          0.910065E-04
      0.445000          0.888798E-04
      0.450000          0.867906E-04
      0.455000          0.847300E-04
      0.460000          0.826920E-04
      0.465000          0.806745E-04
      0.470000          0.786782E-04
      0.475000          0.767078E-04
      0.480000          0.747705E-04
      0.485000          0.728769E-04
      0.490000          0.710395E-04
      0.495000          0.692730E-04
      0.500000          0.675932E-04
