 I_abs(s)[cm^-1]/c[mg/ml]
       0.00000          0.145952E-01
      0.500000E-02      0.145546E-01
      0.100000E-01      0.144334E-01
      0.150000E-01      0.142335E-01
      0.200000E-01      0.139582E-01
      0.250000E-01      0.136119E-01
      0.300000E-01      0.132000E-01
      0.350000E-01      0.127288E-01
      0.400000E-01      0.122056E-01
      0.450000E-01      0.116380E-01
      0.500000E-01      0.110343E-01
      0.550000E-01      0.104029E-01
      0.600000E-01      0.975227E-02
      0.650000E-01      0.909079E-02
      0.700000E-01      0.842651E-02
      0.750000E-01      0.776708E-02
      0.800000E-01      0.711952E-02
      0.850000E-01      0.649019E-02
      0.900000E-01      0.588465E-02
      0.950000E-01      0.530761E-02
      0.100000          0.476288E-02
      0.105000          0.425339E-02
      0.110000          0.378116E-02
      0.115000          0.334736E-02
      0.120000          0.295236E-02
      0.125000          0.259580E-02
      0.130000          0.227667E-02
      0.135000          0.199339E-02
      0.140000          0.174396E-02
      0.145000          0.152600E-02
      0.150000          0.133689E-02
      0.155000          0.117386E-02
      0.160000          0.103408E-02
      0.165000          0.914741E-03
      0.170000          0.813120E-03
      0.175000          0.726648E-03
      0.180000          0.652954E-03
      0.185000          0.589895E-03
      0.190000          0.535581E-03
      0.195000          0.488382E-03
      0.200000          0.446926E-03
      0.205000          0.410094E-03
      0.210000          0.376998E-03
      0.215000          0.346958E-03
      0.220000          0.319477E-03
      0.225000          0.294210E-03
      0.230000          0.270934E-03
      0.235000          0.249519E-03
      0.240000          0.229898E-03
      0.245000          0.212046E-03
      0.250000          0.195954E-03
      0.255000          0.181614E-03
      0.260000          0.169007E-03
      0.265000          0.158091E-03
      0.270000          0.148797E-03
      0.275000          0.141026E-03
      0.280000          0.134655E-03
      0.285000          0.129533E-03
      0.290000          0.125494E-03
      0.295000          0.122361E-03
      0.300000          0.119950E-03
      0.305000          0.118084E-03
      0.310000          0.116595E-03
      0.315000          0.115332E-03
      0.320000          0.114165E-03
      0.325000          0.112989E-03
      0.330000          0.111725E-03
      0.335000          0.110324E-03
      0.340000          0.108759E-03
      0.345000          0.107032E-03
      0.350000          0.105165E-03
      0.355000          0.103194E-03
      0.360000          0.101173E-03
      0.365000          0.991605E-04
      0.370000          0.972209E-04
      0.375000          0.954169E-04
      0.380000          0.938063E-04
      0.385000          0.924391E-04
      0.390000          0.913543E-04
      0.395000          0.905784E-04
      0.400000          0.901237E-04
      0.405000          0.899889E-04
      0.410000          0.901589E-04
      0.415000          0.906060E-04
      0.420000          0.912918E-04
      0.425000          0.921691E-04
      0.430000          0.931842E-04
      0.435000          0.942797E-04
      0.440000          0.953968E-04
      0.445000          0.964779E-04
      0.450000          0.974686E-04
      0.455000          0.983203E-04
      0.460000          0.989910E-04
      0.465000          0.994473E-04
      0.470000          0.996648E-04
      0.475000          0.996284E-04
      0.480000          0.993327E-04
      0.485000          0.987814E-04
      0.490000          0.979865E-04
      0.495000          0.969674E-04
      0.500000          0.957498E-04
