 I_abs(s)[cm^-1]/c[mg/ml]
       0.00000          0.145952E-01
      0.500000E-02      0.145606E-01
      0.100000E-01      0.144571E-01
      0.150000E-01      0.142863E-01
      0.200000E-01      0.140503E-01
      0.250000E-01      0.137522E-01
      0.300000E-01      0.133961E-01
      0.350000E-01      0.129865E-01
      0.400000E-01      0.125287E-01
      0.450000E-01      0.120283E-01
      0.500000E-01      0.114914E-01
      0.550000E-01      0.109246E-01
      0.600000E-01      0.103343E-01
      0.650000E-01      0.972709E-02
      0.700000E-01      0.910957E-02
      0.750000E-01      0.848803E-02
      0.800000E-01      0.786853E-02
      0.850000E-01      0.725672E-02
      0.900000E-01      0.665783E-02
      0.950000E-01      0.607655E-02
      0.100000          0.551698E-02
      0.105000          0.498266E-02
      0.110000          0.447646E-02
      0.115000          0.400063E-02
      0.120000          0.355682E-02
      0.125000          0.314604E-02
      0.130000          0.276876E-02
      0.135000          0.242489E-02
      0.140000          0.211391E-02
      0.145000          0.183483E-02
      0.150000          0.158633E-02
      0.155000          0.136679E-02
      0.160000          0.117435E-02
      0.165000          0.100698E-02
      0.170000          0.862550E-03
      0.175000          0.738870E-03
      0.180000          0.633751E-03
      0.185000          0.545045E-03
      0.190000          0.470685E-03
      0.195000          0.408719E-03
      0.200000          0.357331E-03
      0.205000          0.314864E-03
      0.210000          0.279825E-03
      0.215000          0.250898E-03
      0.220000          0.226936E-03
      0.225000          0.206962E-03
      0.230000          0.190161E-03
      0.235000          0.175861E-03
      0.240000          0.163527E-03
      0.245000          0.152743E-03
      0.250000          0.143192E-03
      0.255000          0.134645E-03
      0.260000          0.126941E-03
      0.265000          0.119974E-03
      0.270000          0.113678E-03
      0.275000          0.108014E-03
      0.280000          0.102964E-03
      0.285000          0.985174E-04
      0.290000          0.946649E-04
      0.295000          0.913964E-04
      0.300000          0.886948E-04
      0.305000          0.865355E-04
      0.310000          0.848851E-04
      0.315000          0.837018E-04
      0.320000          0.829366E-04
      0.325000          0.825349E-04
      0.330000          0.824384E-04
      0.335000          0.825875E-04
      0.340000          0.829229E-04
      0.345000          0.833880E-04
      0.350000          0.839304E-04
      0.355000          0.845034E-04
      0.360000          0.850666E-04
      0.365000          0.855871E-04
      0.370000          0.860391E-04
      0.375000          0.864041E-04
      0.380000          0.866708E-04
      0.385000          0.868336E-04
      0.390000          0.868925E-04
      0.395000          0.868519E-04
      0.400000          0.867194E-04
      0.405000          0.865052E-04
      0.410000          0.862205E-04
      0.415000          0.858772E-04
      0.420000          0.854869E-04
      0.425000          0.850602E-04
      0.430000          0.846066E-04
      0.435000          0.841336E-04
      0.440000          0.836472E-04
      0.445000          0.831514E-04
      0.450000          0.826486E-04
      0.455000          0.821398E-04
      0.460000          0.816248E-04
      0.465000          0.811024E-04
      0.470000          0.805712E-04
      0.475000          0.800295E-04
      0.480000          0.794759E-04
      0.485000          0.789097E-04
      0.490000          0.783307E-04
      0.495000          0.777401E-04
      0.500000          0.771400E-04
