 I_abs(s)[cm^-1]/c[mg/ml]
       0.00000          0.143736E-01
      0.500000E-02      0.143342E-01
      0.100000E-01      0.142168E-01
      0.150000E-01      0.140232E-01
      0.200000E-01      0.137565E-01
      0.250000E-01      0.134211E-01
      0.300000E-01      0.130221E-01
      0.350000E-01      0.125657E-01
      0.400000E-01      0.120590E-01
      0.450000E-01      0.115092E-01
      0.500000E-01      0.109243E-01
      0.550000E-01      0.103125E-01
      0.600000E-01      0.968172E-02
      0.650000E-01      0.904006E-02
      0.700000E-01      0.839515E-02
      0.750000E-01      0.775425E-02
      0.800000E-01      0.712399E-02
      0.850000E-01      0.651036E-02
      0.900000E-01      0.591860E-02
      0.950000E-01      0.535313E-02
      0.100000          0.481754E-02
      0.105000          0.431458E-02
      0.110000          0.384619E-02
      0.115000          0.341352E-02
      0.120000          0.301701E-02
      0.125000          0.265642E-02
      0.130000          0.233096E-02
      0.135000          0.203934E-02
      0.140000          0.177988E-02
      0.145000          0.155059E-02
      0.150000          0.134927E-02
      0.155000          0.117358E-02
      0.160000          0.102113E-02
      0.165000          0.889528E-03
      0.170000          0.776448E-03
      0.175000          0.679680E-03
      0.180000          0.597158E-03
      0.185000          0.526985E-03
      0.190000          0.467450E-03
      0.195000          0.417032E-03
      0.200000          0.374400E-03
      0.205000          0.338406E-03
      0.210000          0.308070E-03
      0.215000          0.282564E-03
      0.220000          0.261197E-03
      0.225000          0.243391E-03
      0.230000          0.228664E-03
      0.235000          0.216612E-03
      0.240000          0.206892E-03
      0.245000          0.199204E-03
      0.250000          0.193285E-03
      0.255000          0.188894E-03
      0.260000          0.185805E-03
      0.265000          0.183807E-03
      0.270000          0.182694E-03
      0.275000          0.182270E-03
      0.280000          0.182346E-03
      0.285000          0.182742E-03
      0.290000          0.183291E-03
      0.295000          0.183839E-03
      0.300000          0.184248E-03
      0.305000          0.184401E-03
      0.310000          0.184197E-03
      0.315000          0.183561E-03
      0.320000          0.182438E-03
      0.325000          0.180796E-03
      0.330000          0.178622E-03
      0.335000          0.175924E-03
      0.340000          0.172728E-03
      0.345000          0.169073E-03
      0.350000          0.165014E-03
      0.355000          0.160610E-03
      0.360000          0.155930E-03
      0.365000          0.151047E-03
      0.370000          0.146031E-03
      0.375000          0.140953E-03
      0.380000          0.135879E-03
      0.385000          0.130871E-03
      0.390000          0.125981E-03
      0.395000          0.121255E-03
      0.400000          0.116730E-03
      0.405000          0.112435E-03
      0.410000          0.108388E-03
      0.415000          0.104603E-03
      0.420000          0.101083E-03
      0.425000          0.978263E-04
      0.430000          0.948267E-04
      0.435000          0.920728E-04
      0.440000          0.895503E-04
      0.445000          0.872431E-04
      0.450000          0.851344E-04
      0.455000          0.832071E-04
      0.460000          0.814453E-04
      0.465000          0.798342E-04
      0.470000          0.783610E-04
      0.475000          0.770153E-04
      0.480000          0.757887E-04
      0.485000          0.746755E-04
      0.490000          0.736717E-04
      0.495000          0.727754E-04
      0.500000          0.719863E-04
