 I_abs(s)[cm^-1]/c[mg/ml]
       0.00000          0.143421E-01
      0.500000E-02      0.143054E-01
      0.100000E-01      0.141958E-01
      0.150000E-01      0.140150E-01
      0.200000E-01      0.137656E-01
      0.250000E-01      0.134513E-01
      0.300000E-01      0.130766E-01
      0.350000E-01      0.126469E-01
      0.400000E-01      0.121683E-01
      0.450000E-01      0.116473E-01
      0.500000E-01      0.110908E-01
      0.550000E-01      0.105061E-01
      0.600000E-01      0.990049E-02
      0.650000E-01      0.928128E-02
      0.700000E-01      0.865554E-02
      0.750000E-01      0.803008E-02
      0.800000E-01      0.741126E-02
      0.850000E-01      0.680493E-02
      0.900000E-01      0.621632E-02
      0.950000E-01      0.565000E-02
      0.100000          0.510985E-02
      0.105000          0.459898E-02
      0.110000          0.411979E-02
      0.115000          0.367395E-02
      0.120000          0.326245E-02
      0.125000          0.288561E-02
      0.130000          0.254318E-02
      0.135000          0.223439E-02
      0.140000          0.195800E-02
      0.145000          0.171242E-02
      0.150000          0.149575E-02
      0.155000          0.130587E-02
      0.160000          0.114054E-02
      0.165000          0.997430E-03
      0.170000          0.874202E-03
      0.175000          0.768568E-03
      0.180000          0.678329E-03
      0.185000          0.601417E-03
      0.190000          0.535920E-03
      0.195000          0.480106E-03
      0.200000          0.432428E-03
      0.205000          0.391536E-03
      0.210000          0.356266E-03
      0.215000          0.325637E-03
      0.220000          0.298837E-03
      0.225000          0.275207E-03
      0.230000          0.254221E-03
      0.235000          0.235470E-03
      0.240000          0.218639E-03
      0.245000          0.203491E-03
      0.250000          0.189849E-03
      0.255000          0.177579E-03
      0.260000          0.166577E-03
      0.265000          0.156759E-03
      0.270000          0.148049E-03
      0.275000          0.140376E-03
      0.280000          0.133667E-03
      0.285000          0.127844E-03
      0.290000          0.122828E-03
      0.295000          0.118532E-03
      0.300000          0.114867E-03
      0.305000          0.111744E-03
      0.310000          0.109075E-03
      0.315000          0.106775E-03
      0.320000          0.104766E-03
      0.325000          0.102977E-03
      0.330000          0.101347E-03
      0.335000          0.998249E-04
      0.340000          0.983715E-04
      0.345000          0.969574E-04
      0.350000          0.955639E-04
      0.355000          0.941816E-04
      0.360000          0.928092E-04
      0.365000          0.914520E-04
      0.370000          0.901203E-04
      0.375000          0.888280E-04
      0.380000          0.875907E-04
      0.385000          0.864246E-04
      0.390000          0.853449E-04
      0.395000          0.843650E-04
      0.400000          0.834958E-04
      0.405000          0.827449E-04
      0.410000          0.821163E-04
      0.415000          0.816104E-04
      0.420000          0.812242E-04
      0.425000          0.809511E-04
      0.430000          0.807819E-04
      0.435000          0.807046E-04
      0.440000          0.807052E-04
      0.445000          0.807684E-04
      0.450000          0.808777E-04
      0.455000          0.810163E-04
      0.460000          0.811672E-04
      0.465000          0.813138E-04
      0.470000          0.814402E-04
      0.475000          0.815315E-04
      0.480000          0.815742E-04
      0.485000          0.815561E-04
      0.490000          0.814665E-04
      0.495000          0.812966E-04
      0.500000          0.810395E-04
