 I_abs(s)[cm^-1]/c[mg/ml]
       0.00000          0.144209E-01
      0.500000E-02      0.143852E-01
      0.100000E-01      0.142785E-01
      0.150000E-01      0.141023E-01
      0.200000E-01      0.138593E-01
      0.250000E-01      0.135530E-01
      0.300000E-01      0.131876E-01
      0.350000E-01      0.127683E-01
      0.400000E-01      0.123009E-01
      0.450000E-01      0.117916E-01
      0.500000E-01      0.112470E-01
      0.550000E-01      0.106741E-01
      0.600000E-01      0.100797E-01
      0.650000E-01      0.947088E-02
      0.700000E-01      0.885434E-02
      0.750000E-01      0.823655E-02
      0.800000E-01      0.762360E-02
      0.850000E-01      0.702105E-02
      0.900000E-01      0.643396E-02
      0.950000E-01      0.586672E-02
      0.100000          0.532311E-02
      0.105000          0.480622E-02
      0.110000          0.431848E-02
      0.115000          0.386165E-02
      0.120000          0.343689E-02
      0.125000          0.304475E-02
      0.130000          0.268526E-02
      0.135000          0.235797E-02
      0.140000          0.206203E-02
      0.145000          0.179623E-02
      0.150000          0.155910E-02
      0.155000          0.134893E-02
      0.160000          0.116389E-02
      0.165000          0.100204E-02
      0.170000          0.861401E-03
      0.175000          0.739998E-03
      0.180000          0.635897E-03
      0.185000          0.547234E-03
      0.190000          0.472244E-03
      0.195000          0.409274E-03
      0.200000          0.356795E-03
      0.205000          0.313410E-03
      0.210000          0.277852E-03
      0.215000          0.248986E-03
      0.220000          0.225801E-03
      0.225000          0.207401E-03
      0.230000          0.193002E-03
      0.235000          0.181917E-03
      0.240000          0.173547E-03
      0.245000          0.167374E-03
      0.250000          0.162950E-03
      0.255000          0.159889E-03
      0.260000          0.157859E-03
      0.265000          0.156578E-03
      0.270000          0.155806E-03
      0.275000          0.155339E-03
      0.280000          0.155011E-03
      0.285000          0.154682E-03
      0.290000          0.154242E-03
      0.295000          0.153608E-03
      0.300000          0.152717E-03
      0.305000          0.151527E-03
      0.310000          0.150016E-03
      0.315000          0.148177E-03
      0.320000          0.146019E-03
      0.325000          0.143560E-03
      0.330000          0.140830E-03
      0.335000          0.137867E-03
      0.340000          0.134713E-03
      0.345000          0.131414E-03
      0.350000          0.128017E-03
      0.355000          0.124569E-03
      0.360000          0.121115E-03
      0.365000          0.117696E-03
      0.370000          0.114350E-03
      0.375000          0.111109E-03
      0.380000          0.108000E-03
      0.385000          0.105043E-03
      0.390000          0.102255E-03
      0.395000          0.996444E-04
      0.400000          0.972152E-04
      0.405000          0.949671E-04
      0.410000          0.928953E-04
      0.415000          0.909916E-04
      0.420000          0.892449E-04
      0.425000          0.876424E-04
      0.430000          0.861696E-04
      0.435000          0.848116E-04
      0.440000          0.835533E-04
      0.445000          0.823800E-04
      0.450000          0.812781E-04
      0.455000          0.802351E-04
      0.460000          0.792401E-04
      0.465000          0.782838E-04
      0.470000          0.773589E-04
      0.475000          0.764599E-04
      0.480000          0.755832E-04
      0.485000          0.747267E-04
      0.490000          0.738904E-04
      0.495000          0.730753E-04
      0.500000          0.722840E-04
