 I_abs(s)[cm^-1]/c[mg/ml]
       0.00000          0.145555E-01
      0.500000E-02      0.145212E-01
      0.100000E-01      0.144186E-01
      0.150000E-01      0.142492E-01
      0.200000E-01      0.140152E-01
      0.250000E-01      0.137195E-01
      0.300000E-01      0.133661E-01
      0.350000E-01      0.129595E-01
      0.400000E-01      0.125047E-01
      0.450000E-01      0.120074E-01
      0.500000E-01      0.114736E-01
      0.550000E-01      0.109095E-01
      0.600000E-01      0.103216E-01
      0.650000E-01      0.971638E-02
      0.700000E-01      0.910024E-02
      0.750000E-01      0.847946E-02
      0.800000E-01      0.786001E-02
      0.850000E-01      0.724752E-02
      0.900000E-01      0.664719E-02
      0.950000E-01      0.606372E-02
      0.100000          0.550125E-02
      0.105000          0.496336E-02
      0.110000          0.445300E-02
      0.115000          0.397253E-02
      0.120000          0.352370E-02
      0.125000          0.310765E-02
      0.130000          0.272498E-02
      0.135000          0.237577E-02
      0.140000          0.205961E-02
      0.145000          0.177568E-02
      0.150000          0.152279E-02
      0.155000          0.129944E-02
      0.160000          0.110389E-02
      0.165000          0.934206E-03
      0.170000          0.788323E-03
      0.175000          0.664105E-03
      0.180000          0.559389E-03
      0.185000          0.472029E-03
      0.190000          0.399939E-03
      0.195000          0.341121E-03
      0.200000          0.293695E-03
      0.205000          0.255920E-03
      0.210000          0.226204E-03
      0.215000          0.203118E-03
      0.220000          0.185396E-03
      0.225000          0.171936E-03
      0.230000          0.161794E-03
      0.235000          0.154177E-03
      0.240000          0.148432E-03
      0.245000          0.144033E-03
      0.250000          0.140567E-03
      0.255000          0.137722E-03
      0.260000          0.135270E-03
      0.265000          0.133052E-03
      0.270000          0.130968E-03
      0.275000          0.128962E-03
      0.280000          0.127012E-03
      0.285000          0.125117E-03
      0.290000          0.123293E-03
      0.295000          0.121563E-03
      0.300000          0.119955E-03
      0.305000          0.118490E-03
      0.310000          0.117190E-03
      0.315000          0.116066E-03
      0.320000          0.115123E-03
      0.325000          0.114357E-03
      0.330000          0.113759E-03
      0.335000          0.113311E-03
      0.340000          0.112989E-03
      0.345000          0.112768E-03
      0.350000          0.112619E-03
      0.355000          0.112509E-03
      0.360000          0.112410E-03
      0.365000          0.112292E-03
      0.370000          0.112130E-03
      0.375000          0.111899E-03
      0.380000          0.111580E-03
      0.385000          0.111158E-03
      0.390000          0.110622E-03
      0.395000          0.109965E-03
      0.400000          0.109185E-03
      0.405000          0.108282E-03
      0.410000          0.107261E-03
      0.415000          0.106129E-03
      0.420000          0.104896E-03
      0.425000          0.103573E-03
      0.430000          0.102172E-03
      0.435000          0.100708E-03
      0.440000          0.991926E-04
      0.445000          0.976407E-04
      0.450000          0.960650E-04
      0.455000          0.944780E-04
      0.460000          0.928912E-04
      0.465000          0.913153E-04
      0.470000          0.897597E-04
      0.475000          0.882329E-04
      0.480000          0.867422E-04
      0.485000          0.852943E-04
      0.490000          0.838946E-04
      0.495000          0.825480E-04
      0.500000          0.812589E-04
