 I_abs(s)[cm^-1]/c[mg/ml]
       0.00000          0.145396E-01
      0.500000E-02      0.145048E-01
      0.100000E-01      0.144009E-01
      0.150000E-01      0.142292E-01
      0.200000E-01      0.139920E-01
      0.250000E-01      0.136925E-01
      0.300000E-01      0.133347E-01
      0.350000E-01      0.129230E-01
      0.400000E-01      0.124629E-01
      0.450000E-01      0.119600E-01
      0.500000E-01      0.114205E-01
      0.550000E-01      0.108509E-01
      0.600000E-01      0.102577E-01
      0.650000E-01      0.964762E-02
      0.700000E-01      0.902715E-02
      0.750000E-01      0.840272E-02
      0.800000E-01      0.778040E-02
      0.850000E-01      0.716592E-02
      0.900000E-01      0.656453E-02
      0.950000E-01      0.598099E-02
      0.100000          0.541945E-02
      0.105000          0.488347E-02
      0.110000          0.437598E-02
      0.115000          0.389928E-02
      0.120000          0.345503E-02
      0.125000          0.304429E-02
      0.130000          0.266754E-02
      0.135000          0.232473E-02
      0.140000          0.201532E-02
      0.145000          0.173834E-02
      0.150000          0.149248E-02
      0.155000          0.127608E-02
      0.160000          0.108728E-02
      0.165000          0.924023E-03
      0.170000          0.784143E-03
      0.175000          0.665408E-03
      0.180000          0.565583E-03
      0.185000          0.482467E-03
      0.190000          0.413938E-03
      0.195000          0.357982E-03
      0.200000          0.312723E-03
      0.205000          0.276438E-03
      0.210000          0.247574E-03
      0.215000          0.224748E-03
      0.220000          0.206758E-03
      0.225000          0.192568E-03
      0.230000          0.181313E-03
      0.235000          0.172275E-03
      0.240000          0.164880E-03
      0.245000          0.158680E-03
      0.250000          0.153332E-03
      0.255000          0.148591E-03
      0.260000          0.144286E-03
      0.265000          0.140308E-03
      0.270000          0.136597E-03
      0.275000          0.133126E-03
      0.280000          0.129891E-03
      0.285000          0.126906E-03
      0.290000          0.124186E-03
      0.295000          0.121751E-03
      0.300000          0.119615E-03
      0.305000          0.117783E-03
      0.310000          0.116255E-03
      0.315000          0.115020E-03
      0.320000          0.114058E-03
      0.325000          0.113339E-03
      0.330000          0.112831E-03
      0.335000          0.112493E-03
      0.340000          0.112282E-03
      0.345000          0.112155E-03
      0.350000          0.112068E-03
      0.355000          0.111982E-03
      0.360000          0.111857E-03
      0.365000          0.111662E-03
      0.370000          0.111369E-03
      0.375000          0.110956E-03
      0.380000          0.110409E-03
      0.385000          0.109718E-03
      0.390000          0.108879E-03
      0.395000          0.107893E-03
      0.400000          0.106768E-03
      0.405000          0.105514E-03
      0.410000          0.104144E-03
      0.415000          0.102677E-03
      0.420000          0.101130E-03
      0.425000          0.995245E-04
      0.430000          0.978805E-04
      0.435000          0.962192E-04
      0.440000          0.945613E-04
      0.445000          0.929266E-04
      0.450000          0.913337E-04
      0.455000          0.897998E-04
      0.460000          0.883400E-04
      0.465000          0.869678E-04
      0.470000          0.856945E-04
      0.475000          0.845294E-04
      0.480000          0.834792E-04
      0.485000          0.825488E-04
      0.490000          0.817407E-04
      0.495000          0.810553E-04
      0.500000          0.804911E-04
