 I_abs(s)[cm^-1]/c[mg/ml]
       0.00000          0.145238E-01
      0.500000E-02      0.144871E-01
      0.100000E-01      0.143774E-01
      0.150000E-01      0.141965E-01
      0.200000E-01      0.139468E-01
      0.250000E-01      0.136319E-01
      0.300000E-01      0.132562E-01
      0.350000E-01      0.128250E-01
      0.400000E-01      0.123440E-01
      0.450000E-01      0.118198E-01
      0.500000E-01      0.112591E-01
      0.550000E-01      0.106689E-01
      0.600000E-01      0.100566E-01
      0.650000E-01      0.942930E-02
      0.700000E-01      0.879406E-02
      0.750000E-01      0.815769E-02
      0.800000E-01      0.752659E-02
      0.850000E-01      0.690670E-02
      0.900000E-01      0.630338E-02
      0.950000E-01      0.572139E-02
      0.100000          0.516479E-02
      0.105000          0.463698E-02
      0.110000          0.414061E-02
      0.115000          0.367764E-02
      0.120000          0.324935E-02
      0.125000          0.285638E-02
      0.130000          0.249875E-02
      0.135000          0.217596E-02
      0.140000          0.188701E-02
      0.145000          0.163053E-02
      0.150000          0.140477E-02
      0.155000          0.120776E-02
      0.160000          0.103731E-02
      0.165000          0.891118E-03
      0.170000          0.766831E-03
      0.175000          0.662084E-03
      0.180000          0.574561E-03
      0.185000          0.502040E-03
      0.190000          0.442418E-03
      0.195000          0.393748E-03
      0.200000          0.354247E-03
      0.205000          0.322318E-03
      0.210000          0.296548E-03
      0.215000          0.275708E-03
      0.220000          0.258750E-03
      0.225000          0.244797E-03
      0.230000          0.233128E-03
      0.235000          0.223163E-03
      0.240000          0.214450E-03
      0.245000          0.206645E-03
      0.250000          0.199494E-03
      0.255000          0.192823E-03
      0.260000          0.186515E-03
      0.265000          0.180501E-03
      0.270000          0.174745E-03
      0.275000          0.169237E-03
      0.280000          0.163981E-03
      0.285000          0.158990E-03
      0.290000          0.154277E-03
      0.295000          0.149856E-03
      0.300000          0.145738E-03
      0.305000          0.141926E-03
      0.310000          0.138419E-03
      0.315000          0.135207E-03
      0.320000          0.132278E-03
      0.325000          0.129611E-03
      0.330000          0.127186E-03
      0.335000          0.124976E-03
      0.340000          0.122956E-03
      0.345000          0.121098E-03
      0.350000          0.119375E-03
      0.355000          0.117764E-03
      0.360000          0.116239E-03
      0.365000          0.114781E-03
      0.370000          0.113369E-03
      0.375000          0.111988E-03
      0.380000          0.110624E-03
      0.385000          0.109266E-03
      0.390000          0.107905E-03
      0.395000          0.106534E-03
      0.400000          0.105147E-03
      0.405000          0.103744E-03
      0.410000          0.102320E-03
      0.415000          0.100877E-03
      0.420000          0.994142E-04
      0.425000          0.979347E-04
      0.430000          0.964407E-04
      0.435000          0.949360E-04
      0.440000          0.934246E-04
      0.445000          0.919115E-04
      0.450000          0.904021E-04
      0.455000          0.889022E-04
      0.460000          0.874182E-04
      0.465000          0.859567E-04
      0.470000          0.845245E-04
      0.475000          0.831286E-04
      0.480000          0.817760E-04
      0.485000          0.804738E-04
      0.490000          0.792288E-04
      0.495000          0.780473E-04
      0.500000          0.769355E-04
