 I_abs(s)[cm^-1]/c[mg/ml]
       0.00000          0.144763E-01
      0.500000E-02      0.144419E-01
      0.100000E-01      0.143394E-01
      0.150000E-01      0.141700E-01
      0.200000E-01      0.139360E-01
      0.250000E-01      0.136404E-01
      0.300000E-01      0.132871E-01
      0.350000E-01      0.128805E-01
      0.400000E-01      0.124258E-01
      0.450000E-01      0.119285E-01
      0.500000E-01      0.113947E-01
      0.550000E-01      0.108307E-01
      0.600000E-01      0.102429E-01
      0.650000E-01      0.963777E-02
      0.700000E-01      0.902178E-02
      0.750000E-01      0.840121E-02
      0.800000E-01      0.778205E-02
      0.850000E-01      0.716995E-02
      0.900000E-01      0.657013E-02
      0.950000E-01      0.598731E-02
      0.100000          0.542567E-02
      0.105000          0.488880E-02
      0.110000          0.437968E-02
      0.115000          0.390069E-02
      0.120000          0.345358E-02
      0.125000          0.303953E-02
      0.130000          0.265913E-02
      0.135000          0.231247E-02
      0.140000          0.199915E-02
      0.145000          0.171834E-02
      0.150000          0.146885E-02
      0.155000          0.124915E-02
      0.160000          0.105749E-02
      0.165000          0.891916E-03
      0.170000          0.750342E-03
      0.175000          0.630604E-03
      0.180000          0.530507E-03
      0.185000          0.447877E-03
      0.190000          0.380592E-03
      0.195000          0.326623E-03
      0.200000          0.284055E-03
      0.205000          0.251111E-03
      0.210000          0.226167E-03
      0.215000          0.207758E-03
      0.220000          0.194586E-03
      0.225000          0.185515E-03
      0.230000          0.179570E-03
      0.235000          0.175926E-03
      0.240000          0.173900E-03
      0.245000          0.172937E-03
      0.250000          0.172598E-03
      0.255000          0.172545E-03
      0.260000          0.172525E-03
      0.265000          0.172361E-03
      0.270000          0.171935E-03
      0.275000          0.171174E-03
      0.280000          0.170047E-03
      0.285000          0.168547E-03
      0.290000          0.166687E-03
      0.295000          0.164494E-03
      0.300000          0.162002E-03
      0.305000          0.159247E-03
      0.310000          0.156268E-03
      0.315000          0.153099E-03
      0.320000          0.149774E-03
      0.325000          0.146323E-03
      0.330000          0.142772E-03
      0.335000          0.139144E-03
      0.340000          0.135460E-03
      0.345000          0.131738E-03
      0.350000          0.127994E-03
      0.355000          0.124247E-03
      0.360000          0.120510E-03
      0.365000          0.116802E-03
      0.370000          0.113137E-03
      0.375000          0.109532E-03
      0.380000          0.106005E-03
      0.385000          0.102573E-03
      0.390000          0.992512E-04
      0.395000          0.960571E-04
      0.400000          0.930056E-04
      0.405000          0.901109E-04
      0.410000          0.873852E-04
      0.415000          0.848390E-04
      0.420000          0.824803E-04
      0.425000          0.803148E-04
      0.430000          0.783456E-04
      0.435000          0.765731E-04
      0.440000          0.749954E-04
      0.445000          0.736076E-04
      0.450000          0.724031E-04
      0.455000          0.713728E-04
      0.460000          0.705061E-04
      0.465000          0.697909E-04
      0.470000          0.692140E-04
      0.475000          0.687613E-04
      0.480000          0.684186E-04
      0.485000          0.681715E-04
      0.490000          0.680060E-04
      0.495000          0.679087E-04
      0.500000          0.678668E-04
