 I_abs(s)[cm^-1]/c[mg/ml]
       0.00000          0.143973E-01
      0.500000E-02      0.143591E-01
      0.100000E-01      0.142452E-01
      0.150000E-01      0.140574E-01
      0.200000E-01      0.137984E-01
      0.250000E-01      0.134722E-01
      0.300000E-01      0.130836E-01
      0.350000E-01      0.126383E-01
      0.400000E-01      0.121428E-01
      0.450000E-01      0.116040E-01
      0.500000E-01      0.110293E-01
      0.550000E-01      0.104263E-01
      0.600000E-01      0.980284E-02
      0.650000E-01      0.916654E-02
      0.700000E-01      0.852488E-02
      0.750000E-01      0.788497E-02
      0.800000E-01      0.725347E-02
      0.850000E-01      0.663644E-02
      0.900000E-01      0.603929E-02
      0.950000E-01      0.546671E-02
      0.100000          0.492260E-02
      0.105000          0.441010E-02
      0.110000          0.393154E-02
      0.115000          0.348848E-02
      0.120000          0.308174E-02
      0.125000          0.271147E-02
      0.130000          0.237718E-02
      0.135000          0.207786E-02
      0.140000          0.181201E-02
      0.145000          0.157777E-02
      0.150000          0.137299E-02
      0.155000          0.119529E-02
      0.160000          0.104218E-02
      0.165000          0.911107E-03
      0.170000          0.799550E-03
      0.175000          0.705043E-03
      0.180000          0.625248E-03
      0.185000          0.557987E-03
      0.190000          0.501269E-03
      0.195000          0.453312E-03
      0.200000          0.412550E-03
      0.205000          0.377633E-03
      0.210000          0.347427E-03
      0.215000          0.320997E-03
      0.220000          0.297592E-03
      0.225000          0.276626E-03
      0.230000          0.257657E-03
      0.235000          0.240361E-03
      0.240000          0.224512E-03
      0.245000          0.209960E-03
      0.250000          0.196609E-03
      0.255000          0.184401E-03
      0.260000          0.173301E-03
      0.265000          0.163283E-03
      0.270000          0.154319E-03
      0.275000          0.146378E-03
      0.280000          0.139415E-03
      0.285000          0.133372E-03
      0.290000          0.128181E-03
      0.295000          0.123759E-03
      0.300000          0.120015E-03
      0.305000          0.116854E-03
      0.310000          0.114177E-03
      0.315000          0.111889E-03
      0.320000          0.109899E-03
      0.325000          0.108125E-03
      0.330000          0.106498E-03
      0.335000          0.104959E-03
      0.340000          0.103465E-03
      0.345000          0.101987E-03
      0.350000          0.100508E-03
      0.355000          0.990252E-04
      0.360000          0.975461E-04
      0.365000          0.960871E-04
      0.370000          0.946712E-04
      0.375000          0.933256E-04
      0.380000          0.920795E-04
      0.385000          0.909613E-04
      0.390000          0.899973E-04
      0.395000          0.892094E-04
      0.400000          0.886140E-04
      0.405000          0.882209E-04
      0.410000          0.880328E-04
      0.415000          0.880449E-04
      0.420000          0.882452E-04
      0.425000          0.886149E-04
      0.430000          0.891292E-04
      0.435000          0.897584E-04
      0.440000          0.904688E-04
      0.445000          0.912240E-04
      0.450000          0.919863E-04
      0.455000          0.927179E-04
      0.460000          0.933822E-04
      0.465000          0.939447E-04
      0.470000          0.943742E-04
      0.475000          0.946436E-04
      0.480000          0.947305E-04
      0.485000          0.946175E-04
      0.490000          0.942931E-04
      0.495000          0.937512E-04
      0.500000          0.929911E-04
