 I_abs(s)[cm^-1]/c[mg/ml]
       0.00000          0.146350E-01
      0.500000E-02      0.145988E-01
      0.100000E-01      0.144908E-01
      0.150000E-01      0.143125E-01
      0.200000E-01      0.140665E-01
      0.250000E-01      0.137563E-01
      0.300000E-01      0.133861E-01
      0.350000E-01      0.129610E-01
      0.400000E-01      0.124868E-01
      0.450000E-01      0.119697E-01
      0.500000E-01      0.114163E-01
      0.550000E-01      0.108336E-01
      0.600000E-01      0.102285E-01
      0.650000E-01      0.960795E-02
      0.700000E-01      0.897884E-02
      0.750000E-01      0.834768E-02
      0.800000E-01      0.772067E-02
      0.850000E-01      0.710351E-02
      0.900000E-01      0.650139E-02
      0.950000E-01      0.591886E-02
      0.100000          0.535989E-02
      0.105000          0.482773E-02
      0.110000          0.432503E-02
      0.115000          0.385372E-02
      0.120000          0.341516E-02
      0.125000          0.301007E-02
      0.130000          0.263866E-02
      0.135000          0.230062E-02
      0.140000          0.199522E-02
      0.145000          0.172137E-02
      0.150000          0.147765E-02
      0.155000          0.126243E-02
      0.160000          0.107387E-02
      0.165000          0.910031E-03
      0.170000          0.768885E-03
      0.175000          0.648389E-03
      0.180000          0.546516E-03
      0.185000          0.461287E-03
      0.190000          0.390800E-03
      0.195000          0.333254E-03
      0.200000          0.286960E-03
      0.205000          0.250356E-03
      0.210000          0.222009E-03
      0.215000          0.200617E-03
      0.220000          0.185012E-03
      0.225000          0.174149E-03
      0.230000          0.167108E-03
      0.235000          0.163081E-03
      0.240000          0.161366E-03
      0.245000          0.161359E-03
      0.250000          0.162548E-03
      0.255000          0.164497E-03
      0.260000          0.166849E-03
      0.265000          0.169310E-03
      0.270000          0.171644E-03
      0.275000          0.173669E-03
      0.280000          0.175249E-03
      0.285000          0.176288E-03
      0.290000          0.176725E-03
      0.295000          0.176531E-03
      0.300000          0.175700E-03
      0.305000          0.174250E-03
      0.310000          0.172215E-03
      0.315000          0.169642E-03
      0.320000          0.166591E-03
      0.325000          0.163124E-03
      0.330000          0.159311E-03
      0.335000          0.155220E-03
      0.340000          0.150921E-03
      0.345000          0.146477E-03
      0.350000          0.141950E-03
      0.355000          0.137395E-03
      0.360000          0.132860E-03
      0.365000          0.128386E-03
      0.370000          0.124008E-03
      0.375000          0.119753E-03
      0.380000          0.115641E-03
      0.385000          0.111687E-03
      0.390000          0.107901E-03
      0.395000          0.104287E-03
      0.400000          0.100847E-03
      0.405000          0.975782E-04
      0.410000          0.944783E-04
      0.415000          0.915421E-04
      0.420000          0.887643E-04
      0.425000          0.861398E-04
      0.430000          0.836637E-04
      0.435000          0.813320E-04
      0.440000          0.791416E-04
      0.445000          0.770907E-04
      0.450000          0.751782E-04
      0.455000          0.734042E-04
      0.460000          0.717694E-04
      0.465000          0.702754E-04
      0.470000          0.689236E-04
      0.475000          0.677159E-04
      0.480000          0.666536E-04
      0.485000          0.657378E-04
      0.490000          0.649686E-04
      0.495000          0.643453E-04
      0.500000          0.638660E-04
