 I_abs(s)[cm^-1]/c[mg/ml]
       0.00000          0.146588E-01
      0.500000E-02      0.146211E-01
      0.100000E-01      0.145083E-01
      0.150000E-01      0.143222E-01
      0.200000E-01      0.140655E-01
      0.250000E-01      0.137418E-01
      0.300000E-01      0.133559E-01
      0.350000E-01      0.129131E-01
      0.400000E-01      0.124196E-01
      0.450000E-01      0.118820E-01
      0.500000E-01      0.113075E-01
      0.550000E-01      0.107033E-01
      0.600000E-01      0.100770E-01
      0.650000E-01      0.943608E-02
      0.700000E-01      0.878773E-02
      0.750000E-01      0.813897E-02
      0.800000E-01      0.749637E-02
      0.850000E-01      0.686599E-02
      0.900000E-01      0.625328E-02
      0.950000E-01      0.566305E-02
      0.100000          0.509939E-02
      0.105000          0.456566E-02
      0.110000          0.406449E-02
      0.115000          0.359777E-02
      0.120000          0.316670E-02
      0.125000          0.277181E-02
      0.130000          0.241305E-02
      0.135000          0.208979E-02
      0.140000          0.180096E-02
      0.145000          0.154508E-02
      0.150000          0.132033E-02
      0.155000          0.112466E-02
      0.160000          0.955850E-03
      0.165000          0.811556E-03
      0.170000          0.689399E-03
      0.175000          0.587010E-03
      0.180000          0.502078E-03
      0.185000          0.432392E-03
      0.190000          0.375872E-03
      0.195000          0.330591E-03
      0.200000          0.294792E-03
      0.205000          0.266895E-03
      0.210000          0.245501E-03
      0.215000          0.229388E-03
      0.220000          0.217503E-03
      0.225000          0.208953E-03
      0.230000          0.202986E-03
      0.235000          0.198985E-03
      0.240000          0.196445E-03
      0.245000          0.194959E-03
      0.250000          0.194204E-03
      0.255000          0.193925E-03
      0.260000          0.193925E-03
      0.265000          0.194049E-03
      0.270000          0.194179E-03
      0.275000          0.194225E-03
      0.280000          0.194115E-03
      0.285000          0.193794E-03
      0.290000          0.193221E-03
      0.295000          0.192364E-03
      0.300000          0.191198E-03
      0.305000          0.189708E-03
      0.310000          0.187883E-03
      0.315000          0.185723E-03
      0.320000          0.183232E-03
      0.325000          0.180420E-03
      0.330000          0.177307E-03
      0.335000          0.173917E-03
      0.340000          0.170279E-03
      0.345000          0.166430E-03
      0.350000          0.162407E-03
      0.355000          0.158254E-03
      0.360000          0.154013E-03
      0.365000          0.149729E-03
      0.370000          0.145446E-03
      0.375000          0.141203E-03
      0.380000          0.137039E-03
      0.385000          0.132988E-03
      0.390000          0.129078E-03
      0.395000          0.125332E-03
      0.400000          0.121767E-03
      0.405000          0.118393E-03
      0.410000          0.115217E-03
      0.415000          0.112235E-03
      0.420000          0.109443E-03
      0.425000          0.106828E-03
      0.430000          0.104377E-03
      0.435000          0.102070E-03
      0.440000          0.998885E-04
      0.445000          0.978097E-04
      0.450000          0.958123E-04
      0.455000          0.938748E-04
      0.460000          0.919776E-04
      0.465000          0.901029E-04
      0.470000          0.882358E-04
      0.475000          0.863644E-04
      0.480000          0.844808E-04
      0.485000          0.825806E-04
      0.490000          0.806634E-04
      0.495000          0.787325E-04
      0.500000          0.767949E-04
