 I_abs(s)[cm^-1]/c[mg/ml]
       0.00000          0.145079E-01
      0.500000E-02      0.144701E-01
      0.100000E-01      0.143572E-01
      0.150000E-01      0.141710E-01
      0.200000E-01      0.139143E-01
      0.250000E-01      0.135908E-01
      0.300000E-01      0.132054E-01
      0.350000E-01      0.127636E-01
      0.400000E-01      0.122718E-01
      0.450000E-01      0.117368E-01
      0.500000E-01      0.111658E-01
      0.550000E-01      0.105663E-01
      0.600000E-01      0.994584E-02
      0.650000E-01      0.931197E-02
      0.700000E-01      0.867194E-02
      0.750000E-01      0.803272E-02
      0.800000E-01      0.740077E-02
      0.850000E-01      0.678202E-02
      0.900000E-01      0.618178E-02
      0.950000E-01      0.560463E-02
      0.100000          0.505445E-02
      0.105000          0.453434E-02
      0.110000          0.404669E-02
      0.115000          0.359315E-02
      0.120000          0.317466E-02
      0.125000          0.279156E-02
      0.130000          0.244360E-02
      0.135000          0.213000E-02
      0.140000          0.184957E-02
      0.145000          0.160076E-02
      0.150000          0.138173E-02
      0.155000          0.119045E-02
      0.160000          0.102472E-02
      0.165000          0.882304E-03
      0.170000          0.760927E-03
      0.175000          0.658353E-03
      0.180000          0.572424E-03
      0.185000          0.501082E-03
      0.190000          0.442406E-03
      0.195000          0.394618E-03
      0.200000          0.356101E-03
      0.205000          0.325396E-03
      0.210000          0.301206E-03
      0.215000          0.282388E-03
      0.220000          0.267945E-03
      0.225000          0.257014E-03
      0.230000          0.248855E-03
      0.235000          0.242838E-03
      0.240000          0.238431E-03
      0.245000          0.235185E-03
      0.250000          0.232726E-03
      0.255000          0.230745E-03
      0.260000          0.228984E-03
      0.265000          0.227235E-03
      0.270000          0.225331E-03
      0.275000          0.223139E-03
      0.280000          0.220557E-03
      0.285000          0.217512E-03
      0.290000          0.213957E-03
      0.295000          0.209866E-03
      0.300000          0.205233E-03
      0.305000          0.200071E-03
      0.310000          0.194411E-03
      0.315000          0.188296E-03
      0.320000          0.181782E-03
      0.325000          0.174934E-03
      0.330000          0.167828E-03
      0.335000          0.160540E-03
      0.340000          0.153152E-03
      0.345000          0.145747E-03
      0.350000          0.138403E-03
      0.355000          0.131198E-03
      0.360000          0.124203E-03
      0.365000          0.117479E-03
      0.370000          0.111085E-03
      0.375000          0.105064E-03
      0.380000          0.994550E-04
      0.385000          0.942837E-04
      0.390000          0.895673E-04
      0.395000          0.853135E-04
      0.400000          0.815211E-04
      0.405000          0.781810E-04
      0.410000          0.752773E-04
      0.415000          0.727877E-04
      0.420000          0.706856E-04
      0.425000          0.689404E-04
      0.430000          0.675191E-04
      0.435000          0.663873E-04
      0.440000          0.655101E-04
      0.445000          0.648532E-04
      0.450000          0.643832E-04
      0.455000          0.640689E-04
      0.460000          0.638815E-04
      0.465000          0.637947E-04
      0.470000          0.637856E-04
      0.475000          0.638342E-04
      0.480000          0.639241E-04
      0.485000          0.640416E-04
      0.490000          0.641763E-04
      0.495000          0.643205E-04
      0.500000          0.644688E-04
