 I_abs(s)[cm^-1]/c[mg/ml]
       0.00000          0.146509E-01
      0.500000E-02      0.146141E-01
      0.100000E-01      0.145045E-01
      0.150000E-01      0.143236E-01
      0.200000E-01      0.140741E-01
      0.250000E-01      0.137596E-01
      0.300000E-01      0.133846E-01
      0.350000E-01      0.129545E-01
      0.400000E-01      0.124752E-01
      0.450000E-01      0.119531E-01
      0.500000E-01      0.113953E-01
      0.550000E-01      0.108087E-01
      0.600000E-01      0.102006E-01
      0.650000E-01      0.957796E-02
      0.700000E-01      0.894785E-02
      0.750000E-01      0.831684E-02
      0.800000E-01      0.769112E-02
      0.850000E-01      0.707636E-02
      0.900000E-01      0.647767E-02
      0.950000E-01      0.589948E-02
      0.100000          0.534560E-02
      0.105000          0.481911E-02
      0.110000          0.432245E-02
      0.115000          0.385735E-02
      0.120000          0.342495E-02
      0.125000          0.302579E-02
      0.130000          0.265987E-02
      0.135000          0.232674E-02
      0.140000          0.202553E-02
      0.145000          0.175503E-02
      0.150000          0.151377E-02
      0.155000          0.130006E-02
      0.160000          0.111206E-02
      0.165000          0.947861E-03
      0.170000          0.805476E-03
      0.175000          0.682936E-03
      0.180000          0.578302E-03
      0.185000          0.489699E-03
      0.190000          0.415335E-03
      0.195000          0.353526E-03
      0.200000          0.302698E-03
      0.205000          0.261400E-03
      0.210000          0.228304E-03
      0.215000          0.202206E-03
      0.220000          0.182024E-03
      0.225000          0.166789E-03
      0.230000          0.155646E-03
      0.235000          0.147838E-03
      0.240000          0.142709E-03
      0.245000          0.139689E-03
      0.250000          0.138286E-03
      0.255000          0.138086E-03
      0.260000          0.138739E-03
      0.265000          0.139954E-03
      0.270000          0.141493E-03
      0.275000          0.143168E-03
      0.280000          0.144829E-03
      0.285000          0.146363E-03
      0.290000          0.147688E-03
      0.295000          0.148746E-03
      0.300000          0.149504E-03
      0.305000          0.149942E-03
      0.310000          0.150056E-03
      0.315000          0.149852E-03
      0.320000          0.149343E-03
      0.325000          0.148547E-03
      0.330000          0.147484E-03
      0.335000          0.146176E-03
      0.340000          0.144644E-03
      0.345000          0.142912E-03
      0.350000          0.140997E-03
      0.355000          0.138920E-03
      0.360000          0.136698E-03
      0.365000          0.134347E-03
      0.370000          0.131883E-03
      0.375000          0.129321E-03
      0.380000          0.126676E-03
      0.385000          0.123963E-03
      0.390000          0.121198E-03
      0.395000          0.118395E-03
      0.400000          0.115570E-03
      0.405000          0.112738E-03
      0.410000          0.109916E-03
      0.415000          0.107117E-03
      0.420000          0.104357E-03
      0.425000          0.101648E-03
      0.430000          0.990020E-04
      0.435000          0.964296E-04
      0.440000          0.939394E-04
      0.445000          0.915381E-04
      0.450000          0.892310E-04
      0.455000          0.870216E-04
      0.460000          0.849119E-04
      0.465000          0.829028E-04
      0.470000          0.809942E-04
      0.475000          0.791857E-04
      0.480000          0.774762E-04
      0.485000          0.758649E-04
      0.490000          0.743512E-04
      0.495000          0.729352E-04
      0.500000          0.716173E-04
