 I_abs(s)[cm^-1]/c[mg/ml]
       0.00000          0.144367E-01
      0.500000E-02      0.143965E-01
      0.100000E-01      0.142766E-01
      0.150000E-01      0.140790E-01
      0.200000E-01      0.138067E-01
      0.250000E-01      0.134642E-01
      0.300000E-01      0.130569E-01
      0.350000E-01      0.125911E-01
      0.400000E-01      0.120738E-01
      0.450000E-01      0.115127E-01
      0.500000E-01      0.109160E-01
      0.550000E-01      0.102919E-01
      0.600000E-01      0.964868E-02
      0.650000E-01      0.899461E-02
      0.700000E-01      0.833757E-02
      0.750000E-01      0.768500E-02
      0.800000E-01      0.704378E-02
      0.850000E-01      0.642008E-02
      0.900000E-01      0.581932E-02
      0.950000E-01      0.524609E-02
      0.100000          0.470413E-02
      0.105000          0.419631E-02
      0.110000          0.372468E-02
      0.115000          0.329046E-02
      0.120000          0.289411E-02
      0.125000          0.253543E-02
      0.130000          0.221358E-02
      0.135000          0.192724E-02
      0.140000          0.167463E-02
      0.145000          0.145365E-02
      0.150000          0.126194E-02
      0.155000          0.109697E-02
      0.160000          0.956160E-03
      0.165000          0.836882E-03
      0.170000          0.736571E-03
      0.175000          0.652757E-03
      0.180000          0.583107E-03
      0.185000          0.525459E-03
      0.190000          0.477844E-03
      0.195000          0.438494E-03
      0.200000          0.405850E-03
      0.205000          0.378561E-03
      0.210000          0.355477E-03
      0.215000          0.335635E-03
      0.220000          0.318246E-03
      0.225000          0.302682E-03
      0.230000          0.288451E-03
      0.235000          0.275186E-03
      0.240000          0.262621E-03
      0.245000          0.250578E-03
      0.250000          0.238950E-03
      0.255000          0.227684E-03
      0.260000          0.216771E-03
      0.265000          0.206232E-03
      0.270000          0.196109E-03
      0.275000          0.186455E-03
      0.280000          0.177330E-03
      0.285000          0.168793E-03
      0.290000          0.160897E-03
      0.295000          0.153688E-03
      0.300000          0.147198E-03
      0.305000          0.141449E-03
      0.310000          0.136449E-03
      0.315000          0.132191E-03
      0.320000          0.128656E-03
      0.325000          0.125810E-03
      0.330000          0.123609E-03
      0.335000          0.122000E-03
      0.340000          0.120918E-03
      0.345000          0.120295E-03
      0.350000          0.120056E-03
      0.355000          0.120125E-03
      0.360000          0.120425E-03
      0.365000          0.120880E-03
      0.370000          0.121415E-03
      0.375000          0.121964E-03
      0.380000          0.122463E-03
      0.385000          0.122855E-03
      0.390000          0.123093E-03
      0.395000          0.123137E-03
      0.400000          0.122955E-03
      0.405000          0.122525E-03
      0.410000          0.121833E-03
      0.415000          0.120873E-03
      0.420000          0.119647E-03
      0.425000          0.118166E-03
      0.430000          0.116445E-03
      0.435000          0.114507E-03
      0.440000          0.112378E-03
      0.445000          0.110089E-03
      0.450000          0.107675E-03
      0.455000          0.105172E-03
      0.460000          0.102615E-03
      0.465000          0.100044E-03
      0.470000          0.974935E-04
      0.475000          0.949990E-04
      0.480000          0.925925E-04
      0.485000          0.903031E-04
      0.490000          0.881559E-04
      0.495000          0.861718E-04
      0.500000          0.843665E-04
