 I_abs(s)[cm^-1]/c[mg/ml]
       0.00000          0.145317E-01
      0.500000E-02      0.144950E-01
      0.100000E-01      0.143856E-01
      0.150000E-01      0.142049E-01
      0.200000E-01      0.139556E-01
      0.250000E-01      0.136413E-01
      0.300000E-01      0.132665E-01
      0.350000E-01      0.128363E-01
      0.400000E-01      0.123566E-01
      0.450000E-01      0.118340E-01
      0.500000E-01      0.112752E-01
      0.550000E-01      0.106872E-01
      0.600000E-01      0.100773E-01
      0.650000E-01      0.945256E-02
      0.700000E-01      0.882005E-02
      0.750000E-01      0.818643E-02
      0.800000E-01      0.755800E-02
      0.850000E-01      0.694057E-02
      0.900000E-01      0.633939E-02
      0.950000E-01      0.575908E-02
      0.100000          0.520359E-02
      0.105000          0.467617E-02
      0.110000          0.417939E-02
      0.115000          0.371513E-02
      0.120000          0.328463E-02
      0.125000          0.288849E-02
      0.130000          0.252677E-02
      0.135000          0.219900E-02
      0.140000          0.190429E-02
      0.145000          0.164137E-02
      0.150000          0.140865E-02
      0.155000          0.120432E-02
      0.160000          0.102639E-02
      0.165000          0.872772E-03
      0.170000          0.741309E-03
      0.175000          0.629845E-03
      0.180000          0.536258E-03
      0.185000          0.458499E-03
      0.190000          0.394617E-03
      0.195000          0.342784E-03
      0.200000          0.301305E-03
      0.205000          0.268628E-03
      0.210000          0.243351E-03
      0.215000          0.224218E-03
      0.220000          0.210115E-03
      0.225000          0.200065E-03
      0.230000          0.193219E-03
      0.235000          0.188847E-03
      0.240000          0.186324E-03
      0.245000          0.185126E-03
      0.250000          0.184811E-03
      0.255000          0.185018E-03
      0.260000          0.185452E-03
      0.265000          0.185877E-03
      0.270000          0.186110E-03
      0.275000          0.186012E-03
      0.280000          0.185484E-03
      0.285000          0.184460E-03
      0.290000          0.182905E-03
      0.295000          0.180808E-03
      0.300000          0.178177E-03
      0.305000          0.175041E-03
      0.310000          0.171442E-03
      0.315000          0.167432E-03
      0.320000          0.163073E-03
      0.325000          0.158430E-03
      0.330000          0.153572E-03
      0.335000          0.148570E-03
      0.340000          0.143492E-03
      0.345000          0.138402E-03
      0.350000          0.133359E-03
      0.355000          0.128418E-03
      0.360000          0.123624E-03
      0.365000          0.119017E-03
      0.370000          0.114626E-03
      0.375000          0.110474E-03
      0.380000          0.106577E-03
      0.385000          0.102943E-03
      0.390000          0.995723E-04
      0.395000          0.964623E-04
      0.400000          0.936042E-04
      0.405000          0.909857E-04
      0.410000          0.885921E-04
      0.415000          0.864068E-04
      0.420000          0.844126E-04
      0.425000          0.825919E-04
      0.430000          0.809277E-04
      0.435000          0.794042E-04
      0.440000          0.780069E-04
      0.445000          0.767228E-04
      0.450000          0.755411E-04
      0.455000          0.744527E-04
      0.460000          0.734501E-04
      0.465000          0.725277E-04
      0.470000          0.716813E-04
      0.475000          0.709080E-04
      0.480000          0.702057E-04
      0.485000          0.695735E-04
      0.490000          0.690106E-04
      0.495000          0.685167E-04
      0.500000          0.680915E-04
