 I_abs(s)[cm^-1]/c[mg/ml]
       0.00000          0.145159E-01
      0.500000E-02      0.144826E-01
      0.100000E-01      0.143834E-01
      0.150000E-01      0.142193E-01
      0.200000E-01      0.139925E-01
      0.250000E-01      0.137059E-01
      0.300000E-01      0.133631E-01
      0.350000E-01      0.129681E-01
      0.400000E-01      0.125260E-01
      0.450000E-01      0.120418E-01
      0.500000E-01      0.115213E-01
      0.550000E-01      0.109704E-01
      0.600000E-01      0.103952E-01
      0.650000E-01      0.980197E-02
      0.700000E-01      0.919676E-02
      0.750000E-01      0.858564E-02
      0.800000E-01      0.797438E-02
      0.850000E-01      0.736847E-02
      0.900000E-01      0.677302E-02
      0.950000E-01      0.619266E-02
      0.100000          0.563157E-02
      0.105000          0.509334E-02
      0.110000          0.458105E-02
      0.115000          0.409716E-02
      0.120000          0.364357E-02
      0.125000          0.322163E-02
      0.130000          0.283213E-02
      0.135000          0.247535E-02
      0.140000          0.215109E-02
      0.145000          0.185874E-02
      0.150000          0.159730E-02
      0.155000          0.136545E-02
      0.160000          0.116161E-02
      0.165000          0.983992E-03
      0.170000          0.830647E-03
      0.175000          0.699527E-03
      0.180000          0.588538E-03
      0.185000          0.495578E-03
      0.190000          0.418579E-03
      0.195000          0.355547E-03
      0.200000          0.304584E-03
      0.205000          0.263920E-03
      0.210000          0.231919E-03
      0.215000          0.207103E-03
      0.220000          0.188149E-03
      0.225000          0.173894E-03
      0.230000          0.163335E-03
      0.235000          0.155619E-03
      0.240000          0.150036E-03
      0.245000          0.146005E-03
      0.250000          0.143065E-03
      0.255000          0.140858E-03
      0.260000          0.139115E-03
      0.265000          0.137642E-03
      0.270000          0.136308E-03
      0.275000          0.135028E-03
      0.280000          0.133754E-03
      0.285000          0.132464E-03
      0.290000          0.131156E-03
      0.295000          0.129835E-03
      0.300000          0.128512E-03
      0.305000          0.127198E-03
      0.310000          0.125900E-03
      0.315000          0.124621E-03
      0.320000          0.123359E-03
      0.325000          0.122106E-03
      0.330000          0.120850E-03
      0.335000          0.119577E-03
      0.340000          0.118267E-03
      0.345000          0.116902E-03
      0.350000          0.115467E-03
      0.355000          0.113946E-03
      0.360000          0.112329E-03
      0.365000          0.110609E-03
      0.370000          0.108786E-03
      0.375000          0.106864E-03
      0.380000          0.104852E-03
      0.385000          0.102765E-03
      0.390000          0.100623E-03
      0.395000          0.984475E-04
      0.400000          0.962647E-04
      0.405000          0.941012E-04
      0.410000          0.919843E-04
      0.415000          0.899409E-04
      0.420000          0.879960E-04
      0.425000          0.861724E-04
      0.430000          0.844894E-04
      0.435000          0.829627E-04
      0.440000          0.816037E-04
      0.445000          0.804193E-04
      0.450000          0.794118E-04
      0.455000          0.785793E-04
      0.460000          0.779157E-04
      0.465000          0.774113E-04
      0.470000          0.770531E-04
      0.475000          0.768256E-04
      0.480000          0.767112E-04
      0.485000          0.766914E-04
      0.490000          0.767466E-04
      0.495000          0.768575E-04
      0.500000          0.770054E-04
