 I_abs(s)[cm^-1]/c[mg/ml]
       0.00000          0.144525E-01
      0.500000E-02      0.144165E-01
      0.100000E-01      0.143089E-01
      0.150000E-01      0.141312E-01
      0.200000E-01      0.138860E-01
      0.250000E-01      0.135767E-01
      0.300000E-01      0.132075E-01
      0.350000E-01      0.127835E-01
      0.400000E-01      0.123103E-01
      0.450000E-01      0.117942E-01
      0.500000E-01      0.112419E-01
      0.550000E-01      0.106602E-01
      0.600000E-01      0.100561E-01
      0.650000E-01      0.943668E-02
      0.700000E-01      0.880891E-02
      0.750000E-01      0.817946E-02
      0.800000E-01      0.755465E-02
      0.850000E-01      0.694036E-02
      0.900000E-01      0.634193E-02
      0.950000E-01      0.576412E-02
      0.100000          0.521102E-02
      0.105000          0.468606E-02
      0.110000          0.419194E-02
      0.115000          0.373069E-02
      0.120000          0.330367E-02
      0.125000          0.291157E-02
      0.130000          0.255450E-02
      0.135000          0.223199E-02
      0.140000          0.194313E-02
      0.145000          0.168655E-02
      0.150000          0.146054E-02
      0.155000          0.126313E-02
      0.160000          0.109213E-02
      0.165000          0.945241E-03
      0.170000          0.820066E-03
      0.175000          0.714217E-03
      0.180000          0.625347E-03
      0.185000          0.551199E-03
      0.190000          0.489644E-03
      0.195000          0.438710E-03
      0.200000          0.396604E-03
      0.205000          0.361724E-03
      0.210000          0.332667E-03
      0.215000          0.308230E-03
      0.220000          0.287400E-03
      0.225000          0.269350E-03
      0.230000          0.253418E-03
      0.235000          0.239095E-03
      0.240000          0.226003E-03
      0.245000          0.213878E-03
      0.250000          0.202547E-03
      0.255000          0.191913E-03
      0.260000          0.181930E-03
      0.265000          0.172594E-03
      0.270000          0.163923E-03
      0.275000          0.155947E-03
      0.280000          0.148698E-03
      0.285000          0.142200E-03
      0.290000          0.136466E-03
      0.295000          0.131494E-03
      0.300000          0.127264E-03
      0.305000          0.123739E-03
      0.310000          0.120866E-03
      0.315000          0.118579E-03
      0.320000          0.116800E-03
      0.325000          0.115444E-03
      0.330000          0.114424E-03
      0.335000          0.113652E-03
      0.340000          0.113042E-03
      0.345000          0.112515E-03
      0.350000          0.112001E-03
      0.355000          0.111441E-03
      0.360000          0.110788E-03
      0.365000          0.110005E-03
      0.370000          0.109070E-03
      0.375000          0.107975E-03
      0.380000          0.106720E-03
      0.385000          0.105317E-03
      0.390000          0.103786E-03
      0.395000          0.102155E-03
      0.400000          0.100456E-03
      0.405000          0.987229E-04
      0.410000          0.969931E-04
      0.415000          0.953017E-04
      0.420000          0.936816E-04
      0.425000          0.921620E-04
      0.430000          0.907672E-04
      0.435000          0.895156E-04
      0.440000          0.884190E-04
      0.445000          0.874828E-04
      0.450000          0.867054E-04
      0.455000          0.860786E-04
      0.460000          0.855886E-04
      0.465000          0.852158E-04
      0.470000          0.849364E-04
      0.475000          0.847233E-04
      0.480000          0.845468E-04
      0.485000          0.843763E-04
      0.490000          0.841810E-04
      0.495000          0.839312E-04
      0.500000          0.835995E-04
