 I_abs(s)[cm^-1]/c[mg/ml]
       0.00000          0.146668E-01
      0.500000E-02      0.146323E-01
      0.100000E-01      0.145293E-01
      0.150000E-01      0.143592E-01
      0.200000E-01      0.141241E-01
      0.250000E-01      0.138271E-01
      0.300000E-01      0.134720E-01
      0.350000E-01      0.130631E-01
      0.400000E-01      0.126057E-01
      0.450000E-01      0.121053E-01
      0.500000E-01      0.115678E-01
      0.550000E-01      0.109995E-01
      0.600000E-01      0.104070E-01
      0.650000E-01      0.979659E-02
      0.700000E-01      0.917487E-02
      0.750000E-01      0.854813E-02
      0.800000E-01      0.792242E-02
      0.850000E-01      0.730349E-02
      0.900000E-01      0.669663E-02
      0.950000E-01      0.610666E-02
      0.100000          0.553786E-02
      0.105000          0.499393E-02
      0.110000          0.447796E-02
      0.115000          0.399242E-02
      0.120000          0.353918E-02
      0.125000          0.311947E-02
      0.130000          0.273397E-02
      0.135000          0.238281E-02
      0.140000          0.206560E-02
      0.145000          0.178153E-02
      0.150000          0.152938E-02
      0.155000          0.130759E-02
      0.160000          0.111433E-02
      0.165000          0.947585E-03
      0.170000          0.805158E-03
      0.175000          0.684777E-03
      0.180000          0.584131E-03
      0.185000          0.500922E-03
      0.190000          0.432908E-03
      0.195000          0.377942E-03
      0.200000          0.334002E-03
      0.205000          0.299218E-03
      0.210000          0.271886E-03
      0.215000          0.250484E-03
      0.220000          0.233677E-03
      0.225000          0.220315E-03
      0.230000          0.209432E-03
      0.235000          0.200236E-03
      0.240000          0.192098E-03
      0.245000          0.184538E-03
      0.250000          0.177207E-03
      0.255000          0.169874E-03
      0.260000          0.162404E-03
      0.265000          0.154743E-03
      0.270000          0.146901E-03
      0.275000          0.138934E-03
      0.280000          0.130933E-03
      0.285000          0.123008E-03
      0.290000          0.115279E-03
      0.295000          0.107864E-03
      0.300000          0.100875E-03
      0.305000          0.944100E-04
      0.310000          0.885499E-04
      0.315000          0.833557E-04
      0.320000          0.788680E-04
      0.325000          0.751067E-04
      0.330000          0.720720E-04
      0.335000          0.697465E-04
      0.340000          0.680971E-04
      0.345000          0.670780E-04
      0.350000          0.666332E-04
      0.355000          0.666992E-04
      0.360000          0.672083E-04
      0.365000          0.680902E-04
      0.370000          0.692749E-04
      0.375000          0.706943E-04
      0.380000          0.722835E-04
      0.385000          0.739824E-04
      0.390000          0.757364E-04
      0.395000          0.774967E-04
      0.400000          0.792206E-04
      0.405000          0.808717E-04
      0.410000          0.824196E-04
      0.415000          0.838394E-04
      0.420000          0.851115E-04
      0.425000          0.862207E-04
      0.430000          0.871563E-04
      0.435000          0.879109E-04
      0.440000          0.884805E-04
      0.445000          0.888635E-04
      0.450000          0.890609E-04
      0.455000          0.890755E-04
      0.460000          0.889119E-04
      0.465000          0.885763E-04
      0.470000          0.880763E-04
      0.475000          0.874207E-04
      0.480000          0.866199E-04
      0.485000          0.856854E-04
      0.490000          0.846297E-04
      0.495000          0.834668E-04
      0.500000          0.822116E-04
