 I_abs(s)[cm^-1]/c[mg/ml]
       0.00000          0.145793E-01
      0.500000E-02      0.145456E-01
      0.100000E-01      0.144450E-01
      0.150000E-01      0.142787E-01
      0.200000E-01      0.140489E-01
      0.250000E-01      0.137584E-01
      0.300000E-01      0.134110E-01
      0.350000E-01      0.130109E-01
      0.400000E-01      0.125631E-01
      0.450000E-01      0.120729E-01
      0.500000E-01      0.115460E-01
      0.550000E-01      0.109886E-01
      0.600000E-01      0.104069E-01
      0.650000E-01      0.980725E-02
      0.700000E-01      0.919584E-02
      0.750000E-01      0.857884E-02
      0.800000E-01      0.796217E-02
      0.850000E-01      0.735141E-02
      0.900000E-01      0.675174E-02
      0.950000E-01      0.616790E-02
      0.100000          0.560411E-02
      0.105000          0.506401E-02
      0.110000          0.455069E-02
      0.115000          0.406664E-02
      0.120000          0.361375E-02
      0.125000          0.319331E-02
      0.130000          0.280607E-02
      0.135000          0.245225E-02
      0.140000          0.213157E-02
      0.145000          0.184332E-02
      0.150000          0.158639E-02
      0.155000          0.135936E-02
      0.160000          0.116051E-02
      0.165000          0.987922E-03
      0.170000          0.839534E-03
      0.175000          0.713174E-03
      0.180000          0.606625E-03
      0.185000          0.517678E-03
      0.190000          0.444167E-03
      0.195000          0.384011E-03
      0.200000          0.335243E-03
      0.205000          0.296036E-03
      0.210000          0.264720E-03
      0.215000          0.239796E-03
      0.220000          0.219943E-03
      0.225000          0.204015E-03
      0.230000          0.191043E-03
      0.235000          0.180226E-03
      0.240000          0.170918E-03
      0.245000          0.162618E-03
      0.250000          0.154953E-03
      0.255000          0.147660E-03
      0.260000          0.140574E-03
      0.265000          0.133607E-03
      0.270000          0.126732E-03
      0.275000          0.119970E-03
      0.280000          0.113371E-03
      0.285000          0.107009E-03
      0.290000          0.100965E-03
      0.295000          0.953197E-04
      0.300000          0.901481E-04
      0.305000          0.855126E-04
      0.310000          0.814599E-04
      0.315000          0.780190E-04
      0.320000          0.752006E-04
      0.325000          0.729972E-04
      0.330000          0.713850E-04
      0.335000          0.703254E-04
      0.340000          0.697681E-04
      0.345000          0.696537E-04
      0.350000          0.699164E-04
      0.355000          0.704875E-04
      0.360000          0.712977E-04
      0.365000          0.722795E-04
      0.370000          0.733695E-04
      0.375000          0.745100E-04
      0.380000          0.756501E-04
      0.385000          0.767466E-04
      0.390000          0.777645E-04
      0.395000          0.786768E-04
      0.400000          0.794644E-04
      0.405000          0.801155E-04
      0.410000          0.806247E-04
      0.415000          0.809924E-04
      0.420000          0.812234E-04
      0.425000          0.813263E-04
      0.430000          0.813122E-04
      0.435000          0.811939E-04
      0.440000          0.809851E-04
      0.445000          0.806996E-04
      0.450000          0.803506E-04
      0.455000          0.799506E-04
      0.460000          0.795108E-04
      0.465000          0.790413E-04
      0.470000          0.785504E-04
      0.475000          0.780454E-04
      0.480000          0.775320E-04
      0.485000          0.770154E-04
      0.490000          0.764995E-04
      0.495000          0.759880E-04
      0.500000          0.754840E-04
