 I_abs(s)[cm^-1]/c[mg/ml]
       0.00000          0.145159E-01
      0.500000E-02      0.144807E-01
      0.100000E-01      0.143758E-01
      0.150000E-01      0.142025E-01
      0.200000E-01      0.139631E-01
      0.250000E-01      0.136610E-01
      0.300000E-01      0.133000E-01
      0.350000E-01      0.128850E-01
      0.400000E-01      0.124214E-01
      0.450000E-01      0.119149E-01
      0.500000E-01      0.113718E-01
      0.550000E-01      0.107988E-01
      0.600000E-01      0.102025E-01
      0.650000E-01      0.958956E-02
      0.700000E-01      0.896673E-02
      0.750000E-01      0.834040E-02
      0.800000E-01      0.771671E-02
      0.850000E-01      0.710139E-02
      0.900000E-01      0.649970E-02
      0.950000E-01      0.591637E-02
      0.100000          0.535552E-02
      0.105000          0.482067E-02
      0.110000          0.431469E-02
      0.115000          0.383980E-02
      0.120000          0.339759E-02
      0.125000          0.298907E-02
      0.130000          0.261464E-02
      0.135000          0.227418E-02
      0.140000          0.196711E-02
      0.145000          0.169242E-02
      0.150000          0.144874E-02
      0.155000          0.123442E-02
      0.160000          0.104758E-02
      0.165000          0.886156E-03
      0.170000          0.748001E-03
      0.175000          0.630904E-03
      0.180000          0.532654E-03
      0.185000          0.451082E-03
      0.190000          0.384095E-03
      0.195000          0.329715E-03
      0.200000          0.286090E-03
      0.205000          0.251524E-03
      0.210000          0.224478E-03
      0.215000          0.203583E-03
      0.220000          0.187635E-03
      0.225000          0.175594E-03
      0.230000          0.166576E-03
      0.235000          0.159842E-03
      0.240000          0.154788E-03
      0.245000          0.150927E-03
      0.250000          0.147881E-03
      0.255000          0.145361E-03
      0.260000          0.143153E-03
      0.265000          0.141108E-03
      0.270000          0.139129E-03
      0.275000          0.137155E-03
      0.280000          0.135158E-03
      0.285000          0.133130E-03
      0.290000          0.131075E-03
      0.295000          0.129010E-03
      0.300000          0.126952E-03
      0.305000          0.124921E-03
      0.310000          0.122935E-03
      0.315000          0.121009E-03
      0.320000          0.119156E-03
      0.325000          0.117382E-03
      0.330000          0.115692E-03
      0.335000          0.114087E-03
      0.340000          0.112565E-03
      0.345000          0.111122E-03
      0.350000          0.109751E-03
      0.355000          0.108447E-03
      0.360000          0.107203E-03
      0.365000          0.106010E-03
      0.370000          0.104862E-03
      0.375000          0.103754E-03
      0.380000          0.102678E-03
      0.385000          0.101630E-03
      0.390000          0.100607E-03
      0.395000          0.996037E-04
      0.400000          0.986184E-04
      0.405000          0.976489E-04
      0.410000          0.966939E-04
      0.415000          0.957528E-04
      0.420000          0.948255E-04
      0.425000          0.939124E-04
      0.430000          0.930145E-04
      0.435000          0.921336E-04
      0.440000          0.912715E-04
      0.445000          0.904311E-04
      0.450000          0.896151E-04
      0.455000          0.888272E-04
      0.460000          0.880709E-04
      0.465000          0.873503E-04
      0.470000          0.866693E-04
      0.475000          0.860322E-04
      0.480000          0.854427E-04
      0.485000          0.849045E-04
      0.490000          0.844207E-04
      0.495000          0.839938E-04
      0.500000          0.836256E-04
