 I_abs(s)[cm^-1]/c[mg/ml]
       0.00000          0.144842E-01
      0.500000E-02      0.144484E-01
      0.100000E-01      0.143414E-01
      0.150000E-01      0.141648E-01
      0.200000E-01      0.139211E-01
      0.250000E-01      0.136137E-01
      0.300000E-01      0.132467E-01
      0.350000E-01      0.128251E-01
      0.400000E-01      0.123547E-01
      0.450000E-01      0.118415E-01
      0.500000E-01      0.112921E-01
      0.550000E-01      0.107133E-01
      0.600000E-01      0.101121E-01
      0.650000E-01      0.949541E-02
      0.700000E-01      0.887007E-02
      0.750000E-01      0.824268E-02
      0.800000E-01      0.761947E-02
      0.850000E-01      0.700624E-02
      0.900000E-01      0.640826E-02
      0.950000E-01      0.583021E-02
      0.100000          0.527612E-02
      0.105000          0.474939E-02
      0.110000          0.425270E-02
      0.115000          0.378810E-02
      0.120000          0.335693E-02
      0.125000          0.295996E-02
      0.130000          0.259735E-02
      0.135000          0.226873E-02
      0.140000          0.197327E-02
      0.145000          0.170975E-02
      0.150000          0.147660E-02
      0.155000          0.127198E-02
      0.160000          0.109388E-02
      0.165000          0.940138E-03
      0.170000          0.808529E-03
      0.175000          0.696811E-03
      0.180000          0.602776E-03
      0.185000          0.524290E-03
      0.190000          0.459325E-03
      0.195000          0.405990E-03
      0.200000          0.362545E-03
      0.205000          0.327413E-03
      0.210000          0.299191E-03
      0.215000          0.276642E-03
      0.220000          0.258696E-03
      0.225000          0.244441E-03
      0.230000          0.233106E-03
      0.235000          0.224054E-03
      0.240000          0.216765E-03
      0.245000          0.210818E-03
      0.250000          0.205879E-03
      0.255000          0.201685E-03
      0.260000          0.198031E-03
      0.265000          0.194759E-03
      0.270000          0.191743E-03
      0.275000          0.188888E-03
      0.280000          0.186118E-03
      0.285000          0.183369E-03
      0.290000          0.180593E-03
      0.295000          0.177745E-03
      0.300000          0.174790E-03
      0.305000          0.171698E-03
      0.310000          0.168445E-03
      0.315000          0.165013E-03
      0.320000          0.161391E-03
      0.325000          0.157575E-03
      0.330000          0.153567E-03
      0.335000          0.149379E-03
      0.340000          0.145028E-03
      0.345000          0.140539E-03
      0.350000          0.135943E-03
      0.355000          0.131275E-03
      0.360000          0.126575E-03
      0.365000          0.121884E-03
      0.370000          0.117246E-03
      0.375000          0.112701E-03
      0.380000          0.108290E-03
      0.385000          0.104049E-03
      0.390000          0.100009E-03
      0.395000          0.961971E-04
      0.400000          0.926330E-04
      0.405000          0.893303E-04
      0.410000          0.862962E-04
      0.415000          0.835314E-04
      0.420000          0.810306E-04
      0.425000          0.787831E-04
      0.430000          0.767739E-04
      0.435000          0.749841E-04
      0.440000          0.733923E-04
      0.445000          0.719753E-04
      0.450000          0.707093E-04
      0.455000          0.695711E-04
      0.460000          0.685382E-04
      0.465000          0.675904E-04
      0.470000          0.667099E-04
      0.475000          0.658818E-04
      0.480000          0.650947E-04
      0.485000          0.643405E-04
      0.490000          0.636145E-04
      0.495000          0.629152E-04
      0.500000          0.622442E-04
