 I_abs(s)[cm^-1]/c[mg/ml]
       0.00000          0.146509E-01
      0.500000E-02      0.146146E-01
      0.100000E-01      0.145064E-01
      0.150000E-01      0.143278E-01
      0.200000E-01      0.140814E-01
      0.250000E-01      0.137708E-01
      0.300000E-01      0.134002E-01
      0.350000E-01      0.129749E-01
      0.400000E-01      0.125006E-01
      0.450000E-01      0.119837E-01
      0.500000E-01      0.114310E-01
      0.550000E-01      0.108493E-01
      0.600000E-01      0.102457E-01
      0.650000E-01      0.962725E-02
      0.700000E-01      0.900084E-02
      0.750000E-01      0.837302E-02
      0.800000E-01      0.774995E-02
      0.850000E-01      0.713735E-02
      0.900000E-01      0.654031E-02
      0.950000E-01      0.596335E-02
      0.100000          0.541031E-02
      0.105000          0.488433E-02
      0.110000          0.438791E-02
      0.115000          0.392283E-02
      0.120000          0.349026E-02
      0.125000          0.309076E-02
      0.130000          0.272435E-02
      0.135000          0.239056E-02
      0.140000          0.208849E-02
      0.145000          0.181691E-02
      0.150000          0.157428E-02
      0.155000          0.135889E-02
      0.160000          0.116884E-02
      0.165000          0.100216E-02
      0.170000          0.856857E-03
      0.175000          0.730941E-03
      0.180000          0.622478E-03
      0.185000          0.529620E-03
      0.190000          0.450625E-03
      0.195000          0.383880E-03
      0.200000          0.327903E-03
      0.205000          0.281351E-03
      0.210000          0.243020E-03
      0.215000          0.211832E-03
      0.220000          0.186835E-03
      0.225000          0.167187E-03
      0.230000          0.152145E-03
      0.235000          0.141053E-03
      0.240000          0.133328E-03
      0.245000          0.128453E-03
      0.250000          0.125962E-03
      0.255000          0.125436E-03
      0.260000          0.126491E-03
      0.265000          0.128778E-03
      0.270000          0.131978E-03
      0.275000          0.135796E-03
      0.280000          0.139967E-03
      0.285000          0.144249E-03
      0.290000          0.148430E-03
      0.295000          0.152324E-03
      0.300000          0.155774E-03
      0.305000          0.158652E-03
      0.310000          0.160861E-03
      0.315000          0.162332E-03
      0.320000          0.163026E-03
      0.325000          0.162933E-03
      0.330000          0.162064E-03
      0.335000          0.160458E-03
      0.340000          0.158169E-03
      0.345000          0.155270E-03
      0.350000          0.151844E-03
      0.355000          0.147983E-03
      0.360000          0.143785E-03
      0.365000          0.139347E-03
      0.370000          0.134764E-03
      0.375000          0.130124E-03
      0.380000          0.125510E-03
      0.385000          0.120993E-03
      0.390000          0.116633E-03
      0.395000          0.112479E-03
      0.400000          0.108566E-03
      0.405000          0.104919E-03
      0.410000          0.101550E-03
      0.415000          0.984613E-04
      0.420000          0.956461E-04
      0.425000          0.930900E-04
      0.430000          0.907728E-04
      0.435000          0.886704E-04
      0.440000          0.867556E-04
      0.445000          0.850008E-04
      0.450000          0.833784E-04
      0.455000          0.818625E-04
      0.460000          0.804300E-04
      0.465000          0.790611E-04
      0.470000          0.777398E-04
      0.475000          0.764543E-04
      0.480000          0.751972E-04
      0.485000          0.739650E-04
      0.490000          0.727581E-04
      0.495000          0.715802E-04
      0.500000          0.704377E-04
