 I_abs(s)[cm^-1]/c[mg/ml]
       0.00000          0.143578E-01
      0.500000E-02      0.143216E-01
      0.100000E-01      0.142134E-01
      0.150000E-01      0.140347E-01
      0.200000E-01      0.137883E-01
      0.250000E-01      0.134775E-01
      0.300000E-01      0.131068E-01
      0.350000E-01      0.126813E-01
      0.400000E-01      0.122069E-01
      0.450000E-01      0.116900E-01
      0.500000E-01      0.111372E-01
      0.550000E-01      0.105556E-01
      0.600000E-01      0.995234E-02
      0.650000E-01      0.933463E-02
      0.700000E-01      0.870941E-02
      0.750000E-01      0.808341E-02
      0.800000E-01      0.746298E-02
      0.850000E-01      0.685398E-02
      0.900000E-01      0.626170E-02
      0.950000E-01      0.569080E-02
      0.100000          0.514530E-02
      0.105000          0.462846E-02
      0.110000          0.414288E-02
      0.115000          0.369041E-02
      0.120000          0.327225E-02
      0.125000          0.288894E-02
      0.130000          0.254040E-02
      0.135000          0.222604E-02
      0.140000          0.194478E-02
      0.145000          0.169516E-02
      0.150000          0.147537E-02
      0.155000          0.128335E-02
      0.160000          0.111688E-02
      0.165000          0.973626E-03
      0.170000          0.851195E-03
      0.175000          0.747226E-03
      0.180000          0.659416E-03
      0.185000          0.585572E-03
      0.190000          0.523644E-03
      0.195000          0.471748E-03
      0.200000          0.428186E-03
      0.205000          0.391456E-03
      0.210000          0.360252E-03
      0.215000          0.333465E-03
      0.220000          0.310170E-03
      0.225000          0.289616E-03
      0.230000          0.271207E-03
      0.235000          0.254489E-03
      0.240000          0.239124E-03
      0.245000          0.224876E-03
      0.250000          0.211589E-03
      0.255000          0.199169E-03
      0.260000          0.187567E-03
      0.265000          0.176766E-03
      0.270000          0.166764E-03
      0.275000          0.157572E-03
      0.280000          0.149196E-03
      0.285000          0.141638E-03
      0.290000          0.134891E-03
      0.295000          0.128935E-03
      0.300000          0.123737E-03
      0.305000          0.119253E-03
      0.310000          0.115430E-03
      0.315000          0.112206E-03
      0.320000          0.109515E-03
      0.325000          0.107286E-03
      0.330000          0.105452E-03
      0.335000          0.103947E-03
      0.340000          0.102710E-03
      0.345000          0.101687E-03
      0.350000          0.100829E-03
      0.355000          0.100100E-03
      0.360000          0.994686E-04
      0.365000          0.989118E-04
      0.370000          0.984149E-04
      0.375000          0.979686E-04
      0.380000          0.975689E-04
      0.385000          0.972155E-04
      0.390000          0.969103E-04
      0.395000          0.966560E-04
      0.400000          0.964552E-04
      0.405000          0.963092E-04
      0.410000          0.962169E-04
      0.415000          0.961745E-04
      0.420000          0.961750E-04
      0.425000          0.962079E-04
      0.430000          0.962596E-04
      0.435000          0.963135E-04
      0.440000          0.963505E-04
      0.445000          0.963497E-04
      0.450000          0.962892E-04
      0.455000          0.961470E-04
      0.460000          0.959016E-04
      0.465000          0.955332E-04
      0.470000          0.950241E-04
      0.475000          0.943599E-04
      0.480000          0.935296E-04
      0.485000          0.925266E-04
      0.490000          0.913487E-04
      0.495000          0.899983E-04
      0.500000          0.884825E-04
