 I_abs(s)[cm^-1]/c[mg/ml]
       0.00000          0.144921E-01
      0.500000E-02      0.144540E-01
      0.100000E-01      0.143404E-01
      0.150000E-01      0.141530E-01
      0.200000E-01      0.138944E-01
      0.250000E-01      0.135686E-01
      0.300000E-01      0.131802E-01
      0.350000E-01      0.127347E-01
      0.400000E-01      0.122385E-01
      0.450000E-01      0.116983E-01
      0.500000E-01      0.111214E-01
      0.550000E-01      0.105154E-01
      0.600000E-01      0.988796E-02
      0.650000E-01      0.924663E-02
      0.700000E-01      0.859891E-02
      0.750000E-01      0.795197E-02
      0.800000E-01      0.731254E-02
      0.850000E-01      0.668681E-02
      0.900000E-01      0.608036E-02
      0.950000E-01      0.549808E-02
      0.100000          0.494409E-02
      0.105000          0.442177E-02
      0.110000          0.393370E-02
      0.115000          0.348167E-02
      0.120000          0.306676E-02
      0.125000          0.268931E-02
      0.130000          0.234904E-02
      0.135000          0.204507E-02
      0.140000          0.177601E-02
      0.145000          0.154005E-02
      0.150000          0.133505E-02
      0.155000          0.115861E-02
      0.160000          0.100814E-02
      0.165000          0.880977E-03
      0.170000          0.774417E-03
      0.175000          0.685812E-03
      0.180000          0.612606E-03
      0.185000          0.552392E-03
      0.190000          0.502945E-03
      0.195000          0.462251E-03
      0.200000          0.428523E-03
      0.205000          0.400212E-03
      0.210000          0.376006E-03
      0.215000          0.354824E-03
      0.220000          0.335802E-03
      0.225000          0.318277E-03
      0.230000          0.301768E-03
      0.235000          0.285944E-03
      0.240000          0.270611E-03
      0.245000          0.255676E-03
      0.250000          0.241131E-03
      0.255000          0.227023E-03
      0.260000          0.213441E-03
      0.265000          0.200489E-03
      0.270000          0.188280E-03
      0.275000          0.176917E-03
      0.280000          0.166485E-03
      0.285000          0.157048E-03
      0.290000          0.148641E-03
      0.295000          0.141272E-03
      0.300000          0.134920E-03
      0.305000          0.129541E-03
      0.310000          0.125067E-03
      0.315000          0.121412E-03
      0.320000          0.118481E-03
      0.325000          0.116166E-03
      0.330000          0.114361E-03
      0.335000          0.112958E-03
      0.340000          0.111857E-03
      0.345000          0.110963E-03
      0.350000          0.110195E-03
      0.355000          0.109482E-03
      0.360000          0.108767E-03
      0.365000          0.108006E-03
      0.370000          0.107169E-03
      0.375000          0.106235E-03
      0.380000          0.105197E-03
      0.385000          0.104054E-03
      0.390000          0.102813E-03
      0.395000          0.101487E-03
      0.400000          0.100092E-03
      0.405000          0.986468E-04
      0.410000          0.971697E-04
      0.415000          0.956789E-04
      0.420000          0.941912E-04
      0.425000          0.927212E-04
      0.430000          0.912808E-04
      0.435000          0.898795E-04
      0.440000          0.885236E-04
      0.445000          0.872175E-04
      0.450000          0.859631E-04
      0.455000          0.847605E-04
      0.460000          0.836090E-04
      0.465000          0.825068E-04
      0.470000          0.814519E-04
      0.475000          0.804425E-04
      0.480000          0.794775E-04
      0.485000          0.785563E-04
      0.490000          0.776795E-04
      0.495000          0.768487E-04
      0.500000          0.760667E-04
