 I_abs(s)[cm^-1]/c[mg/ml]
       0.00000          0.145079E-01
      0.500000E-02      0.144720E-01
      0.100000E-01      0.143648E-01
      0.150000E-01      0.141879E-01
      0.200000E-01      0.139438E-01
      0.250000E-01      0.136360E-01
      0.300000E-01      0.132689E-01
      0.350000E-01      0.128475E-01
      0.400000E-01      0.123777E-01
      0.450000E-01      0.118657E-01
      0.500000E-01      0.113180E-01
      0.550000E-01      0.107418E-01
      0.600000E-01      0.101439E-01
      0.650000E-01      0.953126E-02
      0.700000E-01      0.891078E-02
      0.750000E-01      0.828894E-02
      0.800000E-01      0.767189E-02
      0.850000E-01      0.706528E-02
      0.900000E-01      0.647423E-02
      0.950000E-01      0.590321E-02
      0.100000          0.535608E-02
      0.105000          0.483601E-02
      0.110000          0.434549E-02
      0.115000          0.388636E-02
      0.120000          0.345980E-02
      0.125000          0.306643E-02
      0.130000          0.270629E-02
      0.135000          0.237893E-02
      0.140000          0.208350E-02
      0.145000          0.181877E-02
      0.150000          0.158321E-02
      0.155000          0.137506E-02
      0.160000          0.119242E-02
      0.165000          0.103325E-02
      0.170000          0.895486E-03
      0.175000          0.777049E-03
      0.180000          0.675896E-03
      0.185000          0.590059E-03
      0.190000          0.517666E-03
      0.195000          0.456966E-03
      0.200000          0.406341E-03
      0.205000          0.364318E-03
      0.210000          0.329566E-03
      0.215000          0.300903E-03
      0.220000          0.277287E-03
      0.225000          0.257812E-03
      0.230000          0.241698E-03
      0.235000          0.228282E-03
      0.240000          0.217006E-03
      0.245000          0.207407E-03
      0.250000          0.199106E-03
      0.255000          0.191797E-03
      0.260000          0.185237E-03
      0.265000          0.179237E-03
      0.270000          0.173653E-03
      0.275000          0.168380E-03
      0.280000          0.163343E-03
      0.285000          0.158493E-03
      0.290000          0.153802E-03
      0.295000          0.149257E-03
      0.300000          0.144856E-03
      0.305000          0.140607E-03
      0.310000          0.136522E-03
      0.315000          0.132617E-03
      0.320000          0.128909E-03
      0.325000          0.125414E-03
      0.330000          0.122146E-03
      0.335000          0.119115E-03
      0.340000          0.116327E-03
      0.345000          0.113785E-03
      0.350000          0.111485E-03
      0.355000          0.109421E-03
      0.360000          0.107578E-03
      0.365000          0.105942E-03
      0.370000          0.104491E-03
      0.375000          0.103201E-03
      0.380000          0.102049E-03
      0.385000          0.101005E-03
      0.390000          0.100043E-03
      0.395000          0.991361E-04
      0.400000          0.982570E-04
      0.405000          0.973817E-04
      0.410000          0.964878E-04
      0.415000          0.955563E-04
      0.420000          0.945710E-04
      0.425000          0.935195E-04
      0.430000          0.923930E-04
      0.435000          0.911864E-04
      0.440000          0.898981E-04
      0.445000          0.885302E-04
      0.450000          0.870878E-04
      0.455000          0.855787E-04
      0.460000          0.840135E-04
      0.465000          0.824047E-04
      0.470000          0.807664E-04
      0.475000          0.791141E-04
      0.480000          0.774639E-04
      0.485000          0.758323E-04
      0.490000          0.742359E-04
      0.495000          0.726909E-04
      0.500000          0.712127E-04
