 I_abs(s)[cm^-1]/c[mg/ml]
       0.00000          0.144842E-01
      0.500000E-02      0.144457E-01
      0.100000E-01      0.143308E-01
      0.150000E-01      0.141413E-01
      0.200000E-01      0.138800E-01
      0.250000E-01      0.135509E-01
      0.300000E-01      0.131589E-01
      0.350000E-01      0.127097E-01
      0.400000E-01      0.122098E-01
      0.450000E-01      0.116663E-01
      0.500000E-01      0.110865E-01
      0.550000E-01      0.104783E-01
      0.600000E-01      0.984947E-02
      0.650000E-01      0.920773E-02
      0.700000E-01      0.856065E-02
      0.750000E-01      0.791542E-02
      0.800000E-01      0.727875E-02
      0.850000E-01      0.665680E-02
      0.900000E-01      0.605502E-02
      0.950000E-01      0.547815E-02
      0.100000          0.493014E-02
      0.105000          0.441416E-02
      0.110000          0.393255E-02
      0.115000          0.348689E-02
      0.120000          0.307800E-02
      0.125000          0.270602E-02
      0.130000          0.237045E-02
      0.135000          0.207024E-02
      0.140000          0.180387E-02
      0.145000          0.156943E-02
      0.150000          0.136472E-02
      0.155000          0.118733E-02
      0.160000          0.103472E-02
      0.165000          0.904301E-03
      0.170000          0.793489E-03
      0.175000          0.699786E-03
      0.180000          0.620820E-03
      0.185000          0.554381E-03
      0.190000          0.498454E-03
      0.195000          0.451238E-03
      0.200000          0.411154E-03
      0.205000          0.376848E-03
      0.210000          0.347182E-03
      0.215000          0.321226E-03
      0.220000          0.298235E-03
      0.225000          0.277633E-03
      0.230000          0.258991E-03
      0.235000          0.241996E-03
      0.240000          0.226438E-03
      0.245000          0.212176E-03
      0.250000          0.199127E-03
      0.255000          0.187241E-03
      0.260000          0.176487E-03
      0.265000          0.166844E-03
      0.270000          0.158285E-03
      0.275000          0.150776E-03
      0.280000          0.144267E-03
      0.285000          0.138694E-03
      0.290000          0.133979E-03
      0.295000          0.130031E-03
      0.300000          0.126750E-03
      0.305000          0.124027E-03
      0.310000          0.121757E-03
      0.315000          0.119834E-03
      0.320000          0.118160E-03
      0.325000          0.116648E-03
      0.330000          0.115222E-03
      0.335000          0.113823E-03
      0.340000          0.112406E-03
      0.345000          0.110941E-03
      0.350000          0.109416E-03
      0.355000          0.107829E-03
      0.360000          0.106193E-03
      0.365000          0.104528E-03
      0.370000          0.102863E-03
      0.375000          0.101229E-03
      0.380000          0.996604E-04
      0.385000          0.981885E-04
      0.390000          0.968430E-04
      0.395000          0.956483E-04
      0.400000          0.946220E-04
      0.405000          0.937748E-04
      0.410000          0.931089E-04
      0.415000          0.926191E-04
      0.420000          0.922922E-04
      0.425000          0.921082E-04
      0.430000          0.920411E-04
      0.435000          0.920601E-04
      0.440000          0.921314E-04
      0.445000          0.922187E-04
      0.450000          0.922858E-04
      0.455000          0.922970E-04
      0.460000          0.922192E-04
      0.465000          0.920224E-04
      0.470000          0.916811E-04
      0.475000          0.911749E-04
      0.480000          0.904891E-04
      0.485000          0.896147E-04
      0.490000          0.885489E-04
      0.495000          0.872947E-04
      0.500000          0.858607E-04
