 I_abs(s)[cm^-1]/c[mg/ml]
       0.00000          0.144446E-01
      0.500000E-02      0.144112E-01
      0.100000E-01      0.143113E-01
      0.150000E-01      0.141462E-01
      0.200000E-01      0.139182E-01
      0.250000E-01      0.136299E-01
      0.300000E-01      0.132852E-01
      0.350000E-01      0.128884E-01
      0.400000E-01      0.124442E-01
      0.450000E-01      0.119582E-01
      0.500000E-01      0.114360E-01
      0.550000E-01      0.108836E-01
      0.600000E-01      0.103074E-01
      0.650000E-01      0.971346E-02
      0.700000E-01      0.910812E-02
      0.750000E-01      0.849740E-02
      0.800000E-01      0.788716E-02
      0.850000E-01      0.728288E-02
      0.900000E-01      0.668968E-02
      0.950000E-01      0.611220E-02
      0.100000          0.555456E-02
      0.105000          0.502033E-02
      0.110000          0.451251E-02
      0.115000          0.403350E-02
      0.120000          0.358514E-02
      0.125000          0.316866E-02
      0.130000          0.278478E-02
      0.135000          0.243369E-02
      0.140000          0.211510E-02
      0.145000          0.182831E-02
      0.150000          0.157225E-02
      0.155000          0.134552E-02
      0.160000          0.114649E-02
      0.165000          0.973300E-03
      0.170000          0.823971E-03
      0.175000          0.696425E-03
      0.180000          0.588544E-03
      0.185000          0.498217E-03
      0.190000          0.423378E-03
      0.195000          0.362040E-03
      0.200000          0.312322E-03
      0.205000          0.272474E-03
      0.210000          0.240892E-03
      0.215000          0.216125E-03
      0.220000          0.196886E-03
      0.225000          0.182049E-03
      0.230000          0.170647E-03
      0.235000          0.161864E-03
      0.240000          0.155026E-03
      0.245000          0.149590E-03
      0.250000          0.145128E-03
      0.255000          0.141314E-03
      0.260000          0.137912E-03
      0.265000          0.134758E-03
      0.270000          0.131748E-03
      0.275000          0.128825E-03
      0.280000          0.125967E-03
      0.285000          0.123178E-03
      0.290000          0.120476E-03
      0.295000          0.117889E-03
      0.300000          0.115447E-03
      0.305000          0.113179E-03
      0.310000          0.111108E-03
      0.315000          0.109250E-03
      0.320000          0.107612E-03
      0.325000          0.106194E-03
      0.330000          0.104987E-03
      0.335000          0.103973E-03
      0.340000          0.103131E-03
      0.345000          0.102433E-03
      0.350000          0.101850E-03
      0.355000          0.101349E-03
      0.360000          0.100898E-03
      0.365000          0.100468E-03
      0.370000          0.100028E-03
      0.375000          0.995541E-04
      0.380000          0.990240E-04
      0.385000          0.984201E-04
      0.390000          0.977290E-04
      0.395000          0.969418E-04
      0.400000          0.960538E-04
      0.405000          0.950640E-04
      0.410000          0.939755E-04
      0.415000          0.927941E-04
      0.420000          0.915285E-04
      0.425000          0.901899E-04
      0.430000          0.887909E-04
      0.435000          0.873455E-04
      0.440000          0.858687E-04
      0.445000          0.843758E-04
      0.450000          0.828824E-04
      0.455000          0.814039E-04
      0.460000          0.799551E-04
      0.465000          0.785503E-04
      0.470000          0.772032E-04
      0.475000          0.759263E-04
      0.480000          0.747309E-04
      0.485000          0.736276E-04
      0.490000          0.726253E-04
      0.495000          0.717320E-04
      0.500000          0.709540E-04
