 I_abs(s)[cm^-1]/c[mg/ml]
       0.00000          0.146907E-01
      0.500000E-02      0.146568E-01
      0.100000E-01      0.145555E-01
      0.150000E-01      0.143881E-01
      0.200000E-01      0.141567E-01
      0.250000E-01      0.138643E-01
      0.300000E-01      0.135145E-01
      0.350000E-01      0.131117E-01
      0.400000E-01      0.126608E-01
      0.450000E-01      0.121672E-01
      0.500000E-01      0.116367E-01
      0.550000E-01      0.110754E-01
      0.600000E-01      0.104896E-01
      0.650000E-01      0.988553E-02
      0.700000E-01      0.926959E-02
      0.750000E-01      0.864790E-02
      0.800000E-01      0.802638E-02
      0.850000E-01      0.741065E-02
      0.900000E-01      0.680591E-02
      0.950000E-01      0.621690E-02
      0.100000          0.564787E-02
      0.105000          0.510249E-02
      0.110000          0.458387E-02
      0.115000          0.409453E-02
      0.120000          0.363638E-02
      0.125000          0.321078E-02
      0.130000          0.281852E-02
      0.135000          0.245986E-02
      0.140000          0.213458E-02
      0.145000          0.184203E-02
      0.150000          0.158117E-02
      0.155000          0.135063E-02
      0.160000          0.114876E-02
      0.165000          0.973704E-03
      0.170000          0.823446E-03
      0.175000          0.695861E-03
      0.180000          0.588772E-03
      0.185000          0.499993E-03
      0.190000          0.427372E-03
      0.195000          0.368825E-03
      0.200000          0.322369E-03
      0.205000          0.286145E-03
      0.210000          0.258436E-03
      0.215000          0.237680E-03
      0.220000          0.222480E-03
      0.225000          0.211604E-03
      0.230000          0.203987E-03
      0.235000          0.198720E-03
      0.240000          0.195051E-03
      0.245000          0.192366E-03
      0.250000          0.190181E-03
      0.255000          0.188130E-03
      0.260000          0.185945E-03
      0.265000          0.183448E-03
      0.270000          0.180533E-03
      0.275000          0.177154E-03
      0.280000          0.173312E-03
      0.285000          0.169043E-03
      0.290000          0.164409E-03
      0.295000          0.159486E-03
      0.300000          0.154362E-03
      0.305000          0.149124E-03
      0.310000          0.143857E-03
      0.315000          0.138641E-03
      0.320000          0.133546E-03
      0.325000          0.128631E-03
      0.330000          0.123943E-03
      0.335000          0.119517E-03
      0.340000          0.115378E-03
      0.345000          0.111540E-03
      0.350000          0.108006E-03
      0.355000          0.104771E-03
      0.360000          0.101825E-03
      0.365000          0.991498E-04
      0.370000          0.967260E-04
      0.375000          0.945298E-04
      0.380000          0.925361E-04
      0.385000          0.907197E-04
      0.390000          0.890556E-04
      0.395000          0.875200E-04
      0.400000          0.860909E-04
      0.405000          0.847483E-04
      0.410000          0.834747E-04
      0.415000          0.822551E-04
      0.420000          0.810772E-04
      0.425000          0.799311E-04
      0.430000          0.788094E-04
      0.435000          0.777070E-04
      0.440000          0.766209E-04
      0.445000          0.755496E-04
      0.450000          0.744935E-04
      0.455000          0.734542E-04
      0.460000          0.724342E-04
      0.465000          0.714372E-04
      0.470000          0.704670E-04
      0.475000          0.695284E-04
      0.480000          0.686259E-04
      0.485000          0.677646E-04
      0.490000          0.669492E-04
      0.495000          0.661846E-04
      0.500000          0.654751E-04
