 I_abs(s)[cm^-1]/c[mg/ml]
       0.00000          0.147705E-01
      0.500000E-02      0.147270E-01
      0.100000E-01      0.145973E-01
      0.150000E-01      0.143835E-01
      0.200000E-01      0.140892E-01
      0.250000E-01      0.137195E-01
      0.300000E-01      0.132804E-01
      0.350000E-01      0.127791E-01
      0.400000E-01      0.122234E-01
      0.450000E-01      0.116221E-01
      0.500000E-01      0.109842E-01
      0.550000E-01      0.103189E-01
      0.600000E-01      0.963541E-02
      0.650000E-01      0.894288E-02
      0.700000E-01      0.824991E-02
      0.750000E-01      0.756462E-02
      0.800000E-01      0.689438E-02
      0.850000E-01      0.624579E-02
      0.900000E-01      0.562449E-02
      0.950000E-01      0.503522E-02
      0.100000          0.448170E-02
      0.105000          0.396666E-02
      0.110000          0.349192E-02
      0.115000          0.305834E-02
      0.120000          0.266601E-02
      0.125000          0.231425E-02
      0.130000          0.200173E-02
      0.135000          0.172662E-02
      0.140000          0.148663E-02
      0.145000          0.127917E-02
      0.150000          0.110145E-02
      0.155000          0.950540E-03
      0.160000          0.823497E-03
      0.165000          0.717421E-03
      0.170000          0.629523E-03
      0.175000          0.557177E-03
      0.180000          0.497958E-03
      0.185000          0.449664E-03
      0.190000          0.410337E-03
      0.195000          0.378263E-03
      0.200000          0.351969E-03
      0.205000          0.330216E-03
      0.210000          0.311978E-03
      0.215000          0.296424E-03
      0.220000          0.282896E-03
      0.225000          0.270885E-03
      0.230000          0.260011E-03
      0.235000          0.249995E-03
      0.240000          0.240641E-03
      0.245000          0.231819E-03
      0.250000          0.223445E-03
      0.255000          0.215473E-03
      0.260000          0.207878E-03
      0.265000          0.200648E-03
      0.270000          0.193782E-03
      0.275000          0.187281E-03
      0.280000          0.181146E-03
      0.285000          0.175375E-03
      0.290000          0.169966E-03
      0.295000          0.164910E-03
      0.300000          0.160199E-03
      0.305000          0.155822E-03
      0.310000          0.151766E-03
      0.315000          0.148019E-03
      0.320000          0.144567E-03
      0.325000          0.141399E-03
      0.330000          0.138503E-03
      0.335000          0.135870E-03
      0.340000          0.133492E-03
      0.345000          0.131360E-03
      0.350000          0.129469E-03
      0.355000          0.127810E-03
      0.360000          0.126379E-03
      0.365000          0.125167E-03
      0.370000          0.124167E-03
      0.375000          0.123368E-03
      0.380000          0.122757E-03
      0.385000          0.122320E-03
      0.390000          0.122039E-03
      0.395000          0.121894E-03
      0.400000          0.121861E-03
      0.405000          0.121913E-03
      0.410000          0.122020E-03
      0.415000          0.122152E-03
      0.420000          0.122276E-03
      0.425000          0.122357E-03
      0.430000          0.122362E-03
      0.435000          0.122257E-03
      0.440000          0.122012E-03
      0.445000          0.121598E-03
      0.450000          0.120991E-03
      0.455000          0.120171E-03
      0.460000          0.119122E-03
      0.465000          0.117837E-03
      0.470000          0.116314E-03
      0.475000          0.114556E-03
      0.480000          0.112576E-03
      0.485000          0.110390E-03
      0.490000          0.108022E-03
      0.495000          0.105500E-03
      0.500000          0.102859E-03
