 I_abs(s)[cm^-1]/c[mg/ml]
       0.00000          0.145476E-01
      0.500000E-02      0.145123E-01
      0.100000E-01      0.144071E-01
      0.150000E-01      0.142333E-01
      0.200000E-01      0.139933E-01
      0.250000E-01      0.136903E-01
      0.300000E-01      0.133284E-01
      0.350000E-01      0.129123E-01
      0.400000E-01      0.124475E-01
      0.450000E-01      0.119397E-01
      0.500000E-01      0.113954E-01
      0.550000E-01      0.108211E-01
      0.600000E-01      0.102236E-01
      0.650000E-01      0.960953E-02
      0.700000E-01      0.898570E-02
      0.750000E-01      0.835855E-02
      0.800000E-01      0.773425E-02
      0.850000E-01      0.711856E-02
      0.900000E-01      0.651678E-02
      0.950000E-01      0.593366E-02
      0.100000          0.537334E-02
      0.105000          0.483935E-02
      0.110000          0.433457E-02
      0.115000          0.386122E-02
      0.120000          0.342088E-02
      0.125000          0.301451E-02
      0.130000          0.264250E-02
      0.135000          0.230470E-02
      0.140000          0.200046E-02
      0.145000          0.172873E-02
      0.150000          0.148808E-02
      0.155000          0.127678E-02
      0.160000          0.109290E-02
      0.165000          0.934306E-03
      0.170000          0.798788E-03
      0.175000          0.684073E-03
      0.180000          0.587895E-03
      0.185000          0.508036E-03
      0.190000          0.442363E-03
      0.195000          0.388866E-03
      0.200000          0.345673E-03
      0.205000          0.311077E-03
      0.210000          0.283539E-03
      0.215000          0.261701E-03
      0.220000          0.244379E-03
      0.225000          0.230563E-03
      0.230000          0.219405E-03
      0.235000          0.210212E-03
      0.240000          0.202427E-03
      0.245000          0.195618E-03
      0.250000          0.189457E-03
      0.255000          0.183712E-03
      0.260000          0.178222E-03
      0.265000          0.172889E-03
      0.270000          0.167661E-03
      0.275000          0.162521E-03
      0.280000          0.157475E-03
      0.285000          0.152547E-03
      0.290000          0.147767E-03
      0.295000          0.143168E-03
      0.300000          0.138781E-03
      0.305000          0.134633E-03
      0.310000          0.130746E-03
      0.315000          0.127135E-03
      0.320000          0.123805E-03
      0.325000          0.120760E-03
      0.330000          0.117995E-03
      0.335000          0.115501E-03
      0.340000          0.113268E-03
      0.345000          0.111283E-03
      0.350000          0.109530E-03
      0.355000          0.107997E-03
      0.360000          0.106667E-03
      0.365000          0.105528E-03
      0.370000          0.104566E-03
      0.375000          0.103768E-03
      0.380000          0.103123E-03
      0.385000          0.102617E-03
      0.390000          0.102238E-03
      0.395000          0.101973E-03
      0.400000          0.101806E-03
      0.405000          0.101721E-03
      0.410000          0.101701E-03
      0.415000          0.101725E-03
      0.420000          0.101772E-03
      0.425000          0.101820E-03
      0.430000          0.101845E-03
      0.435000          0.101823E-03
      0.440000          0.101729E-03
      0.445000          0.101542E-03
      0.450000          0.101239E-03
      0.455000          0.100800E-03
      0.460000          0.100209E-03
      0.465000          0.994538E-04
      0.470000          0.985242E-04
      0.475000          0.974160E-04
      0.480000          0.961293E-04
      0.485000          0.946694E-04
      0.490000          0.930460E-04
      0.495000          0.912737E-04
      0.500000          0.893714E-04
