 I_abs(s)[cm^-1]/c[mg/ml]
       0.00000          0.145238E-01
      0.500000E-02      0.144822E-01
      0.100000E-01      0.143581E-01
      0.150000E-01      0.141536E-01
      0.200000E-01      0.138723E-01
      0.250000E-01      0.135189E-01
      0.300000E-01      0.130994E-01
      0.350000E-01      0.126206E-01
      0.400000E-01      0.120902E-01
      0.450000E-01      0.115165E-01
      0.500000E-01      0.109081E-01
      0.550000E-01      0.102739E-01
      0.600000E-01      0.962259E-02
      0.650000E-01      0.896282E-02
      0.700000E-01      0.830270E-02
      0.750000E-01      0.764981E-02
      0.800000E-01      0.701102E-02
      0.850000E-01      0.639241E-02
      0.900000E-01      0.579915E-02
      0.950000E-01      0.523550E-02
      0.100000          0.470479E-02
      0.105000          0.420942E-02
      0.110000          0.375091E-02
      0.115000          0.332993E-02
      0.120000          0.294643E-02
      0.125000          0.259968E-02
      0.130000          0.228843E-02
      0.135000          0.201092E-02
      0.140000          0.176509E-02
      0.145000          0.154860E-02
      0.150000          0.135897E-02
      0.155000          0.119366E-02
      0.160000          0.105010E-02
      0.165000          0.925846E-03
      0.170000          0.818530E-03
      0.175000          0.725967E-03
      0.180000          0.646152E-03
      0.185000          0.577286E-03
      0.190000          0.517776E-03
      0.195000          0.466236E-03
      0.200000          0.421480E-03
      0.205000          0.382500E-03
      0.210000          0.348458E-03
      0.215000          0.318658E-03
      0.220000          0.292530E-03
      0.225000          0.269607E-03
      0.230000          0.249508E-03
      0.235000          0.231918E-03
      0.240000          0.216572E-03
      0.245000          0.203246E-03
      0.250000          0.191742E-03
      0.255000          0.181882E-03
      0.260000          0.173500E-03
      0.265000          0.166441E-03
      0.270000          0.160556E-03
      0.275000          0.155703E-03
      0.280000          0.151745E-03
      0.285000          0.148551E-03
      0.290000          0.145997E-03
      0.295000          0.143967E-03
      0.300000          0.142357E-03
      0.305000          0.141070E-03
      0.310000          0.140021E-03
      0.315000          0.139138E-03
      0.320000          0.138358E-03
      0.325000          0.137631E-03
      0.330000          0.136916E-03
      0.335000          0.136182E-03
      0.340000          0.135407E-03
      0.345000          0.134577E-03
      0.350000          0.133683E-03
      0.355000          0.132722E-03
      0.360000          0.131694E-03
      0.365000          0.130602E-03
      0.370000          0.129451E-03
      0.375000          0.128245E-03
      0.380000          0.126989E-03
      0.385000          0.125688E-03
      0.390000          0.124345E-03
      0.395000          0.122961E-03
      0.400000          0.121536E-03
      0.405000          0.120070E-03
      0.410000          0.118560E-03
      0.415000          0.117002E-03
      0.420000          0.115393E-03
      0.425000          0.113728E-03
      0.430000          0.112002E-03
      0.435000          0.110214E-03
      0.440000          0.108360E-03
      0.445000          0.106439E-03
      0.450000          0.104452E-03
      0.455000          0.102403E-03
      0.460000          0.100296E-03
      0.465000          0.981383E-04
      0.470000          0.959403E-04
      0.475000          0.937136E-04
      0.480000          0.914719E-04
      0.485000          0.892309E-04
      0.490000          0.870074E-04
      0.495000          0.848192E-04
      0.500000          0.826847E-04
