 I_abs(s)[cm^-1]/c[mg/ml]
       0.00000          0.146429E-01
      0.500000E-02      0.146059E-01
      0.100000E-01      0.144952E-01
      0.150000E-01      0.143127E-01
      0.200000E-01      0.140608E-01
      0.250000E-01      0.137433E-01
      0.300000E-01      0.133646E-01
      0.350000E-01      0.129301E-01
      0.400000E-01      0.124457E-01
      0.450000E-01      0.119180E-01
      0.500000E-01      0.113538E-01
      0.550000E-01      0.107604E-01
      0.600000E-01      0.101450E-01
      0.650000E-01      0.951496E-02
      0.700000E-01      0.887724E-02
      0.750000E-01      0.823868E-02
      0.800000E-01      0.760566E-02
      0.850000E-01      0.698405E-02
      0.900000E-01      0.637917E-02
      0.950000E-01      0.579567E-02
      0.100000          0.523753E-02
      0.105000          0.470800E-02
      0.110000          0.420965E-02
      0.115000          0.374434E-02
      0.120000          0.331325E-02
      0.125000          0.291694E-02
      0.130000          0.255538E-02
      0.135000          0.222804E-02
      0.140000          0.193392E-02
      0.145000          0.167167E-02
      0.150000          0.143960E-02
      0.155000          0.123581E-02
      0.160000          0.105822E-02
      0.165000          0.904654E-03
      0.170000          0.772879E-03
      0.175000          0.660683E-03
      0.180000          0.565898E-03
      0.185000          0.486448E-03
      0.190000          0.420370E-03
      0.195000          0.365842E-03
      0.200000          0.321194E-03
      0.205000          0.284915E-03
      0.210000          0.255658E-03
      0.215000          0.232236E-03
      0.220000          0.213618E-03
      0.225000          0.198914E-03
      0.230000          0.187371E-03
      0.235000          0.178354E-03
      0.240000          0.171336E-03
      0.245000          0.165884E-03
      0.250000          0.161644E-03
      0.255000          0.158331E-03
      0.260000          0.155716E-03
      0.265000          0.153618E-03
      0.270000          0.151892E-03
      0.275000          0.150424E-03
      0.280000          0.149127E-03
      0.285000          0.147930E-03
      0.290000          0.146778E-03
      0.295000          0.145630E-03
      0.300000          0.144454E-03
      0.305000          0.143225E-03
      0.310000          0.141925E-03
      0.315000          0.140543E-03
      0.320000          0.139071E-03
      0.325000          0.137505E-03
      0.330000          0.135845E-03
      0.335000          0.134094E-03
      0.340000          0.132257E-03
      0.345000          0.130340E-03
      0.350000          0.128349E-03
      0.355000          0.126294E-03
      0.360000          0.124182E-03
      0.365000          0.122022E-03
      0.370000          0.119821E-03
      0.375000          0.117586E-03
      0.380000          0.115322E-03
      0.385000          0.113036E-03
      0.390000          0.110730E-03
      0.395000          0.108410E-03
      0.400000          0.106078E-03
      0.405000          0.103736E-03
      0.410000          0.101386E-03
      0.415000          0.990324E-04
      0.420000          0.966770E-04
      0.425000          0.943234E-04
      0.430000          0.919762E-04
      0.435000          0.896404E-04
      0.440000          0.873226E-04
      0.445000          0.850301E-04
      0.450000          0.827715E-04
      0.455000          0.805564E-04
      0.460000          0.783953E-04
      0.465000          0.762997E-04
      0.470000          0.742813E-04
      0.475000          0.723526E-04
      0.480000          0.705257E-04
      0.485000          0.688129E-04
      0.490000          0.672259E-04
      0.495000          0.657754E-04
      0.500000          0.644714E-04
