 I_abs(s)[cm^-1]/c[mg/ml]
       0.00000          0.144684E-01
      0.500000E-02      0.144319E-01
      0.100000E-01      0.143232E-01
      0.150000E-01      0.141436E-01
      0.200000E-01      0.138959E-01
      0.250000E-01      0.135835E-01
      0.300000E-01      0.132110E-01
      0.350000E-01      0.127833E-01
      0.400000E-01      0.123064E-01
      0.450000E-01      0.117867E-01
      0.500000E-01      0.112309E-01
      0.550000E-01      0.106461E-01
      0.600000E-01      0.100393E-01
      0.650000E-01      0.941782E-02
      0.700000E-01      0.878849E-02
      0.750000E-01      0.815803E-02
      0.800000E-01      0.753276E-02
      0.850000E-01      0.691851E-02
      0.900000E-01      0.632052E-02
      0.950000E-01      0.574346E-02
      0.100000          0.519129E-02
      0.105000          0.466730E-02
      0.110000          0.417408E-02
      0.115000          0.371353E-02
      0.120000          0.328689E-02
      0.125000          0.289477E-02
      0.130000          0.253720E-02
      0.135000          0.221370E-02
      0.140000          0.192334E-02
      0.145000          0.166479E-02
      0.150000          0.143640E-02
      0.155000          0.123631E-02
      0.160000          0.106244E-02
      0.165000          0.912621E-03
      0.170000          0.784621E-03
      0.175000          0.676206E-03
      0.180000          0.585185E-03
      0.185000          0.509447E-03
      0.190000          0.446994E-03
      0.195000          0.395960E-03
      0.200000          0.354630E-03
      0.205000          0.321448E-03
      0.210000          0.295025E-03
      0.215000          0.274131E-03
      0.220000          0.257698E-03
      0.225000          0.244805E-03
      0.230000          0.234672E-03
      0.235000          0.226647E-03
      0.240000          0.220189E-03
      0.245000          0.214862E-03
      0.250000          0.210314E-03
      0.255000          0.206269E-03
      0.260000          0.202515E-03
      0.265000          0.198893E-03
      0.270000          0.195285E-03
      0.275000          0.191611E-03
      0.280000          0.187818E-03
      0.285000          0.183875E-03
      0.290000          0.179769E-03
      0.295000          0.175501E-03
      0.300000          0.171081E-03
      0.305000          0.166529E-03
      0.310000          0.161868E-03
      0.315000          0.157128E-03
      0.320000          0.152339E-03
      0.325000          0.147535E-03
      0.330000          0.142748E-03
      0.335000          0.138009E-03
      0.340000          0.133350E-03
      0.345000          0.128799E-03
      0.350000          0.124381E-03
      0.355000          0.120120E-03
      0.360000          0.116033E-03
      0.365000          0.112136E-03
      0.370000          0.108439E-03
      0.375000          0.104949E-03
      0.380000          0.101670E-03
      0.385000          0.986016E-04
      0.390000          0.957401E-04
      0.395000          0.930798E-04
      0.400000          0.906128E-04
      0.405000          0.883295E-04
      0.410000          0.862195E-04
      0.415000          0.842718E-04
      0.420000          0.824756E-04
      0.425000          0.808204E-04
      0.430000          0.792966E-04
      0.435000          0.778955E-04
      0.440000          0.766100E-04
      0.445000          0.754340E-04
      0.450000          0.743629E-04
      0.455000          0.733935E-04
      0.460000          0.725233E-04
      0.465000          0.717513E-04
      0.470000          0.710768E-04
      0.475000          0.704995E-04
      0.480000          0.700195E-04
      0.485000          0.696367E-04
      0.490000          0.693504E-04
      0.495000          0.691594E-04
      0.500000          0.690618E-04
