 I_abs(s)[cm^-1]/c[mg/ml]
       0.00000          0.146429E-01
      0.500000E-02      0.146090E-01
      0.100000E-01      0.145079E-01
      0.150000E-01      0.143407E-01
      0.200000E-01      0.141097E-01
      0.250000E-01      0.138178E-01
      0.300000E-01      0.134687E-01
      0.350000E-01      0.130667E-01
      0.400000E-01      0.126168E-01
      0.450000E-01      0.121243E-01
      0.500000E-01      0.115952E-01
      0.550000E-01      0.110355E-01
      0.600000E-01      0.104514E-01
      0.650000E-01      0.984941E-02
      0.700000E-01      0.923571E-02
      0.750000E-01      0.861649E-02
      0.800000E-01      0.799765E-02
      0.850000E-01      0.738478E-02
      0.900000E-01      0.678305E-02
      0.950000E-01      0.619717E-02
      0.100000          0.563135E-02
      0.105000          0.508921E-02
      0.110000          0.457382E-02
      0.115000          0.408763E-02
      0.120000          0.363250E-02
      0.125000          0.320973E-02
      0.130000          0.282004E-02
      0.135000          0.246364E-02
      0.140000          0.214027E-02
      0.145000          0.184922E-02
      0.150000          0.158941E-02
      0.155000          0.135944E-02
      0.160000          0.115763E-02
      0.165000          0.982122E-03
      0.170000          0.830890E-03
      0.175000          0.701821E-03
      0.180000          0.592756E-03
      0.185000          0.501541E-03
      0.190000          0.426065E-03
      0.195000          0.364296E-03
      0.200000          0.314308E-03
      0.205000          0.274309E-03
      0.210000          0.242652E-03
      0.215000          0.217851E-03
      0.220000          0.198583E-03
      0.225000          0.183693E-03
      0.230000          0.172186E-03
      0.235000          0.163227E-03
      0.240000          0.156124E-03
      0.245000          0.150322E-03
      0.250000          0.145386E-03
      0.255000          0.140988E-03
      0.260000          0.136893E-03
      0.265000          0.132942E-03
      0.270000          0.129040E-03
      0.275000          0.125141E-03
      0.280000          0.121240E-03
      0.285000          0.117355E-03
      0.290000          0.113524E-03
      0.295000          0.109794E-03
      0.300000          0.106216E-03
      0.305000          0.102839E-03
      0.310000          0.997075E-04
      0.315000          0.968576E-04
      0.320000          0.943163E-04
      0.325000          0.921008E-04
      0.330000          0.902187E-04
      0.335000          0.886684E-04
      0.340000          0.874399E-04
      0.345000          0.865164E-04
      0.350000          0.858756E-04
      0.355000          0.854906E-04
      0.360000          0.853319E-04
      0.365000          0.853682E-04
      0.370000          0.855675E-04
      0.375000          0.858980E-04
      0.380000          0.863291E-04
      0.385000          0.868316E-04
      0.390000          0.873782E-04
      0.395000          0.879438E-04
      0.400000          0.885056E-04
      0.405000          0.890431E-04
      0.410000          0.895383E-04
      0.415000          0.899753E-04
      0.420000          0.903404E-04
      0.425000          0.906219E-04
      0.430000          0.908103E-04
      0.435000          0.908977E-04
      0.440000          0.908781E-04
      0.445000          0.907474E-04
      0.450000          0.905032E-04
      0.455000          0.901448E-04
      0.460000          0.896730E-04
      0.465000          0.890906E-04
      0.470000          0.884019E-04
      0.475000          0.876128E-04
      0.480000          0.867307E-04
      0.485000          0.857646E-04
      0.490000          0.847246E-04
      0.495000          0.836222E-04
      0.500000          0.824698E-04
