 I_abs(s)[cm^-1]/c[mg/ml]
       0.00000          0.147226E-01
      0.500000E-02      0.146820E-01
      0.100000E-01      0.145610E-01
      0.150000E-01      0.143615E-01
      0.200000E-01      0.140866E-01
      0.250000E-01      0.137408E-01
      0.300000E-01      0.133294E-01
      0.350000E-01      0.128587E-01
      0.400000E-01      0.123359E-01
      0.450000E-01      0.117686E-01
      0.500000E-01      0.111648E-01
      0.550000E-01      0.105329E-01
      0.600000E-01      0.988127E-02
      0.650000E-01      0.921810E-02
      0.700000E-01      0.855133E-02
      0.750000E-01      0.788844E-02
      0.800000E-01      0.723634E-02
      0.850000E-01      0.660124E-02
      0.900000E-01      0.598862E-02
      0.950000E-01      0.540312E-02
      0.100000          0.484854E-02
      0.105000          0.432780E-02
      0.110000          0.384301E-02
      0.115000          0.339544E-02
      0.120000          0.298564E-02
      0.125000          0.261346E-02
      0.130000          0.227815E-02
      0.135000          0.197843E-02
      0.140000          0.171262E-02
      0.145000          0.147870E-02
      0.150000          0.127438E-02
      0.155000          0.109725E-02
      0.160000          0.944796E-03
      0.165000          0.814490E-03
      0.170000          0.703861E-03
      0.175000          0.610530E-03
      0.180000          0.532255E-03
      0.185000          0.466956E-03
      0.190000          0.412734E-03
      0.195000          0.367885E-03
      0.200000          0.330896E-03
      0.205000          0.300446E-03
      0.210000          0.275395E-03
      0.215000          0.254771E-03
      0.220000          0.237755E-03
      0.225000          0.223665E-03
      0.230000          0.211938E-03
      0.235000          0.202113E-03
      0.240000          0.193813E-03
      0.245000          0.186738E-03
      0.250000          0.180641E-03
      0.255000          0.175329E-03
      0.260000          0.170643E-03
      0.265000          0.166459E-03
      0.270000          0.162678E-03
      0.275000          0.159220E-03
      0.280000          0.156024E-03
      0.285000          0.153044E-03
      0.290000          0.150246E-03
      0.295000          0.147606E-03
      0.300000          0.145110E-03
      0.305000          0.142750E-03
      0.310000          0.140526E-03
      0.315000          0.138439E-03
      0.320000          0.136496E-03
      0.325000          0.134702E-03
      0.330000          0.133065E-03
      0.335000          0.131589E-03
      0.340000          0.130277E-03
      0.345000          0.129126E-03
      0.350000          0.128131E-03
      0.355000          0.127281E-03
      0.360000          0.126561E-03
      0.365000          0.125953E-03
      0.370000          0.125432E-03
      0.375000          0.124974E-03
      0.380000          0.124549E-03
      0.385000          0.124130E-03
      0.390000          0.123687E-03
      0.395000          0.123193E-03
      0.400000          0.122622E-03
      0.405000          0.121954E-03
      0.410000          0.121171E-03
      0.415000          0.120258E-03
      0.420000          0.119207E-03
      0.425000          0.118015E-03
      0.430000          0.116681E-03
      0.435000          0.115212E-03
      0.440000          0.113617E-03
      0.445000          0.111908E-03
      0.450000          0.110101E-03
      0.455000          0.108213E-03
      0.460000          0.106262E-03
      0.465000          0.104268E-03
      0.470000          0.102250E-03
      0.475000          0.100226E-03
      0.480000          0.982131E-04
      0.485000          0.962277E-04
      0.490000          0.942834E-04
      0.495000          0.923924E-04
      0.500000          0.905650E-04
