 I_abs(s)[cm^-1]/c[mg/ml]
       0.00000          0.143815E-01
      0.500000E-02      0.143445E-01
      0.100000E-01      0.142343E-01
      0.150000E-01      0.140523E-01
      0.200000E-01      0.138012E-01
      0.250000E-01      0.134845E-01
      0.300000E-01      0.131066E-01
      0.350000E-01      0.126729E-01
      0.400000E-01      0.121891E-01
      0.450000E-01      0.116618E-01
      0.500000E-01      0.110978E-01
      0.550000E-01      0.105044E-01
      0.600000E-01      0.988872E-02
      0.650000E-01      0.925820E-02
      0.700000E-01      0.862000E-02
      0.750000E-01      0.798103E-02
      0.800000E-01      0.734784E-02
      0.850000E-01      0.672651E-02
      0.900000E-01      0.612255E-02
      0.950000E-01      0.554083E-02
      0.100000          0.498556E-02
      0.105000          0.446022E-02
      0.110000          0.396754E-02
      0.115000          0.350955E-02
      0.120000          0.308755E-02
      0.125000          0.270214E-02
      0.130000          0.235334E-02
      0.135000          0.204053E-02
      0.140000          0.176263E-02
      0.145000          0.151810E-02
      0.150000          0.130502E-02
      0.155000          0.112123E-02
      0.160000          0.964322E-03
      0.165000          0.831775E-03
      0.170000          0.720999E-03
      0.175000          0.629406E-03
      0.180000          0.554467E-03
      0.185000          0.493757E-03
      0.190000          0.444999E-03
      0.195000          0.406095E-03
      0.200000          0.375146E-03
      0.205000          0.350470E-03
      0.210000          0.330605E-03
      0.215000          0.314311E-03
      0.220000          0.300563E-03
      0.225000          0.288535E-03
      0.230000          0.277590E-03
      0.235000          0.267255E-03
      0.240000          0.257204E-03
      0.245000          0.247234E-03
      0.250000          0.237242E-03
      0.255000          0.227204E-03
      0.260000          0.217153E-03
      0.265000          0.207166E-03
      0.270000          0.197338E-03
      0.275000          0.187778E-03
      0.280000          0.178591E-03
      0.285000          0.169873E-03
      0.290000          0.161705E-03
      0.295000          0.154144E-03
      0.300000          0.147230E-03
      0.305000          0.140977E-03
      0.310000          0.135381E-03
      0.315000          0.130419E-03
      0.320000          0.126056E-03
      0.325000          0.122242E-03
      0.330000          0.118923E-03
      0.335000          0.116040E-03
      0.340000          0.113533E-03
      0.345000          0.111348E-03
      0.350000          0.109432E-03
      0.355000          0.107741E-03
      0.360000          0.106238E-03
      0.365000          0.104894E-03
      0.370000          0.103686E-03
      0.375000          0.102602E-03
      0.380000          0.101633E-03
      0.385000          0.100774E-03
      0.390000          0.100025E-03
      0.395000          0.993858E-04
      0.400000          0.988579E-04
      0.405000          0.984398E-04
      0.410000          0.981280E-04
      0.415000          0.979156E-04
      0.420000          0.977912E-04
      0.425000          0.977393E-04
      0.430000          0.977402E-04
      0.435000          0.977702E-04
      0.440000          0.978023E-04
      0.445000          0.978072E-04
      0.450000          0.977544E-04
      0.455000          0.976132E-04
      0.460000          0.973541E-04
      0.465000          0.969497E-04
      0.470000          0.963763E-04
      0.475000          0.956148E-04
      0.480000          0.946512E-04
      0.485000          0.934778E-04
      0.490000          0.920933E-04
      0.495000          0.905031E-04
      0.500000          0.887193E-04
