 I_abs(s)[cm^-1]/c[mg/ml]
       0.00000          0.146748E-01
      0.500000E-02      0.146358E-01
      0.100000E-01      0.145194E-01
      0.150000E-01      0.143274E-01
      0.200000E-01      0.140627E-01
      0.250000E-01      0.137292E-01
      0.300000E-01      0.133319E-01
      0.350000E-01      0.128765E-01
      0.400000E-01      0.123696E-01
      0.450000E-01      0.118181E-01
      0.500000E-01      0.112298E-01
      0.550000E-01      0.106122E-01
      0.600000E-01      0.997329E-02
      0.650000E-01      0.932086E-02
      0.700000E-01      0.866250E-02
      0.750000E-01      0.800546E-02
      0.800000E-01      0.735655E-02
      0.850000E-01      0.672196E-02
      0.900000E-01      0.610725E-02
      0.950000E-01      0.551726E-02
      0.100000          0.495604E-02
      0.105000          0.442688E-02
      0.110000          0.393225E-02
      0.115000          0.347387E-02
      0.120000          0.305271E-02
      0.125000          0.266906E-02
      0.130000          0.232258E-02
      0.135000          0.201238E-02
      0.140000          0.173707E-02
      0.145000          0.149490E-02
      0.150000          0.128378E-02
      0.155000          0.110140E-02
      0.160000          0.945304E-03
      0.165000          0.812940E-03
      0.170000          0.701750E-03
      0.175000          0.609219E-03
      0.180000          0.532922E-03
      0.185000          0.470564E-03
      0.190000          0.420014E-03
      0.195000          0.379323E-03
      0.200000          0.346740E-03
      0.205000          0.320717E-03
      0.210000          0.299908E-03
      0.215000          0.283166E-03
      0.220000          0.269528E-03
      0.225000          0.258204E-03
      0.230000          0.248559E-03
      0.235000          0.240098E-03
      0.240000          0.232444E-03
      0.245000          0.225322E-03
      0.250000          0.218540E-03
      0.255000          0.211974E-03
      0.260000          0.205552E-03
      0.265000          0.199241E-03
      0.270000          0.193035E-03
      0.275000          0.186949E-03
      0.280000          0.181005E-03
      0.285000          0.175233E-03
      0.290000          0.169660E-03
      0.295000          0.164314E-03
      0.300000          0.159214E-03
      0.305000          0.154375E-03
      0.310000          0.149806E-03
      0.315000          0.145508E-03
      0.320000          0.141477E-03
      0.325000          0.137704E-03
      0.330000          0.134177E-03
      0.335000          0.130877E-03
      0.340000          0.127787E-03
      0.345000          0.124887E-03
      0.350000          0.122155E-03
      0.355000          0.119570E-03
      0.360000          0.117112E-03
      0.365000          0.114762E-03
      0.370000          0.112501E-03
      0.375000          0.110314E-03
      0.380000          0.108185E-03
      0.385000          0.106101E-03
      0.390000          0.104053E-03
      0.395000          0.102032E-03
      0.400000          0.100032E-03
      0.405000          0.980482E-04
      0.410000          0.960785E-04
      0.415000          0.941226E-04
      0.420000          0.921817E-04
      0.425000          0.902588E-04
      0.430000          0.883580E-04
      0.435000          0.864849E-04
      0.440000          0.846457E-04
      0.445000          0.828476E-04
      0.450000          0.810979E-04
      0.455000          0.794045E-04
      0.460000          0.777752E-04
      0.465000          0.762173E-04
      0.470000          0.747380E-04
      0.475000          0.733437E-04
      0.480000          0.720401E-04
      0.485000          0.708320E-04
      0.490000          0.697231E-04
      0.495000          0.687160E-04
      0.500000          0.678124E-04
