 I_abs(s)[cm^-1]/c[mg/ml]
       0.00000          0.144367E-01
      0.500000E-02      0.144023E-01
      0.100000E-01      0.142994E-01
      0.150000E-01      0.141295E-01
      0.200000E-01      0.138948E-01
      0.250000E-01      0.135984E-01
      0.300000E-01      0.132442E-01
      0.350000E-01      0.128366E-01
      0.400000E-01      0.123810E-01
      0.450000E-01      0.118829E-01
      0.500000E-01      0.113485E-01
      0.550000E-01      0.107840E-01
      0.600000E-01      0.101960E-01
      0.650000E-01      0.959109E-02
      0.700000E-01      0.897567E-02
      0.750000E-01      0.835611E-02
      0.800000E-01      0.773841E-02
      0.850000E-01      0.712826E-02
      0.900000E-01      0.653088E-02
      0.950000E-01      0.595097E-02
      0.100000          0.539270E-02
      0.105000          0.485961E-02
      0.110000          0.435464E-02
      0.115000          0.388010E-02
      0.120000          0.343767E-02
      0.125000          0.302845E-02
      0.130000          0.265294E-02
      0.135000          0.231114E-02
      0.140000          0.200254E-02
      0.145000          0.172623E-02
      0.150000          0.148091E-02
      0.155000          0.126500E-02
      0.160000          0.107664E-02
      0.165000          0.913831E-03
      0.170000          0.774430E-03
      0.175000          0.656239E-03
      0.180000          0.557044E-03
      0.185000          0.474667E-03
      0.190000          0.407002E-03
      0.195000          0.352049E-03
      0.200000          0.307938E-03
      0.205000          0.272953E-03
      0.210000          0.245540E-03
      0.215000          0.224316E-03
      0.220000          0.208070E-03
      0.225000          0.195758E-03
      0.230000          0.186499E-03
      0.235000          0.179559E-03
      0.240000          0.174345E-03
      0.245000          0.170381E-03
      0.250000          0.167299E-03
      0.255000          0.164824E-03
      0.260000          0.162749E-03
      0.265000          0.160933E-03
      0.270000          0.159277E-03
      0.275000          0.157715E-03
      0.280000          0.156208E-03
      0.285000          0.154729E-03
      0.290000          0.153259E-03
      0.295000          0.151783E-03
      0.300000          0.150284E-03
      0.305000          0.148745E-03
      0.310000          0.147144E-03
      0.315000          0.145456E-03
      0.320000          0.143655E-03
      0.325000          0.141714E-03
      0.330000          0.139607E-03
      0.335000          0.137311E-03
      0.340000          0.134808E-03
      0.345000          0.132089E-03
      0.350000          0.129148E-03
      0.355000          0.125992E-03
      0.360000          0.122632E-03
      0.365000          0.119092E-03
      0.370000          0.115400E-03
      0.375000          0.111594E-03
      0.380000          0.107717E-03
      0.385000          0.103815E-03
      0.390000          0.999378E-04
      0.395000          0.961344E-04
      0.400000          0.924539E-04
      0.405000          0.889424E-04
      0.410000          0.856417E-04
      0.415000          0.825880E-04
      0.420000          0.798108E-04
      0.425000          0.773325E-04
      0.430000          0.751677E-04
      0.435000          0.733228E-04
      0.440000          0.717967E-04
      0.445000          0.705810E-04
      0.450000          0.696604E-04
      0.455000          0.690140E-04
      0.460000          0.686160E-04
      0.465000          0.684370E-04
      0.470000          0.684451E-04
      0.475000          0.686069E-04
      0.480000          0.688890E-04
      0.485000          0.692589E-04
      0.490000          0.696859E-04
      0.495000          0.701419E-04
      0.500000          0.706022E-04
