 I_abs(s)[cm^-1]/c[mg/ml]
       0.00000          0.146509E-01
      0.500000E-02      0.146152E-01
      0.100000E-01      0.145086E-01
      0.150000E-01      0.143327E-01
      0.200000E-01      0.140897E-01
      0.250000E-01      0.137829E-01
      0.300000E-01      0.134166E-01
      0.350000E-01      0.129954E-01
      0.400000E-01      0.125249E-01
      0.450000E-01      0.120111E-01
      0.500000E-01      0.114602E-01
      0.550000E-01      0.108791E-01
      0.600000E-01      0.102746E-01
      0.650000E-01      0.965338E-02
      0.700000E-01      0.902233E-02
      0.750000E-01      0.838794E-02
      0.800000E-01      0.775646E-02
      0.850000E-01      0.713369E-02
      0.900000E-01      0.652498E-02
      0.950000E-01      0.593509E-02
      0.100000          0.536821E-02
      0.105000          0.482787E-02
      0.110000          0.431696E-02
      0.115000          0.383772E-02
      0.120000          0.339173E-02
      0.125000          0.297998E-02
      0.130000          0.260284E-02
      0.135000          0.226018E-02
      0.140000          0.195138E-02
      0.145000          0.167540E-02
      0.150000          0.143084E-02
      0.155000          0.121600E-02
      0.160000          0.102898E-02
      0.165000          0.867687E-03
      0.170000          0.729952E-03
      0.175000          0.613541E-03
      0.180000          0.516226E-03
      0.185000          0.435825E-03
      0.190000          0.370236E-03
      0.195000          0.317468E-03
      0.200000          0.275667E-03
      0.205000          0.243125E-03
      0.210000          0.218297E-03
      0.215000          0.199802E-03
      0.220000          0.186423E-03
      0.225000          0.177103E-03
      0.230000          0.170936E-03
      0.235000          0.167158E-03
      0.240000          0.165133E-03
      0.245000          0.164340E-03
      0.250000          0.164361E-03
      0.255000          0.164865E-03
      0.260000          0.165595E-03
      0.265000          0.166356E-03
      0.270000          0.167004E-03
      0.275000          0.167436E-03
      0.280000          0.167582E-03
      0.285000          0.167397E-03
      0.290000          0.166855E-03
      0.295000          0.165945E-03
      0.300000          0.164667E-03
      0.305000          0.163029E-03
      0.310000          0.161046E-03
      0.315000          0.158739E-03
      0.320000          0.156131E-03
      0.325000          0.153250E-03
      0.330000          0.150127E-03
      0.335000          0.146793E-03
      0.340000          0.143283E-03
      0.345000          0.139633E-03
      0.350000          0.135877E-03
      0.355000          0.132053E-03
      0.360000          0.128194E-03
      0.365000          0.124336E-03
      0.370000          0.120508E-03
      0.375000          0.116740E-03
      0.380000          0.113057E-03
      0.385000          0.109481E-03
      0.390000          0.106030E-03
      0.395000          0.102717E-03
      0.400000          0.995527E-04
      0.405000          0.965434E-04
      0.410000          0.936919E-04
      0.415000          0.909982E-04
      0.420000          0.884599E-04
      0.425000          0.860730E-04
      0.430000          0.838320E-04
      0.435000          0.817311E-04
      0.440000          0.797640E-04
      0.445000          0.779250E-04
      0.450000          0.762091E-04
      0.455000          0.746119E-04
      0.460000          0.731304E-04
      0.465000          0.717625E-04
      0.470000          0.705072E-04
      0.475000          0.693642E-04
      0.480000          0.683339E-04
      0.485000          0.674171E-04
      0.490000          0.666142E-04
      0.495000          0.659255E-04
      0.500000          0.653505E-04
