 I_abs(s)[cm^-1]/c[mg/ml]
       0.00000          0.147066E-01
      0.500000E-02      0.146701E-01
      0.100000E-01      0.145612E-01
      0.150000E-01      0.143813E-01
      0.200000E-01      0.141329E-01
      0.250000E-01      0.138196E-01
      0.300000E-01      0.134456E-01
      0.350000E-01      0.130160E-01
      0.400000E-01      0.125366E-01
      0.450000E-01      0.120135E-01
      0.500000E-01      0.114534E-01
      0.550000E-01      0.108633E-01
      0.600000E-01      0.102501E-01
      0.650000E-01      0.962112E-02
      0.700000E-01      0.898312E-02
      0.750000E-01      0.834285E-02
      0.800000E-01      0.770664E-02
      0.850000E-01      0.708040E-02
      0.900000E-01      0.646947E-02
      0.950000E-01      0.587862E-02
      0.100000          0.531198E-02
      0.105000          0.477300E-02
      0.110000          0.426445E-02
      0.115000          0.378842E-02
      0.120000          0.334634E-02
      0.125000          0.293901E-02
      0.130000          0.256663E-02
      0.135000          0.222890E-02
      0.140000          0.192502E-02
      0.145000          0.165379E-02
      0.150000          0.141368E-02
      0.155000          0.120288E-02
      0.160000          0.101939E-02
      0.165000          0.861056E-03
      0.170000          0.725659E-03
      0.175000          0.610951E-03
      0.180000          0.514711E-03
      0.185000          0.434784E-03
      0.190000          0.369114E-03
      0.195000          0.315773E-03
      0.200000          0.272976E-03
      0.205000          0.239099E-03
      0.210000          0.212681E-03
      0.215000          0.192428E-03
      0.220000          0.177209E-03
      0.225000          0.166047E-03
      0.230000          0.158111E-03
      0.235000          0.152702E-03
      0.240000          0.149242E-03
      0.245000          0.147259E-03
      0.250000          0.146369E-03
      0.255000          0.146268E-03
      0.260000          0.146717E-03
      0.265000          0.147529E-03
      0.270000          0.148558E-03
      0.275000          0.149693E-03
      0.280000          0.150850E-03
      0.285000          0.151962E-03
      0.290000          0.152979E-03
      0.295000          0.153861E-03
      0.300000          0.154576E-03
      0.305000          0.155099E-03
      0.310000          0.155410E-03
      0.315000          0.155494E-03
      0.320000          0.155339E-03
      0.325000          0.154936E-03
      0.330000          0.154280E-03
      0.335000          0.153370E-03
      0.340000          0.152209E-03
      0.345000          0.150800E-03
      0.350000          0.149152E-03
      0.355000          0.147275E-03
      0.360000          0.145184E-03
      0.365000          0.142892E-03
      0.370000          0.140415E-03
      0.375000          0.137773E-03
      0.380000          0.134983E-03
      0.385000          0.132063E-03
      0.390000          0.129035E-03
      0.395000          0.125915E-03
      0.400000          0.122724E-03
      0.405000          0.119480E-03
      0.410000          0.116202E-03
      0.415000          0.112907E-03
      0.420000          0.109613E-03
      0.425000          0.106337E-03
      0.430000          0.103095E-03
      0.435000          0.999053E-04
      0.440000          0.967818E-04
      0.445000          0.937402E-04
      0.450000          0.907948E-04
      0.455000          0.879592E-04
      0.460000          0.852459E-04
      0.465000          0.826660E-04
      0.470000          0.802294E-04
      0.475000          0.779444E-04
      0.480000          0.758173E-04
      0.485000          0.738527E-04
      0.490000          0.720529E-04
      0.495000          0.704185E-04
      0.500000          0.689477E-04
