 I_abs(s)[cm^-1]/c[mg/ml]
       0.00000          0.146668E-01
      0.500000E-02      0.146311E-01
      0.100000E-01      0.145244E-01
      0.150000E-01      0.143483E-01
      0.200000E-01      0.141051E-01
      0.250000E-01      0.137981E-01
      0.300000E-01      0.134316E-01
      0.350000E-01      0.130102E-01
      0.400000E-01      0.125397E-01
      0.450000E-01      0.120259E-01
      0.500000E-01      0.114753E-01
      0.550000E-01      0.108946E-01
      0.600000E-01      0.102907E-01
      0.650000E-01      0.967043E-02
      0.700000E-01      0.904059E-02
      0.750000E-01      0.840772E-02
      0.800000E-01      0.777807E-02
      0.850000E-01      0.715745E-02
      0.900000E-01      0.655116E-02
      0.950000E-01      0.596398E-02
      0.100000          0.540005E-02
      0.105000          0.486286E-02
      0.110000          0.435524E-02
      0.115000          0.387938E-02
      0.120000          0.343680E-02
      0.125000          0.302841E-02
      0.130000          0.265451E-02
      0.135000          0.231489E-02
      0.140000          0.200887E-02
      0.145000          0.173532E-02
      0.150000          0.149277E-02
      0.155000          0.127949E-02
      0.160000          0.109350E-02
      0.165000          0.932673E-03
      0.170000          0.794805E-03
      0.175000          0.677645E-03
      0.180000          0.578956E-03
      0.185000          0.496564E-03
      0.190000          0.428385E-03
      0.195000          0.372463E-03
      0.200000          0.326987E-03
      0.205000          0.290308E-03
      0.210000          0.260947E-03
      0.215000          0.237599E-03
      0.220000          0.219128E-03
      0.225000          0.204565E-03
      0.230000          0.193093E-03
      0.235000          0.184038E-03
      0.240000          0.176851E-03
      0.245000          0.171097E-03
      0.250000          0.166433E-03
      0.255000          0.162599E-03
      0.260000          0.159398E-03
      0.265000          0.156684E-03
      0.270000          0.154352E-03
      0.275000          0.152324E-03
      0.280000          0.150542E-03
      0.285000          0.148960E-03
      0.290000          0.147540E-03
      0.295000          0.146247E-03
      0.300000          0.145047E-03
      0.305000          0.143905E-03
      0.310000          0.142785E-03
      0.315000          0.141653E-03
      0.320000          0.140471E-03
      0.325000          0.139206E-03
      0.330000          0.137826E-03
      0.335000          0.136304E-03
      0.340000          0.134618E-03
      0.345000          0.132751E-03
      0.350000          0.130693E-03
      0.355000          0.128441E-03
      0.360000          0.126001E-03
      0.365000          0.123381E-03
      0.370000          0.120600E-03
      0.375000          0.117678E-03
      0.380000          0.114641E-03
      0.385000          0.111518E-03
      0.390000          0.108340E-03
      0.395000          0.105138E-03
      0.400000          0.101944E-03
      0.405000          0.987872E-04
      0.410000          0.956963E-04
      0.415000          0.926961E-04
      0.420000          0.898083E-04
      0.425000          0.870512E-04
      0.430000          0.844389E-04
      0.435000          0.819819E-04
      0.440000          0.796867E-04
      0.445000          0.775566E-04
      0.450000          0.755912E-04
      0.455000          0.737879E-04
      0.460000          0.721413E-04
      0.465000          0.706445E-04
      0.470000          0.692894E-04
      0.475000          0.680667E-04
      0.480000          0.669673E-04
      0.485000          0.659817E-04
      0.490000          0.651014E-04
      0.495000          0.643182E-04
      0.500000          0.636251E-04
