 I_abs(s)[cm^-1]/c[mg/ml]
       0.00000          0.146668E-01
      0.500000E-02      0.146134E-01
      0.100000E-01      0.144545E-01
      0.150000E-01      0.141936E-01
      0.200000E-01      0.138366E-01
      0.250000E-01      0.133913E-01
      0.300000E-01      0.128672E-01
      0.350000E-01      0.122754E-01
      0.400000E-01      0.116276E-01
      0.450000E-01      0.109364E-01
      0.500000E-01      0.102144E-01
      0.550000E-01      0.947401E-02
      0.600000E-01      0.872718E-02
      0.650000E-01      0.798488E-02
      0.700000E-01      0.725702E-02
      0.750000E-01      0.655225E-02
      0.800000E-01      0.587782E-02
      0.850000E-01      0.523956E-02
      0.900000E-01      0.464189E-02
      0.950000E-01      0.408787E-02
      0.100000          0.357930E-02
      0.105000          0.311687E-02
      0.110000          0.270029E-02
      0.115000          0.232846E-02
      0.120000          0.199959E-02
      0.125000          0.171142E-02
      0.130000          0.146129E-02
      0.135000          0.124629E-02
      0.140000          0.106337E-02
      0.145000          0.909420E-03
      0.150000          0.781341E-03
      0.155000          0.676102E-03
      0.160000          0.590788E-03
      0.165000          0.522628E-03
      0.170000          0.469027E-03
      0.175000          0.427580E-03
      0.180000          0.396092E-03
      0.185000          0.372578E-03
      0.190000          0.355278E-03
      0.195000          0.342652E-03
      0.200000          0.333382E-03
      0.205000          0.326365E-03
      0.210000          0.320701E-03
      0.215000          0.315685E-03
      0.220000          0.310790E-03
      0.225000          0.305645E-03
      0.230000          0.300022E-03
      0.235000          0.293809E-03
      0.240000          0.286989E-03
      0.245000          0.279625E-03
      0.250000          0.271833E-03
      0.255000          0.263767E-03
      0.260000          0.255604E-03
      0.265000          0.247526E-03
      0.270000          0.239712E-03
      0.275000          0.232326E-03
      0.280000          0.225509E-03
      0.285000          0.219377E-03
      0.290000          0.214012E-03
      0.295000          0.209461E-03
      0.300000          0.205739E-03
      0.305000          0.202825E-03
      0.310000          0.200665E-03
      0.315000          0.199177E-03
      0.320000          0.198256E-03
      0.325000          0.197775E-03
      0.330000          0.197596E-03
      0.335000          0.197575E-03
      0.340000          0.197567E-03
      0.345000          0.197436E-03
      0.350000          0.197061E-03
      0.355000          0.196338E-03
      0.360000          0.195187E-03
      0.365000          0.193555E-03
      0.370000          0.191413E-03
      0.375000          0.188761E-03
      0.380000          0.185621E-03
      0.385000          0.182036E-03
      0.390000          0.178065E-03
      0.395000          0.173779E-03
      0.400000          0.169255E-03
      0.405000          0.164569E-03
      0.410000          0.159796E-03
      0.415000          0.155002E-03
      0.420000          0.150246E-03
      0.425000          0.145574E-03
      0.430000          0.141020E-03
      0.435000          0.136607E-03
      0.440000          0.132350E-03
      0.445000          0.128254E-03
      0.450000          0.124318E-03
      0.455000          0.120538E-03
      0.460000          0.116908E-03
      0.465000          0.113422E-03
      0.470000          0.110076E-03
      0.475000          0.106865E-03
      0.480000          0.103791E-03
      0.485000          0.100853E-03
      0.490000          0.980548E-04
      0.495000          0.954011E-04
      0.500000          0.928957E-04
