 I_abs(s)[cm^-1]/c[mg/ml]
       0.00000          0.145159E-01
      0.500000E-02      0.144779E-01
      0.100000E-01      0.143647E-01
      0.150000E-01      0.141780E-01
      0.200000E-01      0.139205E-01
      0.250000E-01      0.135963E-01
      0.300000E-01      0.132100E-01
      0.350000E-01      0.127675E-01
      0.400000E-01      0.122749E-01
      0.450000E-01      0.117392E-01
      0.500000E-01      0.111678E-01
      0.550000E-01      0.105681E-01
      0.600000E-01      0.994779E-02
      0.650000E-01      0.931431E-02
      0.700000E-01      0.867500E-02
      0.750000E-01      0.803680E-02
      0.800000E-01      0.740617E-02
      0.850000E-01      0.678901E-02
      0.900000E-01      0.619056E-02
      0.950000E-01      0.561537E-02
      0.100000          0.506724E-02
      0.105000          0.454923E-02
      0.110000          0.406365E-02
      0.115000          0.361207E-02
      0.120000          0.319541E-02
      0.125000          0.281392E-02
      0.130000          0.246731E-02
      0.135000          0.215479E-02
      0.140000          0.187514E-02
      0.145000          0.162680E-02
      0.150000          0.140792E-02
      0.155000          0.121647E-02
      0.160000          0.105029E-02
      0.165000          0.907152E-03
      0.170000          0.784812E-03
      0.175000          0.681067E-03
      0.180000          0.593784E-03
      0.185000          0.520939E-03
      0.190000          0.460635E-03
      0.195000          0.411121E-03
      0.200000          0.370799E-03
      0.205000          0.338229E-03
      0.210000          0.312126E-03
      0.215000          0.291358E-03
      0.220000          0.274936E-03
      0.225000          0.262004E-03
      0.230000          0.251829E-03
      0.235000          0.243790E-03
      0.240000          0.237364E-03
      0.245000          0.232114E-03
      0.250000          0.227682E-03
      0.255000          0.223778E-03
      0.260000          0.220167E-03
      0.265000          0.216666E-03
      0.270000          0.213135E-03
      0.275000          0.209471E-03
      0.280000          0.205601E-03
      0.285000          0.201482E-03
      0.290000          0.197092E-03
      0.295000          0.192426E-03
      0.300000          0.187499E-03
      0.305000          0.182335E-03
      0.310000          0.176970E-03
      0.315000          0.171445E-03
      0.320000          0.165807E-03
      0.325000          0.160107E-03
      0.330000          0.154393E-03
      0.335000          0.148715E-03
      0.340000          0.143118E-03
      0.345000          0.137644E-03
      0.350000          0.132331E-03
      0.355000          0.127210E-03
      0.360000          0.122307E-03
      0.365000          0.117641E-03
      0.370000          0.113226E-03
      0.375000          0.109070E-03
      0.380000          0.105175E-03
      0.385000          0.101539E-03
      0.390000          0.981565E-04
      0.395000          0.950177E-04
      0.400000          0.921110E-04
      0.405000          0.894226E-04
      0.410000          0.869379E-04
      0.415000          0.846415E-04
      0.420000          0.825180E-04
      0.425000          0.805526E-04
      0.430000          0.787311E-04
      0.435000          0.770407E-04
      0.440000          0.754694E-04
      0.445000          0.740068E-04
      0.450000          0.726440E-04
      0.455000          0.713732E-04
      0.460000          0.701880E-04
      0.465000          0.690835E-04
      0.470000          0.680555E-04
      0.475000          0.671011E-04
      0.480000          0.662183E-04
      0.485000          0.654055E-04
      0.490000          0.646620E-04
      0.495000          0.639874E-04
      0.500000          0.633817E-04
