 I_abs(s)[cm^-1]/c[mg/ml]
       0.00000          0.145396E-01
      0.500000E-02      0.145052E-01
      0.100000E-01      0.144022E-01
      0.150000E-01      0.142321E-01
      0.200000E-01      0.139971E-01
      0.250000E-01      0.137002E-01
      0.300000E-01      0.133454E-01
      0.350000E-01      0.129370E-01
      0.400000E-01      0.124803E-01
      0.450000E-01      0.119809E-01
      0.500000E-01      0.114448E-01
      0.550000E-01      0.108783E-01
      0.600000E-01      0.102879E-01
      0.650000E-01      0.968015E-02
      0.700000E-01      0.906156E-02
      0.750000E-01      0.843843E-02
      0.800000E-01      0.781682E-02
      0.850000E-01      0.720244E-02
      0.900000E-01      0.660055E-02
      0.950000E-01      0.601592E-02
      0.100000          0.545277E-02
      0.105000          0.491472E-02
      0.110000          0.440480E-02
      0.115000          0.392539E-02
      0.120000          0.347824E-02
      0.125000          0.306454E-02
      0.130000          0.268485E-02
      0.135000          0.233923E-02
      0.140000          0.202722E-02
      0.145000          0.174795E-02
      0.150000          0.150014E-02
      0.155000          0.128220E-02
      0.160000          0.109230E-02
      0.165000          0.928386E-03
      0.170000          0.788291E-03
      0.175000          0.669764E-03
      0.180000          0.570531E-03
      0.185000          0.488342E-03
      0.190000          0.421015E-03
      0.195000          0.366471E-03
      0.200000          0.322759E-03
      0.205000          0.288084E-03
      0.210000          0.260819E-03
      0.215000          0.239514E-03
      0.220000          0.222903E-03
      0.225000          0.209898E-03
      0.230000          0.199587E-03
      0.235000          0.191220E-03
      0.240000          0.184201E-03
      0.245000          0.178070E-03
      0.250000          0.172487E-03
      0.255000          0.167216E-03
      0.260000          0.162108E-03
      0.265000          0.157083E-03
      0.270000          0.152116E-03
      0.275000          0.147218E-03
      0.280000          0.142432E-03
      0.285000          0.137812E-03
      0.290000          0.133420E-03
      0.295000          0.129315E-03
      0.300000          0.125550E-03
      0.305000          0.122166E-03
      0.310000          0.119191E-03
      0.315000          0.116637E-03
      0.320000          0.114501E-03
      0.325000          0.112768E-03
      0.330000          0.111408E-03
      0.335000          0.110383E-03
      0.340000          0.109645E-03
      0.345000          0.109143E-03
      0.350000          0.108823E-03
      0.355000          0.108629E-03
      0.360000          0.108508E-03
      0.365000          0.108411E-03
      0.370000          0.108295E-03
      0.375000          0.108121E-03
      0.380000          0.107857E-03
      0.385000          0.107482E-03
      0.390000          0.106977E-03
      0.395000          0.106335E-03
      0.400000          0.105552E-03
      0.405000          0.104631E-03
      0.410000          0.103582E-03
      0.415000          0.102416E-03
      0.420000          0.101149E-03
      0.425000          0.998003E-04
      0.430000          0.983882E-04
      0.435000          0.969334E-04
      0.440000          0.954557E-04
      0.445000          0.939744E-04
      0.450000          0.925072E-04
      0.455000          0.910701E-04
      0.460000          0.896772E-04
      0.465000          0.883398E-04
      0.470000          0.870671E-04
      0.475000          0.858657E-04
      0.480000          0.847399E-04
      0.485000          0.836915E-04
      0.490000          0.827204E-04
      0.495000          0.818243E-04
      0.500000          0.809995E-04
