 I_abs(s)[cm^-1]/c[mg/ml]
       0.00000          0.144051E-01
      0.500000E-02      0.143685E-01
      0.100000E-01      0.142589E-01
      0.150000E-01      0.140781E-01
      0.200000E-01      0.138287E-01
      0.250000E-01      0.135142E-01
      0.300000E-01      0.131390E-01
      0.350000E-01      0.127085E-01
      0.400000E-01      0.122286E-01
      0.450000E-01      0.117057E-01
      0.500000E-01      0.111466E-01
      0.550000E-01      0.105586E-01
      0.600000E-01      0.994880E-02
      0.650000E-01      0.932458E-02
      0.700000E-01      0.869299E-02
      0.750000E-01      0.806086E-02
      0.800000E-01      0.743462E-02
      0.850000E-01      0.682020E-02
      0.900000E-01      0.622297E-02
      0.950000E-01      0.564766E-02
      0.100000          0.509828E-02
      0.105000          0.457816E-02
      0.110000          0.408988E-02
      0.115000          0.363529E-02
      0.120000          0.321555E-02
      0.125000          0.283118E-02
      0.130000          0.248207E-02
      0.135000          0.216754E-02
      0.140000          0.188649E-02
      0.145000          0.163735E-02
      0.150000          0.141828E-02
      0.155000          0.122715E-02
      0.160000          0.106166E-02
      0.165000          0.919445E-03
      0.170000          0.798059E-03
      0.175000          0.695105E-03
      0.180000          0.608258E-03
      0.185000          0.535312E-03
      0.190000          0.474214E-03
      0.195000          0.423092E-03
      0.200000          0.380268E-03
      0.205000          0.344268E-03
      0.210000          0.313823E-03
      0.215000          0.287865E-03
      0.220000          0.265513E-03
      0.225000          0.246058E-03
      0.230000          0.228949E-03
      0.235000          0.213766E-03
      0.240000          0.200203E-03
      0.245000          0.188046E-03
      0.250000          0.177151E-03
      0.255000          0.167424E-03
      0.260000          0.158806E-03
      0.265000          0.151257E-03
      0.270000          0.144744E-03
      0.275000          0.139230E-03
      0.280000          0.134672E-03
      0.285000          0.131009E-03
      0.290000          0.128168E-03
      0.295000          0.126059E-03
      0.300000          0.124580E-03
      0.305000          0.123617E-03
      0.310000          0.123051E-03
      0.315000          0.122759E-03
      0.320000          0.122622E-03
      0.325000          0.122527E-03
      0.330000          0.122371E-03
      0.335000          0.122066E-03
      0.340000          0.121541E-03
      0.345000          0.120741E-03
      0.350000          0.119631E-03
      0.355000          0.118196E-03
      0.360000          0.116438E-03
      0.365000          0.114375E-03
      0.370000          0.112039E-03
      0.375000          0.109475E-03
      0.380000          0.106736E-03
      0.385000          0.103881E-03
      0.390000          0.100971E-03
      0.395000          0.980668E-04
      0.400000          0.952273E-04
      0.405000          0.925054E-04
      0.410000          0.899472E-04
      0.415000          0.875902E-04
      0.420000          0.854624E-04
      0.425000          0.835822E-04
      0.430000          0.819577E-04
      0.435000          0.805877E-04
      0.440000          0.794620E-04
      0.445000          0.785630E-04
      0.450000          0.778666E-04
      0.455000          0.773437E-04
      0.460000          0.769621E-04
      0.465000          0.766877E-04
      0.470000          0.764864E-04
      0.475000          0.763251E-04
      0.480000          0.761734E-04
      0.485000          0.760045E-04
      0.490000          0.757959E-04
      0.495000          0.755304E-04
      0.500000          0.751963E-04
