 I_abs(s)[cm^-1]/c[mg/ml]
       0.00000          0.146429E-01
      0.500000E-02      0.146070E-01
      0.100000E-01      0.144997E-01
      0.150000E-01      0.143226E-01
      0.200000E-01      0.140783E-01
      0.250000E-01      0.137701E-01
      0.300000E-01      0.134024E-01
      0.350000E-01      0.129802E-01
      0.400000E-01      0.125091E-01
      0.450000E-01      0.119955E-01
      0.500000E-01      0.114459E-01
      0.550000E-01      0.108672E-01
      0.600000E-01      0.102662E-01
      0.650000E-01      0.965006E-02
      0.700000E-01      0.902541E-02
      0.750000E-01      0.839882E-02
      0.800000E-01      0.777644E-02
      0.850000E-01      0.716395E-02
      0.900000E-01      0.656649E-02
      0.950000E-01      0.598862E-02
      0.100000          0.543423E-02
      0.105000          0.490657E-02
      0.110000          0.440821E-02
      0.115000          0.394108E-02
      0.120000          0.350645E-02
      0.125000          0.310502E-02
      0.130000          0.273692E-02
      0.135000          0.240180E-02
      0.140000          0.209887E-02
      0.145000          0.182699E-02
      0.150000          0.158470E-02
      0.155000          0.137032E-02
      0.160000          0.118198E-02
      0.165000          0.101771E-02
      0.170000          0.875474E-03
      0.175000          0.753235E-03
      0.180000          0.648977E-03
      0.185000          0.560747E-03
      0.190000          0.486686E-03
      0.195000          0.425044E-03
      0.200000          0.374195E-03
      0.205000          0.332648E-03
      0.210000          0.299048E-03
      0.215000          0.272177E-03
      0.220000          0.250947E-03
      0.225000          0.234399E-03
      0.230000          0.221687E-03
      0.235000          0.212077E-03
      0.240000          0.204929E-03
      0.245000          0.199694E-03
      0.250000          0.195900E-03
      0.255000          0.193146E-03
      0.260000          0.191091E-03
      0.265000          0.189451E-03
      0.270000          0.187989E-03
      0.275000          0.186513E-03
      0.280000          0.184868E-03
      0.285000          0.182936E-03
      0.290000          0.180630E-03
      0.295000          0.177894E-03
      0.300000          0.174695E-03
      0.305000          0.171027E-03
      0.310000          0.166902E-03
      0.315000          0.162352E-03
      0.320000          0.157426E-03
      0.325000          0.152181E-03
      0.330000          0.146689E-03
      0.335000          0.141024E-03
      0.340000          0.135266E-03
      0.345000          0.129497E-03
      0.350000          0.123793E-03
      0.355000          0.118230E-03
      0.360000          0.112874E-03
      0.365000          0.107785E-03
      0.370000          0.103011E-03
      0.375000          0.985931E-04
      0.380000          0.945572E-04
      0.385000          0.909200E-04
      0.390000          0.876869E-04
      0.395000          0.848530E-04
      0.400000          0.824040E-04
      0.405000          0.803176E-04
      0.410000          0.785645E-04
      0.415000          0.771103E-04
      0.420000          0.759171E-04
      0.425000          0.749445E-04
      0.430000          0.741517E-04
      0.435000          0.734984E-04
      0.440000          0.729465E-04
      0.445000          0.724606E-04
      0.450000          0.720093E-04
      0.455000          0.715655E-04
      0.460000          0.711072E-04
      0.465000          0.706172E-04
      0.470000          0.700837E-04
      0.475000          0.694997E-04
      0.480000          0.688631E-04
      0.485000          0.681758E-04
      0.490000          0.674438E-04
      0.495000          0.666758E-04
      0.500000          0.658835E-04
