 I_abs(s)[cm^-1]/c[mg/ml]
       0.00000          0.146429E-01
      0.500000E-02      0.146077E-01
      0.100000E-01      0.145026E-01
      0.150000E-01      0.143289E-01
      0.200000E-01      0.140892E-01
      0.250000E-01      0.137866E-01
      0.300000E-01      0.134252E-01
      0.350000E-01      0.130098E-01
      0.400000E-01      0.125457E-01
      0.450000E-01      0.120389E-01
      0.500000E-01      0.114957E-01
      0.550000E-01      0.109226E-01
      0.600000E-01      0.103264E-01
      0.650000E-01      0.971381E-02
      0.700000E-01      0.909140E-02
      0.750000E-01      0.846559E-02
      0.800000E-01      0.784248E-02
      0.850000E-01      0.722776E-02
      0.900000E-01      0.662660E-02
      0.950000E-01      0.604366E-02
      0.100000          0.548300E-02
      0.105000          0.494804E-02
      0.110000          0.444158E-02
      0.115000          0.396577E-02
      0.120000          0.352216E-02
      0.125000          0.311167E-02
      0.130000          0.273470E-02
      0.135000          0.239112E-02
      0.140000          0.208034E-02
      0.145000          0.180137E-02
      0.150000          0.155291E-02
      0.155000          0.133336E-02
      0.160000          0.114092E-02
      0.165000          0.973632E-03
      0.170000          0.829448E-03
      0.175000          0.706273E-03
      0.180000          0.602015E-03
      0.185000          0.514623E-03
      0.190000          0.442117E-03
      0.195000          0.382622E-03
      0.200000          0.334380E-03
      0.205000          0.295771E-03
      0.210000          0.265315E-03
      0.215000          0.241682E-03
      0.220000          0.223688E-03
      0.225000          0.210290E-03
      0.230000          0.200583E-03
      0.235000          0.193785E-03
      0.240000          0.189233E-03
      0.245000          0.186367E-03
      0.250000          0.184720E-03
      0.255000          0.183907E-03
      0.260000          0.183615E-03
      0.265000          0.183590E-03
      0.270000          0.183631E-03
      0.275000          0.183580E-03
      0.280000          0.183315E-03
      0.285000          0.182746E-03
      0.290000          0.181809E-03
      0.295000          0.180460E-03
      0.300000          0.178676E-03
      0.305000          0.176446E-03
      0.310000          0.173775E-03
      0.315000          0.170680E-03
      0.320000          0.167186E-03
      0.325000          0.163327E-03
      0.330000          0.159145E-03
      0.335000          0.154687E-03
      0.340000          0.150004E-03
      0.345000          0.145149E-03
      0.350000          0.140178E-03
      0.355000          0.135145E-03
      0.360000          0.130106E-03
      0.365000          0.125112E-03
      0.370000          0.120210E-03
      0.375000          0.115445E-03
      0.380000          0.110853E-03
      0.385000          0.106467E-03
      0.390000          0.102313E-03
      0.395000          0.984090E-04
      0.400000          0.947678E-04
      0.405000          0.913955E-04
      0.410000          0.882919E-04
      0.415000          0.854516E-04
      0.420000          0.828644E-04
      0.425000          0.805163E-04
      0.430000          0.783899E-04
      0.435000          0.764656E-04
      0.440000          0.747223E-04
      0.445000          0.731385E-04
      0.450000          0.716925E-04
      0.455000          0.703638E-04
      0.460000          0.691331E-04
      0.465000          0.679829E-04
      0.470000          0.668983E-04
      0.475000          0.658665E-04
      0.480000          0.648777E-04
      0.485000          0.639246E-04
      0.490000          0.630023E-04
      0.495000          0.621086E-04
      0.500000          0.612435E-04
