 I_abs(s)[cm^-1]/c[mg/ml]
       0.00000          0.145476E-01
      0.500000E-02      0.145118E-01
      0.100000E-01      0.144050E-01
      0.150000E-01      0.142286E-01
      0.200000E-01      0.139852E-01
      0.250000E-01      0.136781E-01
      0.300000E-01      0.133115E-01
      0.350000E-01      0.128904E-01
      0.400000E-01      0.124205E-01
      0.450000E-01      0.119077E-01
      0.500000E-01      0.113587E-01
      0.550000E-01      0.107802E-01
      0.600000E-01      0.101792E-01
      0.650000E-01      0.956254E-02
      0.700000E-01      0.893711E-02
      0.750000E-01      0.830945E-02
      0.800000E-01      0.768578E-02
      0.850000E-01      0.707185E-02
      0.900000E-01      0.647293E-02
      0.950000E-01      0.589369E-02
      0.100000          0.533815E-02
      0.105000          0.480969E-02
      0.110000          0.431102E-02
      0.115000          0.384416E-02
      0.120000          0.341049E-02
      0.125000          0.301077E-02
      0.130000          0.264518E-02
      0.135000          0.231338E-02
      0.140000          0.201455E-02
      0.145000          0.174748E-02
      0.150000          0.151064E-02
      0.155000          0.130220E-02
      0.160000          0.112018E-02
      0.165000          0.962422E-03
      0.170000          0.826730E-03
      0.175000          0.710876E-03
      0.180000          0.612667E-03
      0.185000          0.529984E-03
      0.190000          0.460812E-03
      0.195000          0.403273E-03
      0.200000          0.355641E-03
      0.205000          0.316357E-03
      0.210000          0.284032E-03
      0.215000          0.257451E-03
      0.220000          0.235565E-03
      0.225000          0.217488E-03
      0.230000          0.202480E-03
      0.235000          0.189935E-03
      0.240000          0.179368E-03
      0.245000          0.170397E-03
      0.250000          0.162728E-03
      0.255000          0.156137E-03
      0.260000          0.150458E-03
      0.265000          0.145572E-03
      0.270000          0.141387E-03
      0.275000          0.137838E-03
      0.280000          0.134871E-03
      0.285000          0.132441E-03
      0.290000          0.130505E-03
      0.295000          0.129020E-03
      0.300000          0.127937E-03
      0.305000          0.127206E-03
      0.310000          0.126772E-03
      0.315000          0.126576E-03
      0.320000          0.126557E-03
      0.325000          0.126653E-03
      0.330000          0.126802E-03
      0.335000          0.126947E-03
      0.340000          0.127030E-03
      0.345000          0.127004E-03
      0.350000          0.126823E-03
      0.355000          0.126452E-03
      0.360000          0.125861E-03
      0.365000          0.125030E-03
      0.370000          0.123944E-03
      0.375000          0.122598E-03
      0.380000          0.120993E-03
      0.385000          0.119137E-03
      0.390000          0.117043E-03
      0.395000          0.114728E-03
      0.400000          0.112216E-03
      0.405000          0.109530E-03
      0.410000          0.106699E-03
      0.415000          0.103751E-03
      0.420000          0.100716E-03
      0.425000          0.976226E-04
      0.430000          0.945006E-04
      0.435000          0.913781E-04
      0.440000          0.882819E-04
      0.445000          0.852371E-04
      0.450000          0.822671E-04
      0.455000          0.793930E-04
      0.460000          0.766337E-04
      0.465000          0.740060E-04
      0.470000          0.715243E-04
      0.475000          0.692004E-04
      0.480000          0.670441E-04
      0.485000          0.650629E-04
      0.490000          0.632621E-04
      0.495000          0.616447E-04
      0.500000          0.602119E-04
