 I_abs(s)[cm^-1]/c[mg/ml]
       0.00000          0.144763E-01
      0.500000E-02      0.144384E-01
      0.100000E-01      0.143255E-01
      0.150000E-01      0.141391E-01
      0.200000E-01      0.138822E-01
      0.250000E-01      0.135586E-01
      0.300000E-01      0.131731E-01
      0.350000E-01      0.127312E-01
      0.400000E-01      0.122394E-01
      0.450000E-01      0.117045E-01
      0.500000E-01      0.111338E-01
      0.550000E-01      0.105348E-01
      0.600000E-01      0.991524E-02
      0.650000E-01      0.928263E-02
      0.700000E-01      0.864433E-02
      0.750000E-01      0.800736E-02
      0.800000E-01      0.737827E-02
      0.850000E-01      0.676305E-02
      0.900000E-01      0.616702E-02
      0.950000E-01      0.559479E-02
      0.100000          0.505023E-02
      0.105000          0.453642E-02
      0.110000          0.405567E-02
      0.115000          0.360954E-02
      0.120000          0.319885E-02
      0.125000          0.282378E-02
      0.130000          0.248390E-02
      0.135000          0.217824E-02
      0.140000          0.190540E-02
      0.145000          0.166359E-02
      0.150000          0.145077E-02
      0.155000          0.126468E-02
      0.160000          0.110294E-02
      0.165000          0.963136E-03
      0.170000          0.842859E-03
      0.175000          0.739777E-03
      0.180000          0.651674E-03
      0.185000          0.576488E-03
      0.190000          0.512336E-03
      0.195000          0.457534E-03
      0.200000          0.410599E-03
      0.205000          0.370251E-03
      0.210000          0.335408E-03
      0.215000          0.305170E-03
      0.220000          0.278806E-03
      0.225000          0.255732E-03
      0.230000          0.235486E-03
      0.235000          0.217715E-03
      0.240000          0.202144E-03
      0.245000          0.188563E-03
      0.250000          0.176803E-03
      0.255000          0.166725E-03
      0.260000          0.158204E-03
      0.265000          0.151120E-03
      0.270000          0.145351E-03
      0.275000          0.140766E-03
      0.280000          0.137228E-03
      0.285000          0.134589E-03
      0.290000          0.132695E-03
      0.295000          0.131390E-03
      0.300000          0.130515E-03
      0.305000          0.129918E-03
      0.310000          0.129456E-03
      0.315000          0.129000E-03
      0.320000          0.128437E-03
      0.325000          0.127676E-03
      0.330000          0.126645E-03
      0.335000          0.125298E-03
      0.340000          0.123610E-03
      0.345000          0.121580E-03
      0.350000          0.119226E-03
      0.355000          0.116584E-03
      0.360000          0.113704E-03
      0.365000          0.110649E-03
      0.370000          0.107487E-03
      0.375000          0.104291E-03
      0.380000          0.101134E-03
      0.385000          0.980860E-04
      0.390000          0.952090E-04
      0.395000          0.925575E-04
      0.400000          0.901752E-04
      0.405000          0.880932E-04
      0.410000          0.863301E-04
      0.415000          0.848915E-04
      0.420000          0.837704E-04
      0.425000          0.829482E-04
      0.430000          0.823959E-04
      0.435000          0.820760E-04
      0.440000          0.819445E-04
      0.445000          0.819527E-04
      0.450000          0.820493E-04
      0.455000          0.821831E-04
      0.460000          0.823046E-04
      0.465000          0.823680E-04
      0.470000          0.823327E-04
      0.475000          0.821650E-04
      0.480000          0.818388E-04
      0.485000          0.813367E-04
      0.490000          0.806499E-04
      0.495000          0.797786E-04
      0.500000          0.787315E-04
