 I_abs(s)[cm^-1]/c[mg/ml]
       0.00000          0.144051E-01
      0.500000E-02      0.143607E-01
      0.100000E-01      0.142282E-01
      0.150000E-01      0.140100E-01
      0.200000E-01      0.137099E-01
      0.250000E-01      0.133332E-01
      0.300000E-01      0.128865E-01
      0.350000E-01      0.123773E-01
      0.400000E-01      0.118142E-01
      0.450000E-01      0.112062E-01
      0.500000E-01      0.105629E-01
      0.550000E-01      0.989419E-02
      0.600000E-01      0.920974E-02
      0.650000E-01      0.851904E-02
      0.700000E-01      0.783113E-02
      0.750000E-01      0.715438E-02
      0.800000E-01      0.649640E-02
      0.850000E-01      0.586383E-02
      0.900000E-01      0.526233E-02
      0.950000E-01      0.469648E-02
      0.100000          0.416978E-02
      0.105000          0.368461E-02
      0.110000          0.324235E-02
      0.115000          0.284338E-02
      0.120000          0.248717E-02
      0.125000          0.217245E-02
      0.130000          0.189724E-02
      0.135000          0.165905E-02
      0.140000          0.145496E-02
      0.145000          0.128177E-02
      0.150000          0.113613E-02
      0.155000          0.101461E-02
      0.160000          0.913874E-03
      0.165000          0.830684E-03
      0.170000          0.762023E-03
      0.175000          0.705133E-03
      0.180000          0.657553E-03
      0.185000          0.617140E-03
      0.190000          0.582082E-03
      0.195000          0.550887E-03
      0.200000          0.522374E-03
      0.205000          0.495645E-03
      0.210000          0.470059E-03
      0.215000          0.445194E-03
      0.220000          0.420813E-03
      0.225000          0.396826E-03
      0.230000          0.373256E-03
      0.235000          0.350206E-03
      0.240000          0.327828E-03
      0.245000          0.306298E-03
      0.250000          0.285795E-03
      0.255000          0.266488E-03
      0.260000          0.248516E-03
      0.265000          0.231991E-03
      0.270000          0.216982E-03
      0.275000          0.203525E-03
      0.280000          0.191615E-03
      0.285000          0.181216E-03
      0.290000          0.172260E-03
      0.295000          0.164658E-03
      0.300000          0.158299E-03
      0.305000          0.153062E-03
      0.310000          0.148814E-03
      0.315000          0.145422E-03
      0.320000          0.142751E-03
      0.325000          0.140670E-03
      0.330000          0.139054E-03
      0.335000          0.137786E-03
      0.340000          0.136758E-03
      0.345000          0.135870E-03
      0.350000          0.135037E-03
      0.355000          0.134182E-03
      0.360000          0.133238E-03
      0.365000          0.132154E-03
      0.370000          0.130885E-03
      0.375000          0.129402E-03
      0.380000          0.127684E-03
      0.385000          0.125723E-03
      0.390000          0.123520E-03
      0.395000          0.121088E-03
      0.400000          0.118448E-03
      0.405000          0.115631E-03
      0.410000          0.112673E-03
      0.415000          0.109618E-03
      0.420000          0.106513E-03
      0.425000          0.103410E-03
      0.430000          0.100360E-03
      0.435000          0.974116E-04
      0.440000          0.946138E-04
      0.445000          0.920087E-04
      0.450000          0.896329E-04
      0.455000          0.875154E-04
      0.460000          0.856767E-04
      0.465000          0.841283E-04
      0.470000          0.828720E-04
      0.475000          0.819007E-04
      0.480000          0.811984E-04
      0.485000          0.807415E-04
      0.490000          0.804996E-04
      0.495000          0.804373E-04
      0.500000          0.805158E-04
