 I_abs(s)[cm^-1]/c[mg/ml]
       0.00000          0.145396E-01
      0.500000E-02      0.144980E-01
      0.100000E-01      0.143737E-01
      0.150000E-01      0.141689E-01
      0.200000E-01      0.138870E-01
      0.250000E-01      0.135329E-01
      0.300000E-01      0.131123E-01
      0.350000E-01      0.126320E-01
      0.400000E-01      0.120998E-01
      0.450000E-01      0.115236E-01
      0.500000E-01      0.109122E-01
      0.550000E-01      0.102743E-01
      0.600000E-01      0.961860E-02
      0.650000E-01      0.895360E-02
      0.700000E-01      0.828741E-02
      0.750000E-01      0.762760E-02
      0.800000E-01      0.698103E-02
      0.850000E-01      0.635381E-02
      0.900000E-01      0.575117E-02
      0.950000E-01      0.517745E-02
      0.100000          0.463609E-02
      0.105000          0.412963E-02
      0.110000          0.365976E-02
      0.115000          0.322733E-02
      0.120000          0.283252E-02
      0.125000          0.247481E-02
      0.130000          0.215316E-02
      0.135000          0.186608E-02
      0.140000          0.161171E-02
      0.145000          0.138794E-02
      0.150000          0.119248E-02
      0.155000          0.102293E-02
      0.160000          0.876894E-03
      0.165000          0.751983E-03
      0.170000          0.645897E-03
      0.175000          0.556446E-03
      0.180000          0.481580E-03
      0.185000          0.419407E-03
      0.190000          0.368195E-03
      0.195000          0.326380E-03
      0.200000          0.292559E-03
      0.205000          0.265481E-03
      0.210000          0.244040E-03
      0.215000          0.227263E-03
      0.220000          0.214296E-03
      0.225000          0.204394E-03
      0.230000          0.196911E-03
      0.235000          0.191289E-03
      0.240000          0.187051E-03
      0.245000          0.183790E-03
      0.250000          0.181168E-03
      0.255000          0.178907E-03
      0.260000          0.176784E-03
      0.265000          0.174629E-03
      0.270000          0.172319E-03
      0.275000          0.169772E-03
      0.280000          0.166944E-03
      0.285000          0.163827E-03
      0.290000          0.160435E-03
      0.295000          0.156811E-03
      0.300000          0.153009E-03
      0.305000          0.149099E-03
      0.310000          0.145156E-03
      0.315000          0.141258E-03
      0.320000          0.137479E-03
      0.325000          0.133889E-03
      0.330000          0.130549E-03
      0.335000          0.127511E-03
      0.340000          0.124812E-03
      0.345000          0.122480E-03
      0.350000          0.120529E-03
      0.355000          0.118961E-03
      0.360000          0.117768E-03
      0.365000          0.116933E-03
      0.370000          0.116430E-03
      0.375000          0.116227E-03
      0.380000          0.116289E-03
      0.385000          0.116577E-03
      0.390000          0.117051E-03
      0.395000          0.117670E-03
      0.400000          0.118396E-03
      0.405000          0.119190E-03
      0.410000          0.120017E-03
      0.415000          0.120843E-03
      0.420000          0.121638E-03
      0.425000          0.122374E-03
      0.430000          0.123027E-03
      0.435000          0.123574E-03
      0.440000          0.123996E-03
      0.445000          0.124277E-03
      0.450000          0.124403E-03
      0.455000          0.124362E-03
      0.460000          0.124146E-03
      0.465000          0.123750E-03
      0.470000          0.123169E-03
      0.475000          0.122403E-03
      0.480000          0.121456E-03
      0.485000          0.120330E-03
      0.490000          0.119034E-03
      0.495000          0.117578E-03
      0.500000          0.115973E-03
