 I_abs(s)[cm^-1]/c[mg/ml]
       0.00000          0.143894E-01
      0.500000E-02      0.143540E-01
      0.100000E-01      0.142486E-01
      0.150000E-01      0.140745E-01
      0.200000E-01      0.138342E-01
      0.250000E-01      0.135310E-01
      0.300000E-01      0.131690E-01
      0.350000E-01      0.127533E-01
      0.400000E-01      0.122894E-01
      0.450000E-01      0.117832E-01
      0.500000E-01      0.112412E-01
      0.550000E-01      0.106703E-01
      0.600000E-01      0.100771E-01
      0.650000E-01      0.946860E-02
      0.700000E-01      0.885150E-02
      0.750000E-01      0.823228E-02
      0.800000E-01      0.761709E-02
      0.850000E-01      0.701164E-02
      0.900000E-01      0.642111E-02
      0.950000E-01      0.585012E-02
      0.100000          0.530263E-02
      0.105000          0.478198E-02
      0.110000          0.429081E-02
      0.115000          0.383110E-02
      0.120000          0.340419E-02
      0.125000          0.301079E-02
      0.130000          0.265105E-02
      0.135000          0.232458E-02
      0.140000          0.203055E-02
      0.145000          0.176772E-02
      0.150000          0.153452E-02
      0.155000          0.132914E-02
      0.160000          0.114957E-02
      0.165000          0.993674E-03
      0.170000          0.859248E-03
      0.175000          0.744089E-03
      0.180000          0.646030E-03
      0.185000          0.562985E-03
      0.190000          0.492985E-03
      0.195000          0.434200E-03
      0.200000          0.384957E-03
      0.205000          0.343756E-03
      0.210000          0.309270E-03
      0.215000          0.280347E-03
      0.220000          0.256000E-03
      0.225000          0.235401E-03
      0.230000          0.217865E-03
      0.235000          0.202838E-03
      0.240000          0.189878E-03
      0.245000          0.178637E-03
      0.250000          0.168849E-03
      0.255000          0.160307E-03
      0.260000          0.152858E-03
      0.265000          0.146379E-03
      0.270000          0.140778E-03
      0.275000          0.135973E-03
      0.280000          0.131894E-03
      0.285000          0.128475E-03
      0.290000          0.125647E-03
      0.295000          0.123343E-03
      0.300000          0.121490E-03
      0.305000          0.120015E-03
      0.310000          0.118845E-03
      0.315000          0.117905E-03
      0.320000          0.117126E-03
      0.325000          0.116440E-03
      0.330000          0.115789E-03
      0.335000          0.115121E-03
      0.340000          0.114393E-03
      0.345000          0.113573E-03
      0.350000          0.112637E-03
      0.355000          0.111573E-03
      0.360000          0.110379E-03
      0.365000          0.109058E-03
      0.370000          0.107624E-03
      0.375000          0.106094E-03
      0.380000          0.104492E-03
      0.385000          0.102842E-03
      0.390000          0.101172E-03
      0.395000          0.995083E-04
      0.400000          0.978762E-04
      0.405000          0.962984E-04
      0.410000          0.947945E-04
      0.415000          0.933802E-04
      0.420000          0.920669E-04
      0.425000          0.908612E-04
      0.430000          0.897656E-04
      0.435000          0.887784E-04
      0.440000          0.878936E-04
      0.445000          0.871023E-04
      0.450000          0.863926E-04
      0.455000          0.857503E-04
      0.460000          0.851598E-04
      0.465000          0.846046E-04
      0.470000          0.840679E-04
      0.475000          0.835333E-04
      0.480000          0.829851E-04
      0.485000          0.824090E-04
      0.490000          0.817925E-04
      0.495000          0.811248E-04
      0.500000          0.803975E-04
