 I_abs(s)[cm^-1]/c[mg/ml]
       0.00000          0.143578E-01
      0.500000E-02      0.143210E-01
      0.100000E-01      0.142112E-01
      0.150000E-01      0.140301E-01
      0.200000E-01      0.137802E-01
      0.250000E-01      0.134654E-01
      0.300000E-01      0.130903E-01
      0.350000E-01      0.126602E-01
      0.400000E-01      0.121814E-01
      0.450000E-01      0.116602E-01
      0.500000E-01      0.111039E-01
      0.550000E-01      0.105197E-01
      0.600000E-01      0.991495E-02
      0.650000E-01      0.929691E-02
      0.700000E-01      0.867272E-02
      0.750000E-01      0.804916E-02
      0.800000E-01      0.743255E-02
      0.850000E-01      0.682870E-02
      0.900000E-01      0.624279E-02
      0.950000E-01      0.567931E-02
      0.100000          0.514204E-02
      0.105000          0.463401E-02
      0.110000          0.415751E-02
      0.115000          0.371413E-02
      0.120000          0.330475E-02
      0.125000          0.292961E-02
      0.130000          0.258838E-02
      0.135000          0.228023E-02
      0.140000          0.200389E-02
      0.145000          0.175772E-02
      0.150000          0.153984E-02
      0.155000          0.134815E-02
      0.160000          0.118042E-02
      0.165000          0.103439E-02
      0.170000          0.907796E-03
      0.175000          0.798437E-03
      0.180000          0.704213E-03
      0.185000          0.623163E-03
      0.190000          0.553491E-03
      0.195000          0.493579E-03
      0.200000          0.441996E-03
      0.205000          0.397498E-03
      0.210000          0.359024E-03
      0.215000          0.325681E-03
      0.220000          0.296732E-03
      0.225000          0.271577E-03
      0.230000          0.249732E-03
      0.235000          0.230813E-03
      0.240000          0.214510E-03
      0.245000          0.200573E-03
      0.250000          0.188795E-03
      0.255000          0.178994E-03
      0.260000          0.171006E-03
      0.265000          0.164670E-03
      0.270000          0.159827E-03
      0.275000          0.156309E-03
      0.280000          0.153947E-03
      0.285000          0.152559E-03
      0.290000          0.151963E-03
      0.295000          0.151974E-03
      0.300000          0.152406E-03
      0.305000          0.153082E-03
      0.310000          0.153834E-03
      0.315000          0.154510E-03
      0.320000          0.154975E-03
      0.325000          0.155115E-03
      0.330000          0.154838E-03
      0.335000          0.154079E-03
      0.340000          0.152794E-03
      0.345000          0.150966E-03
      0.350000          0.148600E-03
      0.355000          0.145719E-03
      0.360000          0.142367E-03
      0.365000          0.138600E-03
      0.370000          0.134486E-03
      0.375000          0.130102E-03
      0.380000          0.125528E-03
      0.385000          0.120846E-03
      0.390000          0.116135E-03
      0.395000          0.111470E-03
      0.400000          0.106920E-03
      0.405000          0.102545E-03
      0.410000          0.983958E-04
      0.415000          0.945123E-04
      0.420000          0.909241E-04
      0.425000          0.876506E-04
      0.430000          0.847011E-04
      0.435000          0.820757E-04
      0.440000          0.797665E-04
      0.445000          0.777590E-04
      0.450000          0.760328E-04
      0.455000          0.745636E-04
      0.460000          0.733242E-04
      0.465000          0.722857E-04
      0.470000          0.714188E-04
      0.475000          0.706948E-04
      0.480000          0.700863E-04
      0.485000          0.695680E-04
      0.490000          0.691168E-04
      0.495000          0.687128E-04
      0.500000          0.683388E-04
