 I_abs(s)[cm^-1]/c[mg/ml]
       0.00000          0.145555E-01
      0.500000E-02      0.145175E-01
      0.100000E-01      0.144040E-01
      0.150000E-01      0.142168E-01
      0.200000E-01      0.139587E-01
      0.250000E-01      0.136334E-01
      0.300000E-01      0.132459E-01
      0.350000E-01      0.128016E-01
      0.400000E-01      0.123069E-01
      0.450000E-01      0.117687E-01
      0.500000E-01      0.111943E-01
      0.550000E-01      0.105911E-01
      0.600000E-01      0.996692E-02
      0.650000E-01      0.932926E-02
      0.700000E-01      0.868553E-02
      0.750000E-01      0.804277E-02
      0.800000E-01      0.740759E-02
      0.850000E-01      0.678603E-02
      0.900000E-01      0.618348E-02
      0.950000E-01      0.560463E-02
      0.100000          0.505341E-02
      0.105000          0.453300E-02
      0.110000          0.404579E-02
      0.115000          0.359340E-02
      0.120000          0.317676E-02
      0.125000          0.279610E-02
      0.130000          0.245106E-02
      0.135000          0.214072E-02
      0.140000          0.186372E-02
      0.145000          0.161831E-02
      0.150000          0.140246E-02
      0.155000          0.121392E-02
      0.160000          0.105032E-02
      0.165000          0.909207E-03
      0.170000          0.788160E-03
      0.175000          0.684811E-03
      0.180000          0.596904E-03
      0.185000          0.522333E-03
      0.190000          0.459170E-03
      0.195000          0.405679E-03
      0.200000          0.360329E-03
      0.205000          0.321798E-03
      0.210000          0.288958E-03
      0.215000          0.260874E-03
      0.220000          0.236780E-03
      0.225000          0.216064E-03
      0.230000          0.198245E-03
      0.235000          0.182950E-03
      0.240000          0.169893E-03
      0.245000          0.158857E-03
      0.250000          0.149668E-03
      0.255000          0.142185E-03
      0.260000          0.136282E-03
      0.265000          0.131838E-03
      0.270000          0.128730E-03
      0.275000          0.126827E-03
      0.280000          0.125986E-03
      0.285000          0.126051E-03
      0.290000          0.126860E-03
      0.295000          0.128242E-03
      0.300000          0.130022E-03
      0.305000          0.132028E-03
      0.310000          0.134097E-03
      0.315000          0.136073E-03
      0.320000          0.137819E-03
      0.325000          0.139216E-03
      0.330000          0.140168E-03
      0.335000          0.140602E-03
      0.340000          0.140471E-03
      0.345000          0.139751E-03
      0.350000          0.138442E-03
      0.355000          0.136566E-03
      0.360000          0.134164E-03
      0.365000          0.131292E-03
      0.370000          0.128020E-03
      0.375000          0.124424E-03
      0.380000          0.120589E-03
      0.385000          0.116599E-03
      0.390000          0.112538E-03
      0.395000          0.108484E-03
      0.400000          0.104510E-03
      0.405000          0.100680E-03
      0.410000          0.970487E-04
      0.415000          0.936589E-04
      0.420000          0.905428E-04
      0.425000          0.877217E-04
      0.430000          0.852063E-04
      0.435000          0.829978E-04
      0.440000          0.810888E-04
      0.445000          0.794645E-04
      0.450000          0.781044E-04
      0.455000          0.769838E-04
      0.460000          0.760750E-04
      0.465000          0.753487E-04
      0.470000          0.747753E-04
      0.475000          0.743263E-04
      0.480000          0.739749E-04
      0.485000          0.736966E-04
      0.490000          0.734702E-04
      0.495000          0.732779E-04
      0.500000          0.731054E-04
