 I_abs(s)[cm^-1]/c[mg/ml]
       0.00000          0.145238E-01
      0.500000E-02      0.144841E-01
      0.100000E-01      0.143657E-01
      0.150000E-01      0.141705E-01
      0.200000E-01      0.139016E-01
      0.250000E-01      0.135634E-01
      0.300000E-01      0.131610E-01
      0.350000E-01      0.127006E-01
      0.400000E-01      0.121893E-01
      0.450000E-01      0.116345E-01
      0.500000E-01      0.110441E-01
      0.550000E-01      0.104261E-01
      0.600000E-01      0.978885E-02
      0.650000E-01      0.914019E-02
      0.700000E-01      0.848786E-02
      0.750000E-01      0.783912E-02
      0.800000E-01      0.720065E-02
      0.850000E-01      0.657847E-02
      0.900000E-01      0.597787E-02
      0.950000E-01      0.540334E-02
      0.100000          0.485854E-02
      0.105000          0.434632E-02
      0.110000          0.386872E-02
      0.115000          0.342702E-02
      0.120000          0.302177E-02
      0.125000          0.265289E-02
      0.130000          0.231972E-02
      0.135000          0.202112E-02
      0.140000          0.175554E-02
      0.145000          0.152112E-02
      0.150000          0.131575E-02
      0.155000          0.113719E-02
      0.160000          0.983085E-03
      0.165000          0.851067E-03
      0.170000          0.738797E-03
      0.175000          0.644007E-03
      0.180000          0.564537E-03
      0.185000          0.498362E-03
      0.190000          0.443610E-03
      0.195000          0.398572E-03
      0.200000          0.361707E-03
      0.205000          0.331644E-03
      0.210000          0.307176E-03
      0.215000          0.287249E-03
      0.220000          0.270960E-03
      0.225000          0.257538E-03
      0.230000          0.246338E-03
      0.235000          0.236825E-03
      0.240000          0.228564E-03
      0.245000          0.221208E-03
      0.250000          0.214488E-03
      0.255000          0.208199E-03
      0.260000          0.202198E-03
      0.265000          0.196387E-03
      0.270000          0.190709E-03
      0.275000          0.185141E-03
      0.280000          0.179682E-03
      0.285000          0.174355E-03
      0.290000          0.169193E-03
      0.295000          0.164235E-03
      0.300000          0.159527E-03
      0.305000          0.155111E-03
      0.310000          0.151024E-03
      0.315000          0.147297E-03
      0.320000          0.143948E-03
      0.325000          0.140989E-03
      0.330000          0.138415E-03
      0.335000          0.136214E-03
      0.340000          0.134360E-03
      0.345000          0.132820E-03
      0.350000          0.131552E-03
      0.355000          0.130506E-03
      0.360000          0.129633E-03
      0.365000          0.128878E-03
      0.370000          0.128189E-03
      0.375000          0.127516E-03
      0.380000          0.126813E-03
      0.385000          0.126041E-03
      0.390000          0.125165E-03
      0.395000          0.124161E-03
      0.400000          0.123011E-03
      0.405000          0.121704E-03
      0.410000          0.120238E-03
      0.415000          0.118617E-03
      0.420000          0.116850E-03
      0.425000          0.114953E-03
      0.430000          0.112945E-03
      0.435000          0.110847E-03
      0.440000          0.108681E-03
      0.445000          0.106473E-03
      0.450000          0.104246E-03
      0.455000          0.102021E-03
      0.460000          0.998205E-04
      0.465000          0.976626E-04
      0.470000          0.955637E-04
      0.475000          0.935371E-04
      0.480000          0.915937E-04
      0.485000          0.897415E-04
      0.490000          0.879859E-04
      0.495000          0.863298E-04
      0.500000          0.847738E-04
