 I_abs(s)[cm^-1]/c[mg/ml]
       0.00000          0.145396E-01
      0.500000E-02      0.145008E-01
      0.100000E-01      0.143847E-01
      0.150000E-01      0.141934E-01
      0.200000E-01      0.139299E-01
      0.250000E-01      0.135981E-01
      0.300000E-01      0.132034E-01
      0.350000E-01      0.127516E-01
      0.400000E-01      0.122494E-01
      0.450000E-01      0.117041E-01
      0.500000E-01      0.111234E-01
      0.550000E-01      0.105150E-01
      0.600000E-01      0.988687E-02
      0.650000E-01      0.924677E-02
      0.700000E-01      0.860215E-02
      0.750000E-01      0.796006E-02
      0.800000E-01      0.732703E-02
      0.850000E-01      0.670893E-02
      0.900000E-01      0.611094E-02
      0.950000E-01      0.553747E-02
      0.100000          0.499215E-02
      0.105000          0.447783E-02
      0.110000          0.399658E-02
      0.115000          0.354975E-02
      0.120000          0.313798E-02
      0.125000          0.276133E-02
      0.130000          0.241927E-02
      0.135000          0.211084E-02
      0.140000          0.183467E-02
      0.145000          0.158910E-02
      0.150000          0.137223E-02
      0.155000          0.118201E-02
      0.160000          0.101629E-02
      0.165000          0.872914E-03
      0.170000          0.749727E-03
      0.175000          0.644639E-03
      0.180000          0.555652E-03
      0.185000          0.480883E-03
      0.190000          0.418581E-03
      0.195000          0.367133E-03
      0.200000          0.325071E-03
      0.205000          0.291064E-03
      0.210000          0.263922E-03
      0.215000          0.242579E-03
      0.220000          0.226092E-03
      0.225000          0.213623E-03
      0.230000          0.204435E-03
      0.235000          0.197881E-03
      0.240000          0.193394E-03
      0.245000          0.190477E-03
      0.250000          0.188703E-03
      0.255000          0.187701E-03
      0.260000          0.187156E-03
      0.265000          0.186804E-03
      0.270000          0.186426E-03
      0.275000          0.185849E-03
      0.280000          0.184939E-03
      0.285000          0.183599E-03
      0.290000          0.181769E-03
      0.295000          0.179417E-03
      0.300000          0.176540E-03
      0.305000          0.173160E-03
      0.310000          0.169317E-03
      0.315000          0.165069E-03
      0.320000          0.160486E-03
      0.325000          0.155646E-03
      0.330000          0.150632E-03
      0.335000          0.145526E-03
      0.340000          0.140413E-03
      0.345000          0.135368E-03
      0.350000          0.130462E-03
      0.355000          0.125758E-03
      0.360000          0.121308E-03
      0.365000          0.117152E-03
      0.370000          0.113323E-03
      0.375000          0.109838E-03
      0.380000          0.106707E-03
      0.385000          0.103931E-03
      0.390000          0.101500E-03
      0.395000          0.993989E-04
      0.400000          0.976043E-04
      0.405000          0.960898E-04
      0.410000          0.948251E-04
      0.415000          0.937778E-04
      0.420000          0.929149E-04
      0.425000          0.922033E-04
      0.430000          0.916113E-04
      0.435000          0.911092E-04
      0.440000          0.906697E-04
      0.445000          0.902687E-04
      0.450000          0.898853E-04
      0.455000          0.895022E-04
      0.460000          0.891055E-04
      0.465000          0.886847E-04
      0.470000          0.882324E-04
      0.475000          0.877442E-04
      0.480000          0.872184E-04
      0.485000          0.866551E-04
      0.490000          0.860566E-04
      0.495000          0.854263E-04
      0.500000          0.847687E-04
