 I_abs(s)[cm^-1]/c[mg/ml]
       0.00000          0.145555E-01
      0.500000E-02      0.145186E-01
      0.100000E-01      0.144086E-01
      0.150000E-01      0.142270E-01
      0.200000E-01      0.139765E-01
      0.250000E-01      0.136606E-01
      0.300000E-01      0.132840E-01
      0.350000E-01      0.128518E-01
      0.400000E-01      0.123700E-01
      0.450000E-01      0.118452E-01
      0.500000E-01      0.112842E-01
      0.550000E-01      0.106942E-01
      0.600000E-01      0.100825E-01
      0.650000E-01      0.945623E-02
      0.700000E-01      0.882258E-02
      0.750000E-01      0.818830E-02
      0.800000E-01      0.755976E-02
      0.850000E-01      0.694285E-02
      0.900000E-01      0.634286E-02
      0.950000E-01      0.576443E-02
      0.100000          0.521153E-02
      0.105000          0.468740E-02
      0.110000          0.419458E-02
      0.115000          0.373488E-02
      0.120000          0.330944E-02
      0.125000          0.291876E-02
      0.130000          0.256277E-02
      0.135000          0.224084E-02
      0.140000          0.195192E-02
      0.145000          0.169455E-02
      0.150000          0.146698E-02
      0.155000          0.126721E-02
      0.160000          0.109310E-02
      0.165000          0.942386E-03
      0.170000          0.812790E-03
      0.175000          0.702047E-03
      0.180000          0.607958E-03
      0.185000          0.528430E-03
      0.190000          0.461506E-03
      0.195000          0.405386E-03
      0.200000          0.358438E-03
      0.205000          0.319212E-03
      0.210000          0.286435E-03
      0.215000          0.259009E-03
      0.220000          0.236001E-03
      0.225000          0.216630E-03
      0.230000          0.200255E-03
      0.235000          0.186353E-03
      0.240000          0.174508E-03
      0.245000          0.164390E-03
      0.250000          0.155740E-03
      0.255000          0.148354E-03
      0.260000          0.142071E-03
      0.265000          0.136760E-03
      0.270000          0.132311E-03
      0.275000          0.128627E-03
      0.280000          0.125619E-03
      0.285000          0.123201E-03
      0.290000          0.121288E-03
      0.295000          0.119795E-03
      0.300000          0.118636E-03
      0.305000          0.117728E-03
      0.310000          0.116989E-03
      0.315000          0.116341E-03
      0.320000          0.115713E-03
      0.325000          0.115040E-03
      0.330000          0.114270E-03
      0.335000          0.113357E-03
      0.340000          0.112271E-03
      0.345000          0.110991E-03
      0.350000          0.109509E-03
      0.355000          0.107827E-03
      0.360000          0.105959E-03
      0.365000          0.103926E-03
      0.370000          0.101759E-03
      0.375000          0.994921E-04
      0.380000          0.971647E-04
      0.385000          0.948178E-04
      0.390000          0.924924E-04
      0.395000          0.902284E-04
      0.400000          0.880624E-04
      0.405000          0.860269E-04
      0.410000          0.841491E-04
      0.415000          0.824505E-04
      0.420000          0.809458E-04
      0.425000          0.796438E-04
      0.430000          0.785465E-04
      0.435000          0.776500E-04
      0.440000          0.769450E-04
      0.445000          0.764175E-04
      0.450000          0.760496E-04
      0.455000          0.758202E-04
      0.460000          0.757066E-04
      0.465000          0.756847E-04
      0.470000          0.757304E-04
      0.475000          0.758203E-04
      0.480000          0.759321E-04
      0.485000          0.760458E-04
      0.490000          0.761439E-04
      0.495000          0.762115E-04
      0.500000          0.762369E-04
