 I_abs(s)[cm^-1]/c[mg/ml]
       0.00000          0.144367E-01
      0.500000E-02      0.144007E-01
      0.100000E-01      0.142929E-01
      0.150000E-01      0.141151E-01
      0.200000E-01      0.138697E-01
      0.250000E-01      0.135601E-01
      0.300000E-01      0.131906E-01
      0.350000E-01      0.127663E-01
      0.400000E-01      0.122928E-01
      0.450000E-01      0.117764E-01
      0.500000E-01      0.112237E-01
      0.550000E-01      0.106417E-01
      0.600000E-01      0.100374E-01
      0.650000E-01      0.941784E-02
      0.700000E-01      0.879002E-02
      0.750000E-01      0.816061E-02
      0.800000E-01      0.753596E-02
      0.850000E-01      0.692195E-02
      0.900000E-01      0.632395E-02
      0.950000E-01      0.574671E-02
      0.100000          0.519432E-02
      0.105000          0.467020E-02
      0.110000          0.417708E-02
      0.115000          0.371697E-02
      0.120000          0.329120E-02
      0.125000          0.290047E-02
      0.130000          0.254486E-02
      0.135000          0.222391E-02
      0.140000          0.193667E-02
      0.145000          0.168175E-02
      0.150000          0.145744E-02
      0.155000          0.126176E-02
      0.160000          0.109249E-02
      0.165000          0.947317E-03
      0.170000          0.823845E-03
      0.175000          0.719675E-03
      0.180000          0.632455E-03
      0.185000          0.559926E-03
      0.190000          0.499957E-03
      0.195000          0.450577E-03
      0.200000          0.409993E-03
      0.205000          0.376607E-03
      0.210000          0.349016E-03
      0.215000          0.326015E-03
      0.220000          0.306591E-03
      0.225000          0.289909E-03
      0.230000          0.275300E-03
      0.235000          0.262243E-03
      0.240000          0.250343E-03
      0.245000          0.239317E-03
      0.250000          0.228968E-03
      0.255000          0.219172E-03
      0.260000          0.209856E-03
      0.265000          0.200985E-03
      0.270000          0.192547E-03
      0.275000          0.184544E-03
      0.280000          0.176980E-03
      0.285000          0.169857E-03
      0.290000          0.163171E-03
      0.295000          0.156907E-03
      0.300000          0.151042E-03
      0.305000          0.145544E-03
      0.310000          0.140371E-03
      0.315000          0.135479E-03
      0.320000          0.130822E-03
      0.325000          0.126353E-03
      0.330000          0.122031E-03
      0.335000          0.117821E-03
      0.340000          0.113696E-03
      0.345000          0.109640E-03
      0.350000          0.105646E-03
      0.355000          0.101719E-03
      0.360000          0.978743E-04
      0.365000          0.941351E-04
      0.370000          0.905324E-04
      0.375000          0.871028E-04
      0.380000          0.838855E-04
      0.385000          0.809208E-04
      0.390000          0.782471E-04
      0.395000          0.758992E-04
      0.400000          0.739058E-04
      0.405000          0.722886E-04
      0.410000          0.710602E-04
      0.415000          0.702238E-04
      0.420000          0.697726E-04
      0.425000          0.696898E-04
      0.430000          0.699493E-04
      0.435000          0.705164E-04
      0.440000          0.713487E-04
      0.445000          0.723979E-04
      0.450000          0.736113E-04
      0.455000          0.749336E-04
      0.460000          0.763085E-04
      0.465000          0.776804E-04
      0.470000          0.789964E-04
      0.475000          0.802076E-04
      0.480000          0.812702E-04
      0.485000          0.821470E-04
      0.490000          0.828077E-04
      0.495000          0.832299E-04
      0.500000          0.833993E-04
