 I_abs(s)[cm^-1]/c[mg/ml]
       0.00000          0.147386E-01
      0.500000E-02      0.146927E-01
      0.100000E-01      0.145558E-01
      0.150000E-01      0.143305E-01
      0.200000E-01      0.140206E-01
      0.250000E-01      0.136317E-01
      0.300000E-01      0.131705E-01
      0.350000E-01      0.126449E-01
      0.400000E-01      0.120636E-01
      0.450000E-01      0.114362E-01
      0.500000E-01      0.107725E-01
      0.550000E-01      0.100827E-01
      0.600000E-01      0.937686E-02
      0.650000E-01      0.866485E-02
      0.700000E-01      0.795599E-02
      0.750000E-01      0.725894E-02
      0.800000E-01      0.658155E-02
      0.850000E-01      0.593070E-02
      0.900000E-01      0.531220E-02
      0.950000E-01      0.473077E-02
      0.100000          0.418998E-02
      0.105000          0.369225E-02
      0.110000          0.323893E-02
      0.115000          0.283036E-02
      0.120000          0.246594E-02
      0.125000          0.214425E-02
      0.130000          0.186321E-02
      0.135000          0.162015E-02
      0.140000          0.141202E-02
      0.145000          0.123546E-02
      0.150000          0.108696E-02
      0.155000          0.962991E-03
      0.160000          0.860079E-03
      0.165000          0.774915E-03
      0.170000          0.704422E-03
      0.175000          0.645810E-03
      0.180000          0.596612E-03
      0.185000          0.554705E-03
      0.190000          0.518316E-03
      0.195000          0.486009E-03
      0.200000          0.456670E-03
      0.205000          0.429472E-03
      0.210000          0.403843E-03
      0.215000          0.379425E-03
      0.220000          0.356031E-03
      0.225000          0.333603E-03
      0.230000          0.312178E-03
      0.235000          0.291846E-03
      0.240000          0.272724E-03
      0.245000          0.254929E-03
      0.250000          0.238561E-03
      0.255000          0.223685E-03
      0.260000          0.210328E-03
      0.265000          0.198473E-03
      0.270000          0.188062E-03
      0.275000          0.178999E-03
      0.280000          0.171161E-03
      0.285000          0.164400E-03
      0.290000          0.158558E-03
      0.295000          0.153476E-03
      0.300000          0.149000E-03
      0.305000          0.144991E-03
      0.310000          0.141328E-03
      0.315000          0.137915E-03
      0.320000          0.134681E-03
      0.325000          0.131582E-03
      0.330000          0.128598E-03
      0.335000          0.125730E-03
      0.340000          0.122996E-03
      0.345000          0.120430E-03
      0.350000          0.118071E-03
      0.355000          0.115962E-03
      0.360000          0.114144E-03
      0.365000          0.112651E-03
      0.370000          0.111508E-03
      0.375000          0.110727E-03
      0.380000          0.110306E-03
      0.385000          0.110228E-03
      0.390000          0.110461E-03
      0.395000          0.110961E-03
      0.400000          0.111670E-03
      0.405000          0.112526E-03
      0.410000          0.113455E-03
      0.415000          0.114385E-03
      0.420000          0.115241E-03
      0.425000          0.115954E-03
      0.430000          0.116461E-03
      0.435000          0.116706E-03
      0.440000          0.116646E-03
      0.445000          0.116249E-03
      0.450000          0.115497E-03
      0.455000          0.114385E-03
      0.460000          0.112922E-03
      0.465000          0.111128E-03
      0.470000          0.109036E-03
      0.475000          0.106689E-03
      0.480000          0.104137E-03
      0.485000          0.101437E-03
      0.490000          0.986476E-04
      0.495000          0.958315E-04
      0.500000          0.930496E-04
