 I_abs(s)[cm^-1]/c[mg/ml]
       0.00000          0.145079E-01
      0.500000E-02      0.144704E-01
      0.100000E-01      0.143585E-01
      0.150000E-01      0.141738E-01
      0.200000E-01      0.139191E-01
      0.250000E-01      0.135982E-01
      0.300000E-01      0.132158E-01
      0.350000E-01      0.127776E-01
      0.400000E-01      0.122896E-01
      0.450000E-01      0.117586E-01
      0.500000E-01      0.111919E-01
      0.550000E-01      0.105967E-01
      0.600000E-01      0.998066E-02
      0.650000E-01      0.935104E-02
      0.700000E-01      0.871508E-02
      0.750000E-01      0.807963E-02
      0.800000E-01      0.745110E-02
      0.850000E-01      0.683534E-02
      0.900000E-01      0.623756E-02
      0.950000E-01      0.566233E-02
      0.100000          0.511346E-02
      0.105000          0.459404E-02
      0.110000          0.410645E-02
      0.115000          0.365232E-02
      0.120000          0.323265E-02
      0.125000          0.284778E-02
      0.130000          0.249751E-02
      0.135000          0.218112E-02
      0.140000          0.189748E-02
      0.145000          0.164510E-02
      0.150000          0.142221E-02
      0.155000          0.122684E-02
      0.160000          0.105686E-02
      0.165000          0.910094E-03
      0.170000          0.784313E-03
      0.175000          0.677326E-03
      0.180000          0.587006E-03
      0.185000          0.511323E-03
      0.190000          0.448370E-03
      0.195000          0.396378E-03
      0.200000          0.353733E-03
      0.205000          0.318975E-03
      0.210000          0.290802E-03
      0.215000          0.268068E-03
      0.220000          0.249772E-03
      0.225000          0.235052E-03
      0.230000          0.223174E-03
      0.235000          0.213523E-03
      0.240000          0.205583E-03
      0.245000          0.198934E-03
      0.250000          0.193236E-03
      0.255000          0.188220E-03
      0.260000          0.183674E-03
      0.265000          0.179438E-03
      0.270000          0.175396E-03
      0.275000          0.171464E-03
      0.280000          0.167588E-03
      0.285000          0.163738E-03
      0.290000          0.159899E-03
      0.295000          0.156073E-03
      0.300000          0.152269E-03
      0.305000          0.148505E-03
      0.310000          0.144804E-03
      0.315000          0.141188E-03
      0.320000          0.137683E-03
      0.325000          0.134310E-03
      0.330000          0.131090E-03
      0.335000          0.128039E-03
      0.340000          0.125172E-03
      0.345000          0.122494E-03
      0.350000          0.120011E-03
      0.355000          0.117720E-03
      0.360000          0.115617E-03
      0.365000          0.113691E-03
      0.370000          0.111929E-03
      0.375000          0.110315E-03
      0.380000          0.108831E-03
      0.385000          0.107455E-03
      0.390000          0.106167E-03
      0.395000          0.104944E-03
      0.400000          0.103765E-03
      0.405000          0.102609E-03
      0.410000          0.101456E-03
      0.415000          0.100288E-03
      0.420000          0.990896E-04
      0.425000          0.978473E-04
      0.430000          0.965502E-04
      0.435000          0.951905E-04
      0.440000          0.937631E-04
      0.445000          0.922658E-04
      0.450000          0.906991E-04
      0.455000          0.890666E-04
      0.460000          0.873742E-04
      0.465000          0.856303E-04
      0.470000          0.838452E-04
      0.475000          0.820315E-04
      0.480000          0.802030E-04
      0.485000          0.783747E-04
      0.490000          0.765625E-04
      0.495000          0.747827E-04
      0.500000          0.730516E-04
