 I_abs(s)[cm^-1]/c[mg/ml]
       0.00000          0.146509E-01
      0.500000E-02      0.146156E-01
      0.100000E-01      0.145101E-01
      0.150000E-01      0.143359E-01
      0.200000E-01      0.140953E-01
      0.250000E-01      0.137917E-01
      0.300000E-01      0.134290E-01
      0.350000E-01      0.130119E-01
      0.400000E-01      0.125460E-01
      0.450000E-01      0.120371E-01
      0.500000E-01      0.114914E-01
      0.550000E-01      0.109157E-01
      0.600000E-01      0.103166E-01
      0.650000E-01      0.970079E-02
      0.700000E-01      0.907505E-02
      0.750000E-01      0.844579E-02
      0.800000E-01      0.781916E-02
      0.850000E-01      0.720090E-02
      0.900000E-01      0.659627E-02
      0.950000E-01      0.600998E-02
      0.100000          0.544617E-02
      0.105000          0.490833E-02
      0.110000          0.439932E-02
      0.115000          0.392135E-02
      0.120000          0.347600E-02
      0.125000          0.306425E-02
      0.130000          0.268650E-02
      0.135000          0.234262E-02
      0.140000          0.203202E-02
      0.145000          0.175369E-02
      0.150000          0.150627E-02
      0.155000          0.128812E-02
      0.160000          0.109736E-02
      0.165000          0.931974E-03
      0.170000          0.789825E-03
      0.175000          0.668735E-03
      0.180000          0.566529E-03
      0.185000          0.481074E-03
      0.190000          0.410315E-03
      0.195000          0.352312E-03
      0.200000          0.305251E-03
      0.205000          0.267470E-03
      0.210000          0.237463E-03
      0.215000          0.213886E-03
      0.220000          0.195559E-03
      0.225000          0.181456E-03
      0.230000          0.170703E-03
      0.235000          0.162564E-03
      0.240000          0.156430E-03
      0.245000          0.151805E-03
      0.250000          0.148292E-03
      0.255000          0.145578E-03
      0.260000          0.143424E-03
      0.265000          0.141650E-03
      0.270000          0.140122E-03
      0.275000          0.138745E-03
      0.280000          0.137453E-03
      0.285000          0.136201E-03
      0.290000          0.134958E-03
      0.295000          0.133707E-03
      0.300000          0.132435E-03
      0.305000          0.131136E-03
      0.310000          0.129804E-03
      0.315000          0.128438E-03
      0.320000          0.127035E-03
      0.325000          0.125596E-03
      0.330000          0.124119E-03
      0.335000          0.122607E-03
      0.340000          0.121061E-03
      0.345000          0.119486E-03
      0.350000          0.117885E-03
      0.355000          0.116265E-03
      0.360000          0.114633E-03
      0.365000          0.112996E-03
      0.370000          0.111364E-03
      0.375000          0.109744E-03
      0.380000          0.108145E-03
      0.385000          0.106575E-03
      0.390000          0.105042E-03
      0.395000          0.103551E-03
      0.400000          0.102106E-03
      0.405000          0.100712E-03
      0.410000          0.993700E-04
      0.415000          0.980800E-04
      0.420000          0.968413E-04
      0.425000          0.956515E-04
      0.430000          0.945077E-04
      0.435000          0.934059E-04
      0.440000          0.923417E-04
      0.445000          0.913108E-04
      0.450000          0.903086E-04
      0.455000          0.893310E-04
      0.460000          0.883743E-04
      0.465000          0.874356E-04
      0.470000          0.865126E-04
      0.475000          0.856039E-04
      0.480000          0.847089E-04
      0.485000          0.838277E-04
      0.490000          0.829614E-04
      0.495000          0.821115E-04
      0.500000          0.812803E-04
