 I_abs(s)[cm^-1]/c[mg/ml]
       0.00000          0.145555E-01
      0.500000E-02      0.145190E-01
      0.100000E-01      0.144100E-01
      0.150000E-01      0.142300E-01
      0.200000E-01      0.139817E-01
      0.250000E-01      0.136684E-01
      0.300000E-01      0.132945E-01
      0.350000E-01      0.128652E-01
      0.400000E-01      0.123863E-01
      0.450000E-01      0.118640E-01
      0.500000E-01      0.113051E-01
      0.550000E-01      0.107166E-01
      0.600000E-01      0.101055E-01
      0.650000E-01      0.947914E-02
      0.700000E-01      0.884438E-02
      0.750000E-01      0.820797E-02
      0.800000E-01      0.757630E-02
      0.850000E-01      0.695528E-02
      0.900000E-01      0.635027E-02
      0.950000E-01      0.576603E-02
      0.100000          0.520665E-02
      0.105000          0.467556E-02
      0.110000          0.417546E-02
      0.115000          0.370839E-02
      0.120000          0.327569E-02
      0.125000          0.287807E-02
      0.130000          0.251565E-02
      0.135000          0.218800E-02
      0.140000          0.189424E-02
      0.145000          0.163305E-02
      0.150000          0.140280E-02
      0.155000          0.120158E-02
      0.160000          0.102728E-02
      0.165000          0.877675E-03
      0.170000          0.750457E-03
      0.175000          0.643318E-03
      0.180000          0.553982E-03
      0.185000          0.480255E-03
      0.190000          0.420054E-03
      0.195000          0.371437E-03
      0.200000          0.332620E-03
      0.205000          0.301989E-03
      0.210000          0.278106E-03
      0.215000          0.259707E-03
      0.220000          0.245697E-03
      0.225000          0.235145E-03
      0.230000          0.227267E-03
      0.235000          0.221414E-03
      0.240000          0.217058E-03
      0.245000          0.213775E-03
      0.250000          0.211231E-03
      0.255000          0.209166E-03
      0.260000          0.207380E-03
      0.265000          0.205723E-03
      0.270000          0.204082E-03
      0.275000          0.202376E-03
      0.280000          0.200541E-03
      0.285000          0.198534E-03
      0.290000          0.196322E-03
      0.295000          0.193881E-03
      0.300000          0.191194E-03
      0.305000          0.188251E-03
      0.310000          0.185046E-03
      0.315000          0.181579E-03
      0.320000          0.177854E-03
      0.325000          0.173882E-03
      0.330000          0.169677E-03
      0.335000          0.165259E-03
      0.340000          0.160655E-03
      0.345000          0.155894E-03
      0.350000          0.151009E-03
      0.355000          0.146037E-03
      0.360000          0.141015E-03
      0.365000          0.135983E-03
      0.370000          0.130981E-03
      0.375000          0.126045E-03
      0.380000          0.121212E-03
      0.385000          0.116514E-03
      0.390000          0.111979E-03
      0.395000          0.107632E-03
      0.400000          0.103492E-03
      0.405000          0.995754E-04
      0.410000          0.958914E-04
      0.415000          0.924459E-04
      0.420000          0.892406E-04
      0.425000          0.862731E-04
      0.430000          0.835382E-04
      0.435000          0.810279E-04
      0.440000          0.787323E-04
      0.445000          0.766402E-04
      0.450000          0.747393E-04
      0.455000          0.730173E-04
      0.460000          0.714617E-04
      0.465000          0.700608E-04
      0.470000          0.688035E-04
      0.475000          0.676795E-04
      0.480000          0.666797E-04
      0.485000          0.657962E-04
      0.490000          0.650220E-04
      0.495000          0.643510E-04
      0.500000          0.637781E-04
