 I_abs(s)[cm^-1]/c[mg/ml]
       0.00000          0.146588E-01
      0.500000E-02      0.146236E-01
      0.100000E-01      0.145183E-01
      0.150000E-01      0.143444E-01
      0.200000E-01      0.141043E-01
      0.250000E-01      0.138010E-01
      0.300000E-01      0.134387E-01
      0.350000E-01      0.130221E-01
      0.400000E-01      0.125565E-01
      0.450000E-01      0.120477E-01
      0.500000E-01      0.115020E-01
      0.550000E-01      0.109260E-01
      0.600000E-01      0.103263E-01
      0.650000E-01      0.970978E-02
      0.700000E-01      0.908302E-02
      0.750000E-01      0.845252E-02
      0.800000E-01      0.782445E-02
      0.850000E-01      0.720460E-02
      0.900000E-01      0.659829E-02
      0.950000E-01      0.601031E-02
      0.100000          0.544486E-02
      0.105000          0.490551E-02
      0.110000          0.439521E-02
      0.115000          0.391623E-02
      0.120000          0.347022E-02
      0.125000          0.305821E-02
      0.130000          0.268065E-02
      0.135000          0.233742E-02
      0.140000          0.202795E-02
      0.145000          0.175121E-02
      0.150000          0.150581E-02
      0.155000          0.129006E-02
      0.160000          0.110202E-02
      0.165000          0.939587E-03
      0.170000          0.800538E-03
      0.175000          0.682597E-03
      0.180000          0.583486E-03
      0.185000          0.500969E-03
      0.190000          0.432896E-03
      0.195000          0.377231E-03
      0.200000          0.332081E-03
      0.205000          0.295714E-03
      0.210000          0.266571E-03
      0.215000          0.243271E-03
      0.220000          0.224615E-03
      0.225000          0.209578E-03
      0.230000          0.197301E-03
      0.235000          0.187084E-03
      0.240000          0.178363E-03
      0.245000          0.170706E-03
      0.250000          0.163786E-03
      0.255000          0.157371E-03
      0.260000          0.151304E-03
      0.265000          0.145490E-03
      0.270000          0.139882E-03
      0.275000          0.134465E-03
      0.280000          0.129248E-03
      0.285000          0.124254E-03
      0.290000          0.119513E-03
      0.295000          0.115053E-03
      0.300000          0.110902E-03
      0.305000          0.107079E-03
      0.310000          0.103595E-03
      0.315000          0.100455E-03
      0.320000          0.976528E-04
      0.325000          0.951772E-04
      0.330000          0.930100E-04
      0.335000          0.911285E-04
      0.340000          0.895072E-04
      0.345000          0.881191E-04
      0.350000          0.869371E-04
      0.355000          0.859349E-04
      0.360000          0.850881E-04
      0.365000          0.843749E-04
      0.370000          0.837759E-04
      0.375000          0.832750E-04
      0.380000          0.828584E-04
      0.385000          0.825150E-04
      0.390000          0.822359E-04
      0.395000          0.820137E-04
      0.400000          0.818422E-04
      0.405000          0.817158E-04
      0.410000          0.816295E-04
      0.415000          0.815781E-04
      0.420000          0.815563E-04
      0.425000          0.815582E-04
      0.430000          0.815776E-04
      0.435000          0.816078E-04
      0.440000          0.816420E-04
      0.445000          0.816731E-04
      0.450000          0.816940E-04
      0.455000          0.816983E-04
      0.460000          0.816797E-04
      0.465000          0.816329E-04
      0.470000          0.815537E-04
      0.475000          0.814389E-04
      0.480000          0.812866E-04
      0.485000          0.810960E-04
      0.490000          0.808678E-04
      0.495000          0.806039E-04
      0.500000          0.803073E-04
