 I_abs(s)[cm^-1]/c[mg/ml]
       0.00000          0.147865E-01
      0.500000E-02      0.147479E-01
      0.100000E-01      0.146325E-01
      0.150000E-01      0.144422E-01
      0.200000E-01      0.141800E-01
      0.250000E-01      0.138499E-01
      0.300000E-01      0.134568E-01
      0.350000E-01      0.130066E-01
      0.400000E-01      0.125058E-01
      0.450000E-01      0.119617E-01
      0.500000E-01      0.113815E-01
      0.550000E-01      0.107732E-01
      0.600000E-01      0.101443E-01
      0.650000E-01      0.950265E-02
      0.700000E-01      0.885556E-02
      0.750000E-01      0.821006E-02
      0.800000E-01      0.757265E-02
      0.850000E-01      0.694920E-02
      0.900000E-01      0.634494E-02
      0.950000E-01      0.576433E-02
      0.100000          0.521109E-02
      0.105000          0.468817E-02
      0.110000          0.419775E-02
      0.115000          0.374129E-02
      0.120000          0.331958E-02
      0.125000          0.293277E-02
      0.130000          0.258048E-02
      0.135000          0.226183E-02
      0.140000          0.197555E-02
      0.145000          0.172006E-02
      0.150000          0.149352E-02
      0.155000          0.129392E-02
      0.160000          0.111915E-02
      0.165000          0.967057E-03
      0.170000          0.835483E-03
      0.175000          0.722329E-03
      0.180000          0.625575E-03
      0.185000          0.543314E-03
      0.190000          0.473764E-03
      0.195000          0.415286E-03
      0.200000          0.366386E-03
      0.205000          0.325717E-03
      0.210000          0.292074E-03
      0.215000          0.264391E-03
      0.220000          0.241727E-03
      0.225000          0.223261E-03
      0.230000          0.208280E-03
      0.235000          0.196167E-03
      0.240000          0.186393E-03
      0.245000          0.178503E-03
      0.250000          0.172113E-03
      0.255000          0.166899E-03
      0.260000          0.162588E-03
      0.265000          0.158955E-03
      0.270000          0.155816E-03
      0.275000          0.153025E-03
      0.280000          0.150466E-03
      0.285000          0.148052E-03
      0.290000          0.145718E-03
      0.295000          0.143424E-03
      0.300000          0.141145E-03
      0.305000          0.138869E-03
      0.310000          0.136598E-03
      0.315000          0.134341E-03
      0.320000          0.132113E-03
      0.325000          0.129931E-03
      0.330000          0.127816E-03
      0.335000          0.125786E-03
      0.340000          0.123858E-03
      0.345000          0.122045E-03
      0.350000          0.120356E-03
      0.355000          0.118794E-03
      0.360000          0.117360E-03
      0.365000          0.116047E-03
      0.370000          0.114846E-03
      0.375000          0.113743E-03
      0.380000          0.112720E-03
      0.385000          0.111758E-03
      0.390000          0.110835E-03
      0.395000          0.109930E-03
      0.400000          0.109020E-03
      0.405000          0.108084E-03
      0.410000          0.107103E-03
      0.415000          0.106060E-03
      0.420000          0.104939E-03
      0.425000          0.103728E-03
      0.430000          0.102420E-03
      0.435000          0.101007E-03
      0.440000          0.994888E-04
      0.445000          0.978652E-04
      0.450000          0.961401E-04
      0.455000          0.943201E-04
      0.460000          0.924142E-04
      0.465000          0.904333E-04
      0.470000          0.883901E-04
      0.475000          0.862987E-04
      0.480000          0.841739E-04
      0.485000          0.820312E-04
      0.490000          0.798863E-04
      0.495000          0.777547E-04
      0.500000          0.756515E-04
