 I_abs(s)[cm^-1]/c[mg/ml]
       0.00000          0.144684E-01
      0.500000E-02      0.144320E-01
      0.100000E-01      0.143236E-01
      0.150000E-01      0.141447E-01
      0.200000E-01      0.138978E-01
      0.250000E-01      0.135864E-01
      0.300000E-01      0.132149E-01
      0.350000E-01      0.127884E-01
      0.400000E-01      0.123127E-01
      0.450000E-01      0.117942E-01
      0.500000E-01      0.112395E-01
      0.550000E-01      0.106556E-01
      0.600000E-01      0.100496E-01
      0.650000E-01      0.942853E-02
      0.700000E-01      0.879939E-02
      0.750000E-01      0.816880E-02
      0.800000E-01      0.754305E-02
      0.850000E-01      0.692795E-02
      0.900000E-01      0.632875E-02
      0.950000E-01      0.575011E-02
      0.100000          0.519604E-02
      0.105000          0.466985E-02
      0.110000          0.417419E-02
      0.115000          0.371101E-02
      0.120000          0.328163E-02
      0.125000          0.288672E-02
      0.130000          0.252641E-02
      0.135000          0.220030E-02
      0.140000          0.190753E-02
      0.145000          0.164687E-02
      0.150000          0.141675E-02
      0.155000          0.121536E-02
      0.160000          0.104070E-02
      0.165000          0.890640E-03
      0.170000          0.762978E-03
      0.175000          0.655500E-03
      0.180000          0.566019E-03
      0.185000          0.492409E-03
      0.190000          0.432643E-03
      0.195000          0.384809E-03
      0.200000          0.347135E-03
      0.205000          0.317995E-03
      0.210000          0.295919E-03
      0.215000          0.279589E-03
      0.220000          0.267844E-03
      0.225000          0.259670E-03
      0.230000          0.254190E-03
      0.235000          0.250660E-03
      0.240000          0.248453E-03
      0.245000          0.247054E-03
      0.250000          0.246040E-03
      0.255000          0.245078E-03
      0.260000          0.243907E-03
      0.265000          0.242333E-03
      0.270000          0.240218E-03
      0.275000          0.237472E-03
      0.280000          0.234045E-03
      0.285000          0.229922E-03
      0.290000          0.225114E-03
      0.295000          0.219656E-03
      0.300000          0.213601E-03
      0.305000          0.207016E-03
      0.310000          0.199977E-03
      0.315000          0.192570E-03
      0.320000          0.184882E-03
      0.325000          0.177003E-03
      0.330000          0.169021E-03
      0.335000          0.161021E-03
      0.340000          0.153084E-03
      0.345000          0.145285E-03
      0.350000          0.137692E-03
      0.355000          0.130363E-03
      0.360000          0.123349E-03
      0.365000          0.116691E-03
      0.370000          0.110422E-03
      0.375000          0.104565E-03
      0.380000          0.991351E-04
      0.385000          0.941400E-04
      0.390000          0.895796E-04
      0.395000          0.854476E-04
      0.400000          0.817325E-04
      0.405000          0.784180E-04
      0.410000          0.754842E-04
      0.415000          0.729085E-04
      0.420000          0.706663E-04
      0.425000          0.687316E-04
      0.430000          0.670780E-04
      0.435000          0.656787E-04
      0.440000          0.645076E-04
      0.445000          0.635392E-04
      0.450000          0.627491E-04
      0.455000          0.621142E-04
      0.460000          0.616129E-04
      0.465000          0.612252E-04
      0.470000          0.609328E-04
      0.475000          0.607191E-04
      0.480000          0.605696E-04
      0.485000          0.604712E-04
      0.490000          0.604130E-04
      0.495000          0.603858E-04
      0.500000          0.603824E-04
