 I_abs(s)[cm^-1]/c[mg/ml]
       0.00000          0.145079E-01
      0.500000E-02      0.144733E-01
      0.100000E-01      0.143698E-01
      0.150000E-01      0.141990E-01
      0.200000E-01      0.139629E-01
      0.250000E-01      0.136648E-01
      0.300000E-01      0.133084E-01
      0.350000E-01      0.128985E-01
      0.400000E-01      0.124401E-01
      0.450000E-01      0.119391E-01
      0.500000E-01      0.114014E-01
      0.550000E-01      0.108334E-01
      0.600000E-01      0.102418E-01
      0.650000E-01      0.963310E-02
      0.700000E-01      0.901384E-02
      0.750000E-01      0.839038E-02
      0.800000E-01      0.776882E-02
      0.850000E-01      0.715488E-02
      0.900000E-01      0.655383E-02
      0.950000E-01      0.597043E-02
      0.100000          0.540889E-02
      0.105000          0.487281E-02
      0.110000          0.436518E-02
      0.115000          0.388833E-02
      0.120000          0.344399E-02
      0.125000          0.303327E-02
      0.130000          0.265670E-02
      0.135000          0.231428E-02
      0.140000          0.200550E-02
      0.145000          0.172943E-02
      0.150000          0.148476E-02
      0.155000          0.126986E-02
      0.160000          0.108284E-02
      0.165000          0.921648E-03
      0.170000          0.784076E-03
      0.175000          0.667860E-03
      0.180000          0.570717E-03
      0.185000          0.490394E-03
      0.190000          0.424707E-03
      0.195000          0.371582E-03
      0.200000          0.329078E-03
      0.205000          0.295408E-03
      0.210000          0.268959E-03
      0.215000          0.248294E-03
      0.220000          0.232158E-03
      0.225000          0.219478E-03
      0.230000          0.209351E-03
      0.235000          0.201040E-03
      0.240000          0.193955E-03
      0.245000          0.187644E-03
      0.250000          0.181772E-03
      0.255000          0.176106E-03
      0.260000          0.170501E-03
      0.265000          0.164878E-03
      0.270000          0.159212E-03
      0.275000          0.153519E-03
      0.280000          0.147841E-03
      0.285000          0.142237E-03
      0.290000          0.136773E-03
      0.295000          0.131514E-03
      0.300000          0.126521E-03
      0.305000          0.121846E-03
      0.310000          0.117526E-03
      0.315000          0.113590E-03
      0.320000          0.110051E-03
      0.325000          0.106908E-03
      0.330000          0.104153E-03
      0.335000          0.101764E-03
      0.340000          0.997161E-04
      0.345000          0.979754E-04
      0.350000          0.965064E-04
      0.355000          0.952719E-04
      0.360000          0.942348E-04
      0.365000          0.933595E-04
      0.370000          0.926132E-04
      0.375000          0.919664E-04
      0.380000          0.913934E-04
      0.385000          0.908725E-04
      0.390000          0.903860E-04
      0.395000          0.899197E-04
      0.400000          0.894630E-04
      0.405000          0.890077E-04
      0.410000          0.885480E-04
      0.415000          0.880797E-04
      0.420000          0.875997E-04
      0.425000          0.871056E-04
      0.430000          0.865951E-04
      0.435000          0.860660E-04
      0.440000          0.855158E-04
      0.445000          0.849416E-04
      0.450000          0.843402E-04
      0.455000          0.837081E-04
      0.460000          0.830417E-04
      0.465000          0.823375E-04
      0.470000          0.815926E-04
      0.475000          0.808044E-04
      0.480000          0.799714E-04
      0.485000          0.790931E-04
      0.490000          0.781705E-04
      0.495000          0.772061E-04
      0.500000          0.762037E-04
