 I_abs(s)[cm^-1]/c[mg/ml]
       0.00000          0.145317E-01
      0.500000E-02      0.144951E-01
      0.100000E-01      0.143857E-01
      0.150000E-01      0.142051E-01
      0.200000E-01      0.139559E-01
      0.250000E-01      0.136416E-01
      0.300000E-01      0.132667E-01
      0.350000E-01      0.128364E-01
      0.400000E-01      0.123564E-01
      0.450000E-01      0.118332E-01
      0.500000E-01      0.112735E-01
      0.550000E-01      0.106844E-01
      0.600000E-01      0.100731E-01
      0.650000E-01      0.944675E-02
      0.700000E-01      0.881228E-02
      0.750000E-01      0.817645E-02
      0.800000E-01      0.754562E-02
      0.850000E-01      0.692567E-02
      0.900000E-01      0.632189E-02
      0.950000E-01      0.573899E-02
      0.100000          0.518099E-02
      0.105000          0.465124E-02
      0.110000          0.415237E-02
      0.115000          0.368634E-02
      0.120000          0.325444E-02
      0.125000          0.285732E-02
      0.130000          0.249507E-02
      0.135000          0.216723E-02
      0.140000          0.187290E-02
      0.145000          0.161078E-02
      0.150000          0.137926E-02
      0.155000          0.117647E-02
      0.160000          0.100036E-02
      0.165000          0.848750E-03
      0.170000          0.719424E-03
      0.175000          0.610139E-03
      0.180000          0.518698E-03
      0.185000          0.442977E-03
      0.190000          0.380965E-03
      0.195000          0.330778E-03
      0.200000          0.290682E-03
      0.205000          0.259099E-03
      0.210000          0.234616E-03
      0.215000          0.215977E-03
      0.220000          0.202087E-03
      0.225000          0.191995E-03
      0.230000          0.184892E-03
      0.235000          0.180092E-03
      0.240000          0.177024E-03
      0.245000          0.175215E-03
      0.250000          0.174281E-03
      0.255000          0.173910E-03
      0.260000          0.173856E-03
      0.265000          0.173924E-03
      0.270000          0.173965E-03
      0.275000          0.173866E-03
      0.280000          0.173544E-03
      0.285000          0.172939E-03
      0.290000          0.172016E-03
      0.295000          0.170752E-03
      0.300000          0.169142E-03
      0.305000          0.167190E-03
      0.310000          0.164911E-03
      0.315000          0.162329E-03
      0.320000          0.159474E-03
      0.325000          0.156381E-03
      0.330000          0.153090E-03
      0.335000          0.149643E-03
      0.340000          0.146085E-03
      0.345000          0.142458E-03
      0.350000          0.138807E-03
      0.355000          0.135172E-03
      0.360000          0.131593E-03
      0.365000          0.128103E-03
      0.370000          0.124733E-03
      0.375000          0.121507E-03
      0.380000          0.118446E-03
      0.385000          0.115564E-03
      0.390000          0.112870E-03
      0.395000          0.110368E-03
      0.400000          0.108057E-03
      0.405000          0.105933E-03
      0.410000          0.103987E-03
      0.415000          0.102207E-03
      0.420000          0.100580E-03
      0.425000          0.990896E-04
      0.430000          0.977199E-04
      0.435000          0.964540E-04
      0.440000          0.952749E-04
      0.445000          0.941667E-04
      0.450000          0.931142E-04
      0.455000          0.921036E-04
      0.460000          0.911228E-04
      0.465000          0.901613E-04
      0.470000          0.892106E-04
      0.475000          0.882640E-04
      0.480000          0.873167E-04
      0.485000          0.863658E-04
      0.490000          0.854100E-04
      0.495000          0.844499E-04
      0.500000          0.834874E-04
