 I_abs(s)[cm^-1]/c[mg/ml]
       0.00000          0.144130E-01
      0.500000E-02      0.143770E-01
      0.100000E-01      0.142695E-01
      0.150000E-01      0.140920E-01
      0.200000E-01      0.138472E-01
      0.250000E-01      0.135384E-01
      0.300000E-01      0.131702E-01
      0.350000E-01      0.127476E-01
      0.400000E-01      0.122764E-01
      0.450000E-01      0.117630E-01
      0.500000E-01      0.112140E-01
      0.550000E-01      0.106365E-01
      0.600000E-01      0.100375E-01
      0.650000E-01      0.942404E-02
      0.700000E-01      0.880309E-02
      0.750000E-01      0.818125E-02
      0.800000E-01      0.756474E-02
      0.850000E-01      0.695931E-02
      0.900000E-01      0.637014E-02
      0.950000E-01      0.580178E-02
      0.100000          0.525810E-02
      0.105000          0.474229E-02
      0.110000          0.425681E-02
      0.115000          0.380346E-02
      0.120000          0.338335E-02
      0.125000          0.299697E-02
      0.130000          0.264423E-02
      0.135000          0.232454E-02
      0.140000          0.203685E-02
      0.145000          0.177975E-02
      0.150000          0.155150E-02
      0.155000          0.135018E-02
      0.160000          0.117369E-02
      0.165000          0.101984E-02
      0.170000          0.886428E-03
      0.175000          0.771269E-03
      0.180000          0.672258E-03
      0.185000          0.587401E-03
      0.190000          0.514843E-03
      0.195000          0.452890E-03
      0.200000          0.400022E-03
      0.205000          0.354896E-03
      0.210000          0.316345E-03
      0.215000          0.283372E-03
      0.220000          0.255137E-03
      0.225000          0.230945E-03
      0.230000          0.210224E-03
      0.235000          0.192512E-03
      0.240000          0.177434E-03
      0.245000          0.164688E-03
      0.250000          0.154024E-03
      0.255000          0.145235E-03
      0.260000          0.138136E-03
      0.265000          0.132562E-03
      0.270000          0.128353E-03
      0.275000          0.125354E-03
      0.280000          0.123407E-03
      0.285000          0.122352E-03
      0.290000          0.122030E-03
      0.295000          0.122277E-03
      0.300000          0.122935E-03
      0.305000          0.123848E-03
      0.310000          0.124874E-03
      0.315000          0.125878E-03
      0.320000          0.126744E-03
      0.325000          0.127372E-03
      0.330000          0.127684E-03
      0.335000          0.127622E-03
      0.340000          0.127147E-03
      0.345000          0.126245E-03
      0.350000          0.124919E-03
      0.355000          0.123189E-03
      0.360000          0.121091E-03
      0.365000          0.118675E-03
      0.370000          0.115997E-03
      0.375000          0.113123E-03
      0.380000          0.110118E-03
      0.385000          0.107050E-03
      0.390000          0.103983E-03
      0.395000          0.100979E-03
      0.400000          0.980894E-04
      0.405000          0.953610E-04
      0.410000          0.928300E-04
      0.415000          0.905239E-04
      0.420000          0.884604E-04
      0.425000          0.866484E-04
      0.430000          0.850880E-04
      0.435000          0.837719E-04
      0.440000          0.826859E-04
      0.445000          0.818107E-04
      0.450000          0.811226E-04
      0.455000          0.805950E-04
      0.460000          0.801993E-04
      0.465000          0.799065E-04
      0.470000          0.796876E-04
      0.475000          0.795147E-04
      0.480000          0.793615E-04
      0.485000          0.792042E-04
      0.490000          0.790215E-04
      0.495000          0.787949E-04
      0.500000          0.785091E-04
