 I_abs(s)[cm^-1]/c[mg/ml]
       0.00000          0.139510E-01
      0.500000E-02      0.138433E-01
      0.100000E-01      0.135266E-01
      0.150000E-01      0.130193E-01
      0.200000E-01      0.123501E-01
      0.250000E-01      0.115554E-01
      0.300000E-01      0.106760E-01
      0.350000E-01      0.975351E-02
      0.400000E-01      0.882700E-02
      0.450000E-01      0.793037E-02
      0.500000E-01      0.709016E-02
      0.550000E-01      0.632455E-02
      0.600000E-01      0.564321E-02
      0.650000E-01      0.504808E-02
      0.700000E-01      0.453478E-02
      0.750000E-01      0.409446E-02
      0.800000E-01      0.371575E-02
      0.850000E-01      0.338660E-02
      0.900000E-01      0.309579E-02
      0.950000E-01      0.283400E-02
      0.100000          0.259431E-02
      0.105000          0.237227E-02
      0.110000          0.216560E-02
      0.115000          0.197361E-02
      0.120000          0.179654E-02
      0.125000          0.163488E-02
      0.130000          0.148895E-02
      0.135000          0.135849E-02
      0.140000          0.124260E-02
      0.145000          0.113981E-02
      0.150000          0.104824E-02
      0.155000          0.965878E-03
      0.160000          0.890836E-03
      0.165000          0.821550E-03
      0.170000          0.756905E-03
      0.175000          0.696256E-03
      0.180000          0.639383E-03
      0.185000          0.586368E-03
      0.190000          0.537462E-03
      0.195000          0.492943E-03
      0.200000          0.453011E-03
      0.205000          0.417717E-03
      0.210000          0.386943E-03
      0.215000          0.360421E-03
      0.220000          0.337770E-03
      0.225000          0.318556E-03
      0.230000          0.302339E-03
      0.235000          0.288714E-03
      0.240000          0.277325E-03
      0.245000          0.267872E-03
      0.250000          0.260100E-03
      0.255000          0.253776E-03
      0.260000          0.248679E-03
      0.265000          0.244589E-03
      0.270000          0.241282E-03
      0.275000          0.238542E-03
      0.280000          0.236169E-03
      0.285000          0.233998E-03
      0.290000          0.231903E-03
      0.295000          0.229810E-03
      0.300000          0.227686E-03
      0.305000          0.225533E-03
      0.310000          0.223374E-03
      0.315000          0.221231E-03
      0.320000          0.219114E-03
      0.325000          0.217010E-03
      0.330000          0.214882E-03
      0.335000          0.212669E-03
      0.340000          0.210299E-03
      0.345000          0.207699E-03
      0.350000          0.204812E-03
      0.355000          0.201607E-03
      0.360000          0.198084E-03
      0.365000          0.194273E-03
      0.370000          0.190236E-03
      0.375000          0.186051E-03
      0.380000          0.181801E-03
      0.385000          0.177565E-03
      0.390000          0.173404E-03
      0.395000          0.169355E-03
      0.400000          0.165429E-03
      0.405000          0.161608E-03
      0.410000          0.157856E-03
      0.415000          0.154122E-03
      0.420000          0.150355E-03
      0.425000          0.146507E-03
      0.430000          0.142547E-03
      0.435000          0.138462E-03
      0.440000          0.134261E-03
      0.445000          0.129978E-03
      0.450000          0.125662E-03
      0.455000          0.121377E-03
      0.460000          0.117189E-03
      0.465000          0.113165E-03
      0.470000          0.109360E-03
      0.475000          0.105813E-03
      0.480000          0.102547E-03
      0.485000          0.995621E-04
      0.490000          0.968399E-04
      0.495000          0.943483E-04
      0.500000          0.920455E-04
