 I_abs(s)[cm^-1]/c[mg/ml]
       0.00000          0.145873E-01
      0.500000E-02      0.145516E-01
      0.100000E-01      0.144452E-01
      0.150000E-01      0.142695E-01
      0.200000E-01      0.140268E-01
      0.250000E-01      0.137205E-01
      0.300000E-01      0.133547E-01
      0.350000E-01      0.129342E-01
      0.400000E-01      0.124645E-01
      0.450000E-01      0.119516E-01
      0.500000E-01      0.114020E-01
      0.550000E-01      0.108222E-01
      0.600000E-01      0.102192E-01
      0.650000E-01      0.959979E-02
      0.700000E-01      0.897083E-02
      0.750000E-01      0.833885E-02
      0.800000E-01      0.771011E-02
      0.850000E-01      0.709047E-02
      0.900000E-01      0.648526E-02
      0.950000E-01      0.589930E-02
      0.100000          0.533676E-02
      0.105000          0.480118E-02
      0.110000          0.429544E-02
      0.115000          0.382175E-02
      0.120000          0.338164E-02
      0.125000          0.297606E-02
      0.130000          0.260531E-02
      0.135000          0.226917E-02
      0.140000          0.196693E-02
      0.145000          0.169745E-02
      0.150000          0.145922E-02
      0.155000          0.125042E-02
      0.160000          0.106904E-02
      0.165000          0.912861E-03
      0.170000          0.779607E-03
      0.175000          0.666944E-03
      0.180000          0.572554E-03
      0.185000          0.494182E-03
      0.190000          0.429674E-03
      0.195000          0.377007E-03
      0.200000          0.334316E-03
      0.205000          0.299910E-03
      0.210000          0.272281E-03
      0.215000          0.250113E-03
      0.220000          0.232272E-03
      0.225000          0.217806E-03
      0.230000          0.205933E-03
      0.235000          0.196023E-03
      0.240000          0.187587E-03
      0.245000          0.180257E-03
      0.250000          0.173766E-03
      0.255000          0.167932E-03
      0.260000          0.162643E-03
      0.265000          0.157833E-03
      0.270000          0.153475E-03
      0.275000          0.149563E-03
      0.280000          0.146103E-03
      0.285000          0.143106E-03
      0.290000          0.140574E-03
      0.295000          0.138506E-03
      0.300000          0.136886E-03
      0.305000          0.135686E-03
      0.310000          0.134863E-03
      0.315000          0.134364E-03
      0.320000          0.134124E-03
      0.325000          0.134074E-03
      0.330000          0.134136E-03
      0.335000          0.134234E-03
      0.340000          0.134292E-03
      0.345000          0.134238E-03
      0.350000          0.134010E-03
      0.355000          0.133550E-03
      0.360000          0.132816E-03
      0.365000          0.131774E-03
      0.370000          0.130405E-03
      0.375000          0.128698E-03
      0.380000          0.126659E-03
      0.385000          0.124302E-03
      0.390000          0.121652E-03
      0.395000          0.118742E-03
      0.400000          0.115613E-03
      0.405000          0.112311E-03
      0.410000          0.108884E-03
      0.415000          0.105386E-03
      0.420000          0.101866E-03
      0.425000          0.983768E-04
      0.430000          0.949662E-04
      0.435000          0.916791E-04
      0.440000          0.885558E-04
      0.445000          0.856317E-04
      0.450000          0.829363E-04
      0.455000          0.804929E-04
      0.460000          0.783190E-04
      0.465000          0.764258E-04
      0.470000          0.748188E-04
      0.475000          0.734978E-04
      0.480000          0.724576E-04
      0.485000          0.716883E-04
      0.490000          0.711760E-04
      0.495000          0.709035E-04
      0.500000          0.708507E-04
