 I_abs(s)[cm^-1]/c[mg/ml]
       0.00000          0.145555E-01
      0.500000E-02      0.145193E-01
      0.100000E-01      0.144114E-01
      0.150000E-01      0.142332E-01
      0.200000E-01      0.139873E-01
      0.250000E-01      0.136772E-01
      0.300000E-01      0.133074E-01
      0.350000E-01      0.128829E-01
      0.400000E-01      0.124095E-01
      0.450000E-01      0.118935E-01
      0.500000E-01      0.113417E-01
      0.550000E-01      0.107609E-01
      0.600000E-01      0.101582E-01
      0.650000E-01      0.954067E-02
      0.700000E-01      0.891512E-02
      0.750000E-01      0.828814E-02
      0.800000E-01      0.766592E-02
      0.850000E-01      0.705418E-02
      0.900000E-01      0.645807E-02
      0.950000E-01      0.588213E-02
      0.100000          0.533024E-02
      0.105000          0.480562E-02
      0.110000          0.431079E-02
      0.115000          0.384761E-02
      0.120000          0.341731E-02
      0.125000          0.302048E-02
      0.130000          0.265721E-02
      0.135000          0.232705E-02
      0.140000          0.202914E-02
      0.145000          0.176225E-02
      0.150000          0.152486E-02
      0.155000          0.131521E-02
      0.160000          0.113138E-02
      0.165000          0.971358E-03
      0.170000          0.833061E-03
      0.175000          0.714415E-03
      0.180000          0.613386E-03
      0.185000          0.528010E-03
      0.190000          0.456424E-03
      0.195000          0.396886E-03
      0.200000          0.347786E-03
      0.205000          0.307654E-03
      0.210000          0.275165E-03
      0.215000          0.249134E-03
      0.220000          0.228512E-03
      0.225000          0.212381E-03
      0.230000          0.199939E-03
      0.235000          0.190495E-03
      0.240000          0.183453E-03
      0.245000          0.178307E-03
      0.250000          0.174623E-03
      0.255000          0.172038E-03
      0.260000          0.170242E-03
      0.265000          0.168978E-03
      0.270000          0.168032E-03
      0.275000          0.167227E-03
      0.280000          0.166418E-03
      0.285000          0.165492E-03
      0.290000          0.164359E-03
      0.295000          0.162955E-03
      0.300000          0.161235E-03
      0.305000          0.159173E-03
      0.310000          0.156762E-03
      0.315000          0.154008E-03
      0.320000          0.150931E-03
      0.325000          0.147561E-03
      0.330000          0.143939E-03
      0.335000          0.140110E-03
      0.340000          0.136128E-03
      0.345000          0.132046E-03
      0.350000          0.127921E-03
      0.355000          0.123806E-03
      0.360000          0.119754E-03
      0.365000          0.115813E-03
      0.370000          0.112027E-03
      0.375000          0.108431E-03
      0.380000          0.105055E-03
      0.385000          0.101923E-03
      0.390000          0.990497E-04
      0.395000          0.964430E-04
      0.400000          0.941044E-04
      0.405000          0.920290E-04
      0.410000          0.902061E-04
      0.415000          0.886203E-04
      0.420000          0.872522E-04
      0.425000          0.860793E-04
      0.430000          0.850769E-04
      0.435000          0.842192E-04
      0.440000          0.834798E-04
      0.445000          0.828328E-04
      0.450000          0.822530E-04
      0.455000          0.817172E-04
      0.460000          0.812039E-04
      0.465000          0.806944E-04
      0.470000          0.801726E-04
      0.475000          0.796253E-04
      0.480000          0.790424E-04
      0.485000          0.784171E-04
      0.490000          0.777452E-04
      0.495000          0.770257E-04
      0.500000          0.762601E-04
