 I_abs(s)[cm^-1]/c[mg/ml]
       0.00000          0.145952E-01
      0.500000E-02      0.145589E-01
      0.100000E-01      0.144506E-01
      0.150000E-01      0.142718E-01
      0.200000E-01      0.140249E-01
      0.250000E-01      0.137134E-01
      0.300000E-01      0.133415E-01
      0.350000E-01      0.129143E-01
      0.400000E-01      0.124373E-01
      0.450000E-01      0.119169E-01
      0.500000E-01      0.113595E-01
      0.550000E-01      0.107722E-01
      0.600000E-01      0.101619E-01
      0.650000E-01      0.953564E-02
      0.700000E-01      0.890041E-02
      0.750000E-01      0.826291E-02
      0.800000E-01      0.762948E-02
      0.850000E-01      0.700605E-02
      0.900000E-01      0.639802E-02
      0.950000E-01      0.581020E-02
      0.100000          0.524676E-02
      0.105000          0.471120E-02
      0.110000          0.420635E-02
      0.115000          0.373431E-02
      0.120000          0.329655E-02
      0.125000          0.289389E-02
      0.130000          0.252652E-02
      0.135000          0.219412E-02
      0.140000          0.189587E-02
      0.145000          0.163050E-02
      0.150000          0.139643E-02
      0.155000          0.119176E-02
      0.160000          0.101440E-02
      0.165000          0.862109E-03
      0.170000          0.732558E-03
      0.175000          0.623404E-03
      0.180000          0.532329E-03
      0.185000          0.457091E-03
      0.190000          0.395556E-03
      0.195000          0.345733E-03
      0.200000          0.305793E-03
      0.205000          0.274081E-03
      0.210000          0.249126E-03
      0.215000          0.229642E-03
      0.220000          0.214522E-03
      0.225000          0.202831E-03
      0.230000          0.193792E-03
      0.235000          0.186773E-03
      0.240000          0.181268E-03
      0.245000          0.176884E-03
      0.250000          0.173318E-03
      0.255000          0.170345E-03
      0.260000          0.167800E-03
      0.265000          0.165562E-03
      0.270000          0.163548E-03
      0.275000          0.161694E-03
      0.280000          0.159954E-03
      0.285000          0.158290E-03
      0.290000          0.156667E-03
      0.295000          0.155052E-03
      0.300000          0.153412E-03
      0.305000          0.151713E-03
      0.310000          0.149922E-03
      0.315000          0.148004E-03
      0.320000          0.145931E-03
      0.325000          0.143676E-03
      0.330000          0.141220E-03
      0.335000          0.138551E-03
      0.340000          0.135665E-03
      0.345000          0.132567E-03
      0.350000          0.129270E-03
      0.355000          0.125796E-03
      0.360000          0.122177E-03
      0.365000          0.118447E-03
      0.370000          0.114649E-03
      0.375000          0.110827E-03
      0.380000          0.107027E-03
      0.385000          0.103294E-03
      0.390000          0.996730E-04
      0.395000          0.962023E-04
      0.400000          0.929169E-04
      0.405000          0.898450E-04
      0.410000          0.870081E-04
      0.415000          0.844201E-04
      0.420000          0.820874E-04
      0.425000          0.800094E-04
      0.430000          0.781785E-04
      0.435000          0.765812E-04
      0.440000          0.751990E-04
      0.445000          0.740096E-04
      0.450000          0.729879E-04
      0.455000          0.721072E-04
      0.460000          0.713410E-04
      0.465000          0.706633E-04
      0.470000          0.700501E-04
      0.475000          0.694806E-04
      0.480000          0.689370E-04
      0.485000          0.684059E-04
      0.490000          0.678782E-04
      0.495000          0.673491E-04
      0.500000          0.668184E-04
