 I_abs(s)[cm^-1]/c[mg/ml]
       0.00000          0.145238E-01
      0.500000E-02      0.144831E-01
      0.100000E-01      0.143617E-01
      0.150000E-01      0.141617E-01
      0.200000E-01      0.138864E-01
      0.250000E-01      0.135403E-01
      0.300000E-01      0.131291E-01
      0.350000E-01      0.126593E-01
      0.400000E-01      0.121383E-01
      0.450000E-01      0.115740E-01
      0.500000E-01      0.109746E-01
      0.550000E-01      0.103487E-01
      0.600000E-01      0.970468E-02
      0.650000E-01      0.905079E-02
      0.700000E-01      0.839492E-02
      0.750000E-01      0.774446E-02
      0.800000E-01      0.710611E-02
      0.850000E-01      0.648587E-02
      0.900000E-01      0.588891E-02
      0.950000E-01      0.531954E-02
      0.100000          0.478119E-02
      0.105000          0.427646E-02
      0.110000          0.380707E-02
      0.115000          0.337401E-02
      0.120000          0.297752E-02
      0.125000          0.261724E-02
      0.130000          0.229224E-02
      0.135000          0.200116E-02
      0.140000          0.174226E-02
      0.145000          0.151355E-02
      0.150000          0.131286E-02
      0.155000          0.113789E-02
      0.160000          0.986319E-03
      0.165000          0.855836E-03
      0.170000          0.744199E-03
      0.175000          0.649264E-03
      0.180000          0.569018E-03
      0.185000          0.501593E-03
      0.190000          0.445276E-03
      0.195000          0.398514E-03
      0.200000          0.359910E-03
      0.205000          0.328217E-03
      0.210000          0.302332E-03
      0.215000          0.281282E-03
      0.220000          0.264214E-03
      0.225000          0.250387E-03
      0.230000          0.239155E-03
      0.235000          0.229963E-03
      0.240000          0.222337E-03
      0.245000          0.215874E-03
      0.250000          0.210236E-03
      0.255000          0.205148E-03
      0.260000          0.200387E-03
      0.265000          0.195779E-03
      0.270000          0.191198E-03
      0.275000          0.186555E-03
      0.280000          0.181800E-03
      0.285000          0.176909E-03
      0.290000          0.171888E-03
      0.295000          0.166763E-03
      0.300000          0.161574E-03
      0.305000          0.156374E-03
      0.310000          0.151221E-03
      0.315000          0.146175E-03
      0.320000          0.141297E-03
      0.325000          0.136640E-03
      0.330000          0.132252E-03
      0.335000          0.128171E-03
      0.340000          0.124424E-03
      0.345000          0.121031E-03
      0.350000          0.117997E-03
      0.355000          0.115321E-03
      0.360000          0.112992E-03
      0.365000          0.110991E-03
      0.370000          0.109293E-03
      0.375000          0.107872E-03
      0.380000          0.106696E-03
      0.385000          0.105733E-03
      0.390000          0.104952E-03
      0.395000          0.104323E-03
      0.400000          0.103818E-03
      0.405000          0.103412E-03
      0.410000          0.103084E-03
      0.415000          0.102814E-03
      0.420000          0.102587E-03
      0.425000          0.102393E-03
      0.430000          0.102220E-03
      0.435000          0.102063E-03
      0.440000          0.101917E-03
      0.445000          0.101778E-03
      0.450000          0.101644E-03
      0.455000          0.101515E-03
      0.460000          0.101389E-03
      0.465000          0.101265E-03
      0.470000          0.101144E-03
      0.475000          0.101024E-03
      0.480000          0.100904E-03
      0.485000          0.100781E-03
      0.490000          0.100653E-03
      0.495000          0.100517E-03
      0.500000          0.100369E-03
