 I_abs(s)[cm^-1]/c[mg/ml]
       0.00000          0.144921E-01
      0.500000E-02      0.144581E-01
      0.100000E-01      0.143565E-01
      0.150000E-01      0.141887E-01
      0.200000E-01      0.139569E-01
      0.250000E-01      0.136640E-01
      0.300000E-01      0.133139E-01
      0.350000E-01      0.129109E-01
      0.400000E-01      0.124602E-01
      0.450000E-01      0.119673E-01
      0.500000E-01      0.114381E-01
      0.550000E-01      0.108788E-01
      0.600000E-01      0.102958E-01
      0.650000E-01      0.969552E-02
      0.700000E-01      0.908437E-02
      0.750000E-01      0.846857E-02
      0.800000E-01      0.785405E-02
      0.850000E-01      0.724645E-02
      0.900000E-01      0.665094E-02
      0.950000E-01      0.607221E-02
      0.100000          0.551443E-02
      0.105000          0.498116E-02
      0.110000          0.447538E-02
      0.115000          0.399945E-02
      0.120000          0.355510E-02
      0.125000          0.314350E-02
      0.130000          0.276522E-02
      0.135000          0.242034E-02
      0.140000          0.210843E-02
      0.145000          0.182863E-02
      0.150000          0.157971E-02
      0.155000          0.136012E-02
      0.160000          0.116808E-02
      0.165000          0.100159E-02
      0.170000          0.858535E-03
      0.175000          0.736719E-03
      0.180000          0.633924E-03
      0.185000          0.547955E-03
      0.190000          0.476681E-03
      0.195000          0.418070E-03
      0.200000          0.370220E-03
      0.205000          0.331375E-03
      0.210000          0.299946E-03
      0.215000          0.274516E-03
      0.220000          0.253845E-03
      0.225000          0.236869E-03
      0.230000          0.222694E-03
      0.235000          0.210584E-03
      0.240000          0.199952E-03
      0.245000          0.190346E-03
      0.250000          0.181428E-03
      0.255000          0.172963E-03
      0.260000          0.164800E-03
      0.265000          0.156855E-03
      0.270000          0.149099E-03
      0.275000          0.141540E-03
      0.280000          0.134212E-03
      0.285000          0.127166E-03
      0.290000          0.120458E-03
      0.295000          0.114144E-03
      0.300000          0.108272E-03
      0.305000          0.102883E-03
      0.310000          0.980036E-04
      0.315000          0.936460E-04
      0.320000          0.898100E-04
      0.325000          0.864821E-04
      0.330000          0.836375E-04
      0.335000          0.812422E-04
      0.340000          0.792546E-04
      0.345000          0.776288E-04
      0.350000          0.763157E-04
      0.355000          0.752662E-04
      0.360000          0.744320E-04
      0.365000          0.737682E-04
      0.370000          0.732334E-04
      0.375000          0.727915E-04
      0.380000          0.724117E-04
      0.385000          0.720688E-04
      0.390000          0.717432E-04
      0.395000          0.714205E-04
      0.400000          0.710912E-04
      0.405000          0.707498E-04
      0.410000          0.703945E-04
      0.415000          0.700263E-04
      0.420000          0.696482E-04
      0.425000          0.692647E-04
      0.430000          0.688813E-04
      0.435000          0.685037E-04
      0.440000          0.681378E-04
      0.445000          0.677892E-04
      0.450000          0.674628E-04
      0.455000          0.671631E-04
      0.460000          0.668939E-04
      0.465000          0.666582E-04
      0.470000          0.664586E-04
      0.475000          0.662972E-04
      0.480000          0.661757E-04
      0.485000          0.660954E-04
      0.490000          0.660575E-04
      0.495000          0.660632E-04
      0.500000          0.661132E-04
