 I_abs(s)[cm^-1]/c[mg/ml]
       0.00000          0.147386E-01
      0.500000E-02      0.147029E-01
      0.100000E-01      0.145966E-01
      0.150000E-01      0.144209E-01
      0.200000E-01      0.141784E-01
      0.250000E-01      0.138721E-01
      0.300000E-01      0.135063E-01
      0.350000E-01      0.130857E-01
      0.400000E-01      0.126157E-01
      0.450000E-01      0.121023E-01
      0.500000E-01      0.115519E-01
      0.550000E-01      0.109711E-01
      0.600000E-01      0.103666E-01
      0.650000E-01      0.974545E-02
      0.700000E-01      0.911422E-02
      0.750000E-01      0.847950E-02
      0.800000E-01      0.784752E-02
      0.850000E-01      0.722411E-02
      0.900000E-01      0.661461E-02
      0.950000E-01      0.602383E-02
      0.100000          0.545596E-02
      0.105000          0.491457E-02
      0.110000          0.440255E-02
      0.115000          0.392217E-02
      0.120000          0.347502E-02
      0.125000          0.306208E-02
      0.130000          0.268374E-02
      0.135000          0.233986E-02
      0.140000          0.202978E-02
      0.145000          0.175244E-02
      0.150000          0.150641E-02
      0.155000          0.128996E-02
      0.160000          0.110113E-02
      0.165000          0.937792E-03
      0.170000          0.797714E-03
      0.175000          0.678624E-03
      0.180000          0.578251E-03
      0.185000          0.494379E-03
      0.190000          0.424882E-03
      0.195000          0.367755E-03
      0.200000          0.321142E-03
      0.205000          0.283348E-03
      0.210000          0.252855E-03
      0.215000          0.228322E-03
      0.220000          0.208587E-03
      0.225000          0.192660E-03
      0.230000          0.179713E-03
      0.235000          0.169068E-03
      0.240000          0.160182E-03
      0.245000          0.152631E-03
      0.250000          0.146092E-03
      0.255000          0.140330E-03
      0.260000          0.135177E-03
      0.265000          0.130521E-03
      0.270000          0.126291E-03
      0.275000          0.122444E-03
      0.280000          0.118957E-03
      0.285000          0.115817E-03
      0.290000          0.113016E-03
      0.295000          0.110545E-03
      0.300000          0.108394E-03
      0.305000          0.106545E-03
      0.310000          0.104975E-03
      0.315000          0.103658E-03
      0.320000          0.102560E-03
      0.325000          0.101647E-03
      0.330000          0.100881E-03
      0.335000          0.100226E-03
      0.340000          0.996479E-04
      0.345000          0.991146E-04
      0.350000          0.985991E-04
      0.355000          0.980792E-04
      0.360000          0.975384E-04
      0.365000          0.969657E-04
      0.370000          0.963554E-04
      0.375000          0.957067E-04
      0.380000          0.950230E-04
      0.385000          0.943108E-04
      0.390000          0.935792E-04
      0.395000          0.928387E-04
      0.400000          0.921002E-04
      0.405000          0.913742E-04
      0.410000          0.906705E-04
      0.415000          0.899968E-04
      0.420000          0.893593E-04
      0.425000          0.887616E-04
      0.430000          0.882052E-04
      0.435000          0.876892E-04
      0.440000          0.872110E-04
      0.445000          0.867660E-04
      0.450000          0.863485E-04
      0.455000          0.859519E-04
      0.460000          0.855693E-04
      0.465000          0.851937E-04
      0.470000          0.848187E-04
      0.475000          0.844388E-04
      0.480000          0.840494E-04
      0.485000          0.836476E-04
      0.490000          0.832317E-04
      0.495000          0.828015E-04
      0.500000          0.823585E-04
