 I_abs(s)[cm^-1]/c[mg/ml]
       0.00000          0.142949E-01
      0.500000E-02      0.142578E-01
      0.100000E-01      0.141471E-01
      0.150000E-01      0.139644E-01
      0.200000E-01      0.137125E-01
      0.250000E-01      0.133951E-01
      0.300000E-01      0.130167E-01
      0.350000E-01      0.125828E-01
      0.400000E-01      0.120994E-01
      0.450000E-01      0.115733E-01
      0.500000E-01      0.110114E-01
      0.550000E-01      0.104211E-01
      0.600000E-01      0.980989E-02
      0.650000E-01      0.918508E-02
      0.700000E-01      0.855392E-02
      0.750000E-01      0.792332E-02
      0.800000E-01      0.729977E-02
      0.850000E-01      0.668923E-02
      0.900000E-01      0.609705E-02
      0.950000E-01      0.552792E-02
      0.100000          0.498579E-02
      0.105000          0.447389E-02
      0.110000          0.399468E-02
      0.115000          0.354989E-02
      0.120000          0.314054E-02
      0.125000          0.276698E-02
      0.130000          0.242895E-02
      0.135000          0.212565E-02
      0.140000          0.185581E-02
      0.145000          0.161775E-02
      0.150000          0.140950E-02
      0.155000          0.122882E-02
      0.160000          0.107334E-02
      0.165000          0.940601E-03
      0.170000          0.828103E-03
      0.175000          0.733398E-03
      0.180000          0.654120E-03
      0.185000          0.588033E-03
      0.190000          0.533063E-03
      0.195000          0.487319E-03
      0.200000          0.449110E-03
      0.205000          0.416952E-03
      0.210000          0.389569E-03
      0.215000          0.365885E-03
      0.220000          0.345015E-03
      0.225000          0.326252E-03
      0.230000          0.309046E-03
      0.235000          0.292986E-03
      0.240000          0.277782E-03
      0.245000          0.263242E-03
      0.250000          0.249254E-03
      0.255000          0.235767E-03
      0.260000          0.222776E-03
      0.265000          0.210304E-03
      0.270000          0.198396E-03
      0.275000          0.187101E-03
      0.280000          0.176470E-03
      0.285000          0.166546E-03
      0.290000          0.157365E-03
      0.295000          0.148947E-03
      0.300000          0.141300E-03
      0.305000          0.134419E-03
      0.310000          0.128283E-03
      0.315000          0.122864E-03
      0.320000          0.118121E-03
      0.325000          0.114008E-03
      0.330000          0.110472E-03
      0.335000          0.107458E-03
      0.340000          0.104908E-03
      0.345000          0.102767E-03
      0.350000          0.100978E-03
      0.355000          0.994888E-04
      0.360000          0.982503E-04
      0.365000          0.972167E-04
      0.370000          0.963468E-04
      0.375000          0.956036E-04
      0.380000          0.949547E-04
      0.385000          0.943718E-04
      0.390000          0.938307E-04
      0.395000          0.933112E-04
      0.400000          0.927966E-04
      0.405000          0.922735E-04
      0.410000          0.917313E-04
      0.415000          0.911623E-04
      0.420000          0.905609E-04
      0.425000          0.899236E-04
      0.430000          0.892485E-04
      0.435000          0.885353E-04
      0.440000          0.877844E-04
      0.445000          0.869972E-04
      0.450000          0.861758E-04
      0.455000          0.853222E-04
      0.460000          0.844385E-04
      0.465000          0.835270E-04
      0.470000          0.825894E-04
      0.475000          0.816269E-04
      0.480000          0.806407E-04
      0.485000          0.796310E-04
      0.490000          0.785980E-04
      0.495000          0.775414E-04
      0.500000          0.764606E-04
