 I_abs(s)[cm^-1]/c[mg/ml]
       0.00000          0.143184E-01
      0.500000E-02      0.142818E-01
      0.100000E-01      0.141724E-01
      0.150000E-01      0.139919E-01
      0.200000E-01      0.137429E-01
      0.250000E-01      0.134289E-01
      0.300000E-01      0.130546E-01
      0.350000E-01      0.126253E-01
      0.400000E-01      0.121467E-01
      0.450000E-01      0.116256E-01
      0.500000E-01      0.110687E-01
      0.550000E-01      0.104834E-01
      0.600000E-01      0.987675E-02
      0.650000E-01      0.925616E-02
      0.700000E-01      0.862869E-02
      0.750000E-01      0.800115E-02
      0.800000E-01      0.737994E-02
      0.850000E-01      0.677095E-02
      0.900000E-01      0.617948E-02
      0.950000E-01      0.561019E-02
      0.100000          0.506700E-02
      0.105000          0.455315E-02
      0.110000          0.407111E-02
      0.115000          0.362265E-02
      0.120000          0.320883E-02
      0.125000          0.283006E-02
      0.130000          0.248614E-02
      0.135000          0.217634E-02
      0.140000          0.189948E-02
      0.145000          0.165395E-02
      0.150000          0.143787E-02
      0.155000          0.124911E-02
      0.160000          0.108538E-02
      0.165000          0.944311E-03
      0.170000          0.823518E-03
      0.175000          0.720646E-03
      0.180000          0.633433E-03
      0.185000          0.559744E-03
      0.190000          0.497604E-03
      0.195000          0.445220E-03
      0.200000          0.400994E-03
      0.205000          0.363530E-03
      0.210000          0.331632E-03
      0.215000          0.304295E-03
      0.220000          0.280691E-03
      0.225000          0.260157E-03
      0.230000          0.242171E-03
      0.235000          0.226333E-03
      0.240000          0.212343E-03
      0.245000          0.199982E-03
      0.250000          0.189090E-03
      0.255000          0.179548E-03
      0.260000          0.171265E-03
      0.265000          0.164161E-03
      0.270000          0.158161E-03
      0.275000          0.153186E-03
      0.280000          0.149148E-03
      0.285000          0.145947E-03
      0.290000          0.143473E-03
      0.295000          0.141605E-03
      0.300000          0.140216E-03
      0.305000          0.139174E-03
      0.310000          0.138351E-03
      0.315000          0.137622E-03
      0.320000          0.136873E-03
      0.325000          0.136003E-03
      0.330000          0.134928E-03
      0.335000          0.133583E-03
      0.340000          0.131924E-03
      0.345000          0.129926E-03
      0.350000          0.127586E-03
      0.355000          0.124918E-03
      0.360000          0.121955E-03
      0.365000          0.118743E-03
      0.370000          0.115340E-03
      0.375000          0.111810E-03
      0.380000          0.108223E-03
      0.385000          0.104651E-03
      0.390000          0.101162E-03
      0.395000          0.978208E-04
      0.400000          0.946841E-04
      0.405000          0.917998E-04
      0.410000          0.892056E-04
      0.415000          0.869278E-04
      0.420000          0.849812E-04
      0.425000          0.833693E-04
      0.430000          0.820848E-04
      0.435000          0.811109E-04
      0.440000          0.804221E-04
      0.445000          0.799863E-04
      0.450000          0.797661E-04
      0.455000          0.797206E-04
      0.460000          0.798072E-04
      0.465000          0.799831E-04
      0.470000          0.802068E-04
      0.475000          0.804395E-04
      0.480000          0.806460E-04
      0.485000          0.807958E-04
      0.490000          0.808635E-04
      0.495000          0.808294E-04
      0.500000          0.806793E-04
