 I_abs(s)[cm^-1]/c[mg/ml]
       0.00000          0.143342E-01
      0.500000E-02      0.142921E-01
      0.100000E-01      0.141667E-01
      0.150000E-01      0.139603E-01
      0.200000E-01      0.136768E-01
      0.250000E-01      0.133213E-01
      0.300000E-01      0.129001E-01
      0.350000E-01      0.124208E-01
      0.400000E-01      0.118914E-01
      0.450000E-01      0.113206E-01
      0.500000E-01      0.107174E-01
      0.550000E-01      0.100909E-01
      0.600000E-01      0.944975E-02
      0.650000E-01      0.880255E-02
      0.700000E-01      0.815717E-02
      0.750000E-01      0.752076E-02
      0.800000E-01      0.689970E-02
      0.850000E-01      0.629944E-02
      0.900000E-01      0.572450E-02
      0.950000E-01      0.517847E-02
      0.100000          0.466403E-02
      0.105000          0.418300E-02
      0.110000          0.373641E-02
      0.115000          0.332461E-02
      0.120000          0.294733E-02
      0.125000          0.260383E-02
      0.130000          0.229294E-02
      0.135000          0.201319E-02
      0.140000          0.176291E-02
      0.145000          0.154026E-02
      0.150000          0.134332E-02
      0.155000          0.117015E-02
      0.160000          0.101880E-02
      0.165000          0.887355E-03
      0.170000          0.773973E-03
      0.175000          0.676865E-03
      0.180000          0.594325E-03
      0.185000          0.524729E-03
      0.190000          0.466540E-03
      0.195000          0.418308E-03
      0.200000          0.378676E-03
      0.205000          0.346378E-03
      0.210000          0.320248E-03
      0.215000          0.299219E-03
      0.220000          0.282330E-03
      0.225000          0.268728E-03
      0.230000          0.257668E-03
      0.235000          0.248517E-03
      0.240000          0.240751E-03
      0.245000          0.233946E-03
      0.250000          0.227779E-03
      0.255000          0.222014E-03
      0.260000          0.216493E-03
      0.265000          0.211123E-03
      0.270000          0.205865E-03
      0.275000          0.200718E-03
      0.280000          0.195708E-03
      0.285000          0.190876E-03
      0.290000          0.186267E-03
      0.295000          0.181923E-03
      0.300000          0.177875E-03
      0.305000          0.174141E-03
      0.310000          0.170723E-03
      0.315000          0.167606E-03
      0.320000          0.164763E-03
      0.325000          0.162150E-03
      0.330000          0.159720E-03
      0.335000          0.157418E-03
      0.340000          0.155189E-03
      0.345000          0.152981E-03
      0.350000          0.150745E-03
      0.355000          0.148440E-03
      0.360000          0.146036E-03
      0.365000          0.143508E-03
      0.370000          0.140842E-03
      0.375000          0.138030E-03
      0.380000          0.135073E-03
      0.385000          0.131975E-03
      0.390000          0.128744E-03
      0.395000          0.125391E-03
      0.400000          0.121930E-03
      0.405000          0.118374E-03
      0.410000          0.114737E-03
      0.415000          0.111036E-03
      0.420000          0.107287E-03
      0.425000          0.103510E-03
      0.430000          0.997262E-04
      0.435000          0.959599E-04
      0.440000          0.922399E-04
      0.445000          0.885982E-04
      0.450000          0.850705E-04
      0.455000          0.816955E-04
      0.460000          0.785134E-04
      0.465000          0.755653E-04
      0.470000          0.728912E-04
      0.475000          0.705279E-04
      0.480000          0.685077E-04
      0.485000          0.668562E-04
      0.490000          0.655908E-04
      0.495000          0.647194E-04
      0.500000          0.642395E-04
