 I_abs(s)[cm^-1]/c[mg/ml]
       0.00000          0.146987E-01
      0.500000E-02      0.146631E-01
      0.100000E-01      0.145570E-01
      0.150000E-01      0.143818E-01
      0.200000E-01      0.141398E-01
      0.250000E-01      0.138344E-01
      0.300000E-01      0.134696E-01
      0.350000E-01      0.130503E-01
      0.400000E-01      0.125819E-01
      0.450000E-01      0.120703E-01
      0.500000E-01      0.115220E-01
      0.550000E-01      0.109435E-01
      0.600000E-01      0.103417E-01
      0.650000E-01      0.972342E-02
      0.700000E-01      0.909528E-02
      0.750000E-01      0.846380E-02
      0.800000E-01      0.783516E-02
      0.850000E-01      0.721512E-02
      0.900000E-01      0.660895E-02
      0.950000E-01      0.602138E-02
      0.100000          0.545651E-02
      0.105000          0.491783E-02
      0.110000          0.440818E-02
      0.115000          0.392972E-02
      0.120000          0.348402E-02
      0.125000          0.307200E-02
      0.130000          0.269402E-02
      0.135000          0.234993E-02
      0.140000          0.203909E-02
      0.145000          0.176046E-02
      0.150000          0.151265E-02
      0.155000          0.129400E-02
      0.160000          0.110263E-02
      0.165000          0.936499E-03
      0.170000          0.793487E-03
      0.175000          0.671425E-03
      0.180000          0.568156E-03
      0.185000          0.481575E-03
      0.190000          0.409660E-03
      0.195000          0.350505E-03
      0.200000          0.302338E-03
      0.205000          0.263536E-03
      0.210000          0.232634E-03
      0.215000          0.208326E-03
      0.220000          0.189466E-03
      0.225000          0.175059E-03
      0.230000          0.164253E-03
      0.235000          0.156327E-03
      0.240000          0.150679E-03
      0.245000          0.146813E-03
      0.250000          0.144320E-03
      0.255000          0.142872E-03
      0.260000          0.142201E-03
      0.265000          0.142094E-03
      0.270000          0.142377E-03
      0.275000          0.142912E-03
      0.280000          0.143583E-03
      0.285000          0.144295E-03
      0.290000          0.144969E-03
      0.295000          0.145536E-03
      0.300000          0.145937E-03
      0.305000          0.146123E-03
      0.310000          0.146051E-03
      0.315000          0.145687E-03
      0.320000          0.145004E-03
      0.325000          0.143986E-03
      0.330000          0.142621E-03
      0.335000          0.140910E-03
      0.340000          0.138861E-03
      0.345000          0.136491E-03
      0.350000          0.133824E-03
      0.355000          0.130890E-03
      0.360000          0.127729E-03
      0.365000          0.124382E-03
      0.370000          0.120894E-03
      0.375000          0.117313E-03
      0.380000          0.113687E-03
      0.385000          0.110061E-03
      0.390000          0.106481E-03
      0.395000          0.102987E-03
      0.400000          0.996151E-04
      0.405000          0.963965E-04
      0.410000          0.933562E-04
      0.415000          0.905136E-04
      0.420000          0.878815E-04
      0.425000          0.854671E-04
      0.430000          0.832718E-04
      0.435000          0.812919E-04
      0.440000          0.795193E-04
      0.445000          0.779420E-04
      0.450000          0.765452E-04
      0.455000          0.753118E-04
      0.460000          0.742235E-04
      0.465000          0.732612E-04
      0.470000          0.724062E-04
      0.475000          0.716405E-04
      0.480000          0.709476E-04
      0.485000          0.703125E-04
      0.490000          0.697228E-04
      0.495000          0.691682E-04
      0.500000          0.686410E-04
