 I_abs(s)[cm^-1]/c[mg/ml]
       0.00000          0.145793E-01
      0.500000E-02      0.145427E-01
      0.100000E-01      0.144335E-01
      0.150000E-01      0.142533E-01
      0.200000E-01      0.140048E-01
      0.250000E-01      0.136916E-01
      0.300000E-01      0.133183E-01
      0.350000E-01      0.128901E-01
      0.400000E-01      0.124131E-01
      0.450000E-01      0.118937E-01
      0.500000E-01      0.113389E-01
      0.550000E-01      0.107556E-01
      0.600000E-01      0.101511E-01
      0.650000E-01      0.953242E-02
      0.700000E-01      0.890650E-02
      0.750000E-01      0.827989E-02
      0.800000E-01      0.765874E-02
      0.850000E-01      0.704865E-02
      0.900000E-01      0.645466E-02
      0.950000E-01      0.588114E-02
      0.100000          0.533181E-02
      0.105000          0.480969E-02
      0.110000          0.431714E-02
      0.115000          0.385583E-02
      0.120000          0.342683E-02
      0.125000          0.303064E-02
      0.130000          0.266722E-02
      0.135000          0.233609E-02
      0.140000          0.203638E-02
      0.145000          0.176689E-02
      0.150000          0.152615E-02
      0.155000          0.131253E-02
      0.160000          0.112423E-02
      0.165000          0.959388E-03
      0.170000          0.816108E-03
      0.175000          0.692492E-03
      0.180000          0.586683E-03
      0.185000          0.496889E-03
      0.190000          0.421403E-03
      0.195000          0.358616E-03
      0.200000          0.307025E-03
      0.205000          0.265238E-03
      0.210000          0.231978E-03
      0.215000          0.206075E-03
      0.220000          0.186465E-03
      0.225000          0.172188E-03
      0.230000          0.162376E-03
      0.235000          0.156250E-03
      0.240000          0.153115E-03
      0.245000          0.152351E-03
      0.250000          0.153408E-03
      0.255000          0.155804E-03
      0.260000          0.159116E-03
      0.265000          0.162978E-03
      0.270000          0.167078E-03
      0.275000          0.171153E-03
      0.280000          0.174987E-03
      0.285000          0.178403E-03
      0.290000          0.181267E-03
      0.295000          0.183478E-03
      0.300000          0.184968E-03
      0.305000          0.185698E-03
      0.310000          0.185654E-03
      0.315000          0.184843E-03
      0.320000          0.183289E-03
      0.325000          0.181033E-03
      0.330000          0.178127E-03
      0.335000          0.174631E-03
      0.340000          0.170612E-03
      0.345000          0.166140E-03
      0.350000          0.161290E-03
      0.355000          0.156133E-03
      0.360000          0.150743E-03
      0.365000          0.145190E-03
      0.370000          0.139541E-03
      0.375000          0.133860E-03
      0.380000          0.128206E-03
      0.385000          0.122636E-03
      0.390000          0.117199E-03
      0.395000          0.111940E-03
      0.400000          0.106900E-03
      0.405000          0.102112E-03
      0.410000          0.976064E-04
      0.415000          0.934052E-04
      0.420000          0.895260E-04
      0.425000          0.859799E-04
      0.430000          0.827725E-04
      0.435000          0.799035E-04
      0.440000          0.773672E-04
      0.445000          0.751526E-04
      0.450000          0.732442E-04
      0.455000          0.716221E-04
      0.460000          0.702629E-04
      0.465000          0.691403E-04
      0.470000          0.682260E-04
      0.475000          0.674905E-04
      0.480000          0.669038E-04
      0.485000          0.664365E-04
      0.490000          0.660602E-04
      0.495000          0.657488E-04
      0.500000          0.654786E-04
