 I_abs(s)[cm^-1]/c[mg/ml]
       0.00000          0.144130E-01
      0.500000E-02      0.143768E-01
      0.100000E-01      0.142686E-01
      0.150000E-01      0.140901E-01
      0.200000E-01      0.138440E-01
      0.250000E-01      0.135337E-01
      0.300000E-01      0.131638E-01
      0.350000E-01      0.127396E-01
      0.400000E-01      0.122669E-01
      0.450000E-01      0.117523E-01
      0.500000E-01      0.112024E-01
      0.550000E-01      0.106244E-01
      0.600000E-01      0.100255E-01
      0.650000E-01      0.941258E-02
      0.700000E-01      0.879269E-02
      0.750000E-01      0.817237E-02
      0.800000E-01      0.755779E-02
      0.850000E-01      0.695459E-02
      0.900000E-01      0.636785E-02
      0.950000E-01      0.580199E-02
      0.100000          0.526075E-02
      0.105000          0.474719E-02
      0.110000          0.426364E-02
      0.115000          0.381180E-02
      0.120000          0.339270E-02
      0.125000          0.300677E-02
      0.130000          0.265390E-02
      0.135000          0.233351E-02
      0.140000          0.204458E-02
      0.145000          0.178577E-02
      0.150000          0.155546E-02
      0.155000          0.135183E-02
      0.160000          0.117291E-02
      0.165000          0.101666E-02
      0.170000          0.881017E-03
      0.175000          0.763922E-03
      0.180000          0.663391E-03
      0.185000          0.577523E-03
      0.190000          0.504536E-03
      0.195000          0.442774E-03
      0.200000          0.390727E-03
      0.205000          0.347031E-03
      0.210000          0.310467E-03
      0.215000          0.279959E-03
      0.220000          0.254568E-03
      0.225000          0.233479E-03
      0.230000          0.215993E-03
      0.235000          0.201515E-03
      0.240000          0.189541E-03
      0.245000          0.179647E-03
      0.250000          0.171476E-03
      0.255000          0.164732E-03
      0.260000          0.159167E-03
      0.265000          0.154574E-03
      0.270000          0.150781E-03
      0.275000          0.147643E-03
      0.280000          0.145040E-03
      0.285000          0.142869E-03
      0.290000          0.141044E-03
      0.295000          0.139493E-03
      0.300000          0.138154E-03
      0.305000          0.136975E-03
      0.310000          0.135912E-03
      0.315000          0.134927E-03
      0.320000          0.133988E-03
      0.325000          0.133066E-03
      0.330000          0.132140E-03
      0.335000          0.131189E-03
      0.340000          0.130197E-03
      0.345000          0.129148E-03
      0.350000          0.128030E-03
      0.355000          0.126833E-03
      0.360000          0.125548E-03
      0.365000          0.124167E-03
      0.370000          0.122686E-03
      0.375000          0.121098E-03
      0.380000          0.119404E-03
      0.385000          0.117601E-03
      0.390000          0.115690E-03
      0.395000          0.113676E-03
      0.400000          0.111562E-03
      0.405000          0.109355E-03
      0.410000          0.107064E-03
      0.415000          0.104700E-03
      0.420000          0.102274E-03
      0.425000          0.997995E-04
      0.430000          0.972902E-04
      0.435000          0.947614E-04
      0.440000          0.922283E-04
      0.445000          0.897066E-04
      0.450000          0.872116E-04
      0.455000          0.847579E-04
      0.460000          0.823598E-04
      0.465000          0.800303E-04
      0.470000          0.777813E-04
      0.475000          0.756233E-04
      0.480000          0.735655E-04
      0.485000          0.716157E-04
      0.490000          0.697799E-04
      0.495000          0.680631E-04
      0.500000          0.664687E-04
