 I_abs(s)[cm^-1]/c[mg/ml]
       0.00000          0.144842E-01
      0.500000E-02      0.144498E-01
      0.100000E-01      0.143470E-01
      0.150000E-01      0.141774E-01
      0.200000E-01      0.139430E-01
      0.250000E-01      0.136471E-01
      0.300000E-01      0.132935E-01
      0.350000E-01      0.128868E-01
      0.400000E-01      0.124323E-01
      0.450000E-01      0.119355E-01
      0.500000E-01      0.114027E-01
      0.550000E-01      0.108400E-01
      0.600000E-01      0.102541E-01
      0.650000E-01      0.965150E-02
      0.700000E-01      0.903853E-02
      0.750000E-01      0.842148E-02
      0.800000E-01      0.780632E-02
      0.850000E-01      0.719861E-02
      0.900000E-01      0.660348E-02
      0.950000E-01      0.602552E-02
      0.100000          0.546878E-02
      0.105000          0.493671E-02
      0.110000          0.443214E-02
      0.115000          0.395729E-02
      0.120000          0.351379E-02
      0.125000          0.310268E-02
      0.130000          0.272444E-02
      0.135000          0.237908E-02
      0.140000          0.206612E-02
      0.145000          0.178471E-02
      0.150000          0.153363E-02
      0.155000          0.131142E-02
      0.160000          0.111636E-02
      0.165000          0.946576E-03
      0.170000          0.800100E-03
      0.175000          0.674891E-03
      0.180000          0.568901E-03
      0.185000          0.480110E-03
      0.190000          0.406556E-03
      0.195000          0.346371E-03
      0.200000          0.297793E-03
      0.205000          0.259191E-03
      0.210000          0.229067E-03
      0.215000          0.206067E-03
      0.220000          0.188980E-03
      0.225000          0.176735E-03
      0.230000          0.168393E-03
      0.235000          0.163146E-03
      0.240000          0.160299E-03
      0.245000          0.159264E-03
      0.250000          0.159549E-03
      0.255000          0.160746E-03
      0.260000          0.162517E-03
      0.265000          0.164591E-03
      0.270000          0.166749E-03
      0.275000          0.168815E-03
      0.280000          0.170654E-03
      0.285000          0.172163E-03
      0.290000          0.173264E-03
      0.295000          0.173902E-03
      0.300000          0.174042E-03
      0.305000          0.173664E-03
      0.310000          0.172763E-03
      0.315000          0.171345E-03
      0.320000          0.169426E-03
      0.325000          0.167033E-03
      0.330000          0.164197E-03
      0.335000          0.160960E-03
      0.340000          0.157365E-03
      0.345000          0.153461E-03
      0.350000          0.149299E-03
      0.355000          0.144932E-03
      0.360000          0.140413E-03
      0.365000          0.135792E-03
      0.370000          0.131120E-03
      0.375000          0.126443E-03
      0.380000          0.121804E-03
      0.385000          0.117241E-03
      0.390000          0.112787E-03
      0.395000          0.108471E-03
      0.400000          0.104315E-03
      0.405000          0.100338E-03
      0.410000          0.965531E-04
      0.415000          0.929682E-04
      0.420000          0.895886E-04
      0.425000          0.864155E-04
      0.430000          0.834477E-04
      0.435000          0.806818E-04
      0.440000          0.781128E-04
      0.445000          0.757347E-04
      0.450000          0.735411E-04
      0.455000          0.715254E-04
      0.460000          0.696811E-04
      0.465000          0.680023E-04
      0.470000          0.664836E-04
      0.475000          0.651200E-04
      0.480000          0.639071E-04
      0.485000          0.628408E-04
      0.490000          0.619173E-04
      0.495000          0.611328E-04
      0.500000          0.604834E-04
