 I_abs(s)[cm^-1]/c[mg/ml]
       0.00000          0.145714E-01
      0.500000E-02      0.145370E-01
      0.100000E-01      0.144342E-01
      0.150000E-01      0.142645E-01
      0.200000E-01      0.140301E-01
      0.250000E-01      0.137340E-01
      0.300000E-01      0.133802E-01
      0.350000E-01      0.129732E-01
      0.400000E-01      0.125182E-01
      0.450000E-01      0.120209E-01
      0.500000E-01      0.114872E-01
      0.550000E-01      0.109236E-01
      0.600000E-01      0.103365E-01
      0.650000E-01      0.973250E-02
      0.700000E-01      0.911801E-02
      0.750000E-01      0.849933E-02
      0.800000E-01      0.788245E-02
      0.850000E-01      0.727300E-02
      0.900000E-01      0.667615E-02
      0.950000E-01      0.609658E-02
      0.100000          0.553838E-02
      0.105000          0.500507E-02
      0.110000          0.449954E-02
      0.115000          0.402405E-02
      0.120000          0.358027E-02
      0.125000          0.316925E-02
      0.130000          0.279148E-02
      0.135000          0.244695E-02
      0.140000          0.213516E-02
      0.145000          0.185519E-02
      0.150000          0.160577E-02
      0.155000          0.138532E-02
      0.160000          0.119205E-02
      0.165000          0.102396E-02
      0.170000          0.878967E-03
      0.175000          0.754911E-03
      0.180000          0.649625E-03
      0.185000          0.560975E-03
      0.190000          0.486900E-03
      0.195000          0.425441E-03
      0.200000          0.374768E-03
      0.205000          0.333199E-03
      0.210000          0.299211E-03
      0.215000          0.271446E-03
      0.220000          0.248716E-03
      0.225000          0.229994E-03
      0.230000          0.214415E-03
      0.235000          0.201258E-03
      0.240000          0.189939E-03
      0.245000          0.179996E-03
      0.250000          0.171072E-03
      0.255000          0.162904E-03
      0.260000          0.155305E-03
      0.265000          0.148149E-03
      0.270000          0.141361E-03
      0.275000          0.134905E-03
      0.280000          0.128769E-03
      0.285000          0.122960E-03
      0.290000          0.117495E-03
      0.295000          0.112397E-03
      0.300000          0.107688E-03
      0.305000          0.103386E-03
      0.310000          0.995036E-04
      0.315000          0.960476E-04
      0.320000          0.930170E-04
      0.325000          0.904036E-04
      0.330000          0.881930E-04
      0.335000          0.863653E-04
      0.340000          0.848958E-04
      0.345000          0.837567E-04
      0.350000          0.829176E-04
      0.355000          0.823469E-04
      0.360000          0.820122E-04
      0.365000          0.818816E-04
      0.370000          0.819238E-04
      0.375000          0.821085E-04
      0.380000          0.824070E-04
      0.385000          0.827921E-04
      0.390000          0.832380E-04
      0.395000          0.837210E-04
      0.400000          0.842186E-04
      0.405000          0.847103E-04
      0.410000          0.851768E-04
      0.415000          0.856009E-04
      0.420000          0.859666E-04
      0.425000          0.862597E-04
      0.430000          0.864679E-04
      0.435000          0.865805E-04
      0.440000          0.865889E-04
      0.445000          0.864866E-04
      0.450000          0.862691E-04
      0.455000          0.859343E-04
      0.460000          0.854823E-04
      0.465000          0.849155E-04
      0.470000          0.842385E-04
      0.475000          0.834582E-04
      0.480000          0.825836E-04
      0.485000          0.816256E-04
      0.490000          0.805965E-04
      0.495000          0.795104E-04
      0.500000          0.783824E-04
