 I_abs(s)[cm^-1]/c[mg/ml]
       0.00000          0.146827E-01
      0.500000E-02      0.146477E-01
      0.100000E-01      0.145431E-01
      0.150000E-01      0.143702E-01
      0.200000E-01      0.141315E-01
      0.250000E-01      0.138299E-01
      0.300000E-01      0.134696E-01
      0.350000E-01      0.130550E-01
      0.400000E-01      0.125915E-01
      0.450000E-01      0.120847E-01
      0.500000E-01      0.115410E-01
      0.550000E-01      0.109666E-01
      0.600000E-01      0.103684E-01
      0.650000E-01      0.975278E-02
      0.700000E-01      0.912651E-02
      0.750000E-01      0.849597E-02
      0.800000E-01      0.786729E-02
      0.850000E-01      0.724624E-02
      0.900000E-01      0.663815E-02
      0.950000E-01      0.604781E-02
      0.100000          0.547945E-02
      0.105000          0.493671E-02
      0.110000          0.442258E-02
      0.115000          0.393942E-02
      0.120000          0.348898E-02
      0.125000          0.307237E-02
      0.130000          0.269015E-02
      0.135000          0.234230E-02
      0.140000          0.202835E-02
      0.145000          0.174736E-02
      0.150000          0.149805E-02
      0.155000          0.127879E-02
      0.160000          0.108771E-02
      0.165000          0.922768E-03
      0.170000          0.781774E-03
      0.175000          0.662475E-03
      0.180000          0.562602E-03
      0.185000          0.479911E-03
      0.190000          0.412227E-03
      0.195000          0.357479E-03
      0.200000          0.313728E-03
      0.205000          0.279185E-03
      0.210000          0.252226E-03
      0.215000          0.231404E-03
      0.220000          0.215447E-03
      0.225000          0.203257E-03
      0.230000          0.193908E-03
      0.235000          0.186632E-03
      0.240000          0.180806E-03
      0.245000          0.175942E-03
      0.250000          0.171668E-03
      0.255000          0.167715E-03
      0.260000          0.163898E-03
      0.265000          0.160101E-03
      0.270000          0.156266E-03
      0.275000          0.152374E-03
      0.280000          0.148438E-03
      0.285000          0.144489E-03
      0.290000          0.140572E-03
      0.295000          0.136731E-03
      0.300000          0.133015E-03
      0.305000          0.129461E-03
      0.310000          0.126104E-03
      0.315000          0.122966E-03
      0.320000          0.120061E-03
      0.325000          0.117391E-03
      0.330000          0.114953E-03
      0.335000          0.112734E-03
      0.340000          0.110715E-03
      0.345000          0.108876E-03
      0.350000          0.107192E-03
      0.355000          0.105637E-03
      0.360000          0.104187E-03
      0.365000          0.102818E-03
      0.370000          0.101511E-03
      0.375000          0.100247E-03
      0.380000          0.990124E-04
      0.385000          0.977978E-04
      0.390000          0.965962E-04
      0.395000          0.954045E-04
      0.400000          0.942221E-04
      0.405000          0.930511E-04
      0.410000          0.918953E-04
      0.415000          0.907596E-04
      0.420000          0.896497E-04
      0.425000          0.885714E-04
      0.430000          0.875298E-04
      0.435000          0.865295E-04
      0.440000          0.855739E-04
      0.445000          0.846649E-04
      0.450000          0.838032E-04
      0.455000          0.829879E-04
      0.460000          0.822165E-04
      0.465000          0.814855E-04
      0.470000          0.807902E-04
      0.475000          0.801251E-04
      0.480000          0.794843E-04
      0.485000          0.788616E-04
      0.490000          0.782508E-04
      0.495000          0.776465E-04
      0.500000          0.770436E-04
