 I_abs(s)[cm^-1]/c[mg/ml]
       0.00000          0.146111E-01
      0.500000E-02      0.145741E-01
      0.100000E-01      0.144635E-01
      0.150000E-01      0.142811E-01
      0.200000E-01      0.140295E-01
      0.250000E-01      0.137122E-01
      0.300000E-01      0.133339E-01
      0.350000E-01      0.128999E-01
      0.400000E-01      0.124162E-01
      0.450000E-01      0.118892E-01
      0.500000E-01      0.113259E-01
      0.550000E-01      0.107335E-01
      0.600000E-01      0.101192E-01
      0.650000E-01      0.949027E-02
      0.700000E-01      0.885375E-02
      0.750000E-01      0.821637E-02
      0.800000E-01      0.758448E-02
      0.850000E-01      0.696392E-02
      0.900000E-01      0.635993E-02
      0.950000E-01      0.577713E-02
      0.100000          0.521944E-02
      0.105000          0.469012E-02
      0.110000          0.419168E-02
      0.115000          0.372598E-02
      0.120000          0.329422E-02
      0.125000          0.289697E-02
      0.130000          0.253425E-02
      0.135000          0.220557E-02
      0.140000          0.191000E-02
      0.145000          0.164627E-02
      0.150000          0.141276E-02
      0.155000          0.120768E-02
      0.160000          0.102901E-02
      0.165000          0.874677E-03
      0.170000          0.742520E-03
      0.175000          0.630391E-03
      0.180000          0.536174E-03
      0.185000          0.457824E-03
      0.190000          0.393393E-03
      0.195000          0.341055E-03
      0.200000          0.299112E-03
      0.205000          0.266009E-03
      0.210000          0.240336E-03
      0.215000          0.220828E-03
      0.220000          0.206360E-03
      0.225000          0.195943E-03
      0.230000          0.188715E-03
      0.235000          0.183935E-03
      0.240000          0.180967E-03
      0.245000          0.179277E-03
      0.250000          0.178419E-03
      0.255000          0.178028E-03
      0.260000          0.177809E-03
      0.265000          0.177531E-03
      0.270000          0.177015E-03
      0.275000          0.176134E-03
      0.280000          0.174801E-03
      0.285000          0.172965E-03
      0.290000          0.170606E-03
      0.295000          0.167729E-03
      0.300000          0.164361E-03
      0.305000          0.160547E-03
      0.310000          0.156343E-03
      0.315000          0.151817E-03
      0.320000          0.147042E-03
      0.325000          0.142095E-03
      0.330000          0.137054E-03
      0.335000          0.131994E-03
      0.340000          0.126987E-03
      0.345000          0.122100E-03
      0.350000          0.117391E-03
      0.355000          0.112912E-03
      0.360000          0.108704E-03
      0.365000          0.104800E-03
      0.370000          0.101223E-03
      0.375000          0.979883E-04
      0.380000          0.951006E-04
      0.385000          0.925575E-04
      0.390000          0.903493E-04
      0.395000          0.884600E-04
      0.400000          0.868687E-04
      0.405000          0.855503E-04
      0.410000          0.844769E-04
      0.415000          0.836189E-04
      0.420000          0.829460E-04
      0.425000          0.824281E-04
      0.430000          0.820362E-04
      0.435000          0.817431E-04
      0.440000          0.815239E-04
      0.445000          0.813568E-04
      0.450000          0.812230E-04
      0.455000          0.811069E-04
      0.460000          0.809965E-04
      0.465000          0.808829E-04
      0.470000          0.807602E-04
      0.475000          0.806257E-04
      0.480000          0.804786E-04
      0.485000          0.803205E-04
      0.490000          0.801545E-04
      0.495000          0.799847E-04
      0.500000          0.798160E-04
