 I_abs(s)[cm^-1]/c[mg/ml]
       0.00000          0.145952E-01
      0.500000E-02      0.145585E-01
      0.100000E-01      0.144489E-01
      0.150000E-01      0.142681E-01
      0.200000E-01      0.140187E-01
      0.250000E-01      0.137044E-01
      0.300000E-01      0.133295E-01
      0.350000E-01      0.128995E-01
      0.400000E-01      0.124202E-01
      0.450000E-01      0.118982E-01
      0.500000E-01      0.113402E-01
      0.550000E-01      0.107534E-01
      0.600000E-01      0.101449E-01
      0.650000E-01      0.952191E-02
      0.700000E-01      0.889132E-02
      0.750000E-01      0.825979E-02
      0.800000E-01      0.763354E-02
      0.850000E-01      0.701828E-02
      0.900000E-01      0.641916E-02
      0.950000E-01      0.584067E-02
      0.100000          0.528666E-02
      0.105000          0.476028E-02
      0.110000          0.426398E-02
      0.115000          0.379957E-02
      0.120000          0.336820E-02
      0.125000          0.297044E-02
      0.130000          0.260632E-02
      0.135000          0.227539E-02
      0.140000          0.197677E-02
      0.145000          0.170925E-02
      0.150000          0.147133E-02
      0.155000          0.126129E-02
      0.160000          0.107727E-02
      0.165000          0.917278E-03
      0.170000          0.779306E-03
      0.175000          0.661324E-03
      0.180000          0.561340E-03
      0.185000          0.477421E-03
      0.190000          0.407724E-03
      0.195000          0.350509E-03
      0.200000          0.304152E-03
      0.205000          0.267155E-03
      0.210000          0.238147E-03
      0.215000          0.215885E-03
      0.220000          0.199253E-03
      0.225000          0.187251E-03
      0.230000          0.178999E-03
      0.235000          0.173720E-03
      0.240000          0.170742E-03
      0.245000          0.169482E-03
      0.250000          0.169444E-03
      0.255000          0.170210E-03
      0.260000          0.171432E-03
      0.265000          0.172827E-03
      0.270000          0.174170E-03
      0.275000          0.175286E-03
      0.280000          0.176045E-03
      0.285000          0.176359E-03
      0.290000          0.176171E-03
      0.295000          0.175457E-03
      0.300000          0.174212E-03
      0.305000          0.172455E-03
      0.310000          0.170217E-03
      0.315000          0.167540E-03
      0.320000          0.164475E-03
      0.325000          0.161076E-03
      0.330000          0.157399E-03
      0.335000          0.153499E-03
      0.340000          0.149430E-03
      0.345000          0.145242E-03
      0.350000          0.140982E-03
      0.355000          0.136691E-03
      0.360000          0.132408E-03
      0.365000          0.128167E-03
      0.370000          0.123999E-03
      0.375000          0.119929E-03
      0.380000          0.115984E-03
      0.385000          0.112185E-03
      0.390000          0.108553E-03
      0.395000          0.105107E-03
      0.400000          0.101863E-03
      0.405000          0.988371E-04
      0.410000          0.960417E-04
      0.415000          0.934878E-04
      0.420000          0.911830E-04
      0.425000          0.891320E-04
      0.430000          0.873357E-04
      0.435000          0.857909E-04
      0.440000          0.844906E-04
      0.445000          0.834230E-04
      0.450000          0.825725E-04
      0.455000          0.819195E-04
      0.460000          0.814407E-04
      0.465000          0.811104E-04
      0.470000          0.809004E-04
      0.475000          0.807813E-04
      0.480000          0.807237E-04
      0.485000          0.806983E-04
      0.490000          0.806778E-04
      0.495000          0.806369E-04
      0.500000          0.805536E-04
