 I_abs(s)[cm^-1]/c[mg/ml]
       0.00000          0.145714E-01
      0.500000E-02      0.145333E-01
      0.100000E-01      0.144196E-01
      0.150000E-01      0.142320E-01
      0.200000E-01      0.139733E-01
      0.250000E-01      0.136473E-01
      0.300000E-01      0.132588E-01
      0.350000E-01      0.128133E-01
      0.400000E-01      0.123171E-01
      0.450000E-01      0.117771E-01
      0.500000E-01      0.112005E-01
      0.550000E-01      0.105949E-01
      0.600000E-01      0.996770E-02
      0.650000E-01      0.932659E-02
      0.700000E-01      0.867888E-02
      0.750000E-01      0.803161E-02
      0.800000E-01      0.739134E-02
      0.850000E-01      0.676412E-02
      0.900000E-01      0.615534E-02
      0.950000E-01      0.556972E-02
      0.100000          0.501126E-02
      0.105000          0.448319E-02
      0.110000          0.398800E-02
      0.115000          0.352746E-02
      0.120000          0.310261E-02
      0.125000          0.271386E-02
      0.130000          0.236101E-02
      0.135000          0.204336E-02
      0.140000          0.175973E-02
      0.145000          0.150856E-02
      0.150000          0.128800E-02
      0.155000          0.109597E-02
      0.160000          0.930244E-03
      0.165000          0.788498E-03
      0.170000          0.668383E-03
      0.175000          0.567575E-03
      0.180000          0.483821E-03
      0.185000          0.414971E-03
      0.190000          0.359006E-03
      0.195000          0.314064E-03
      0.200000          0.278443E-03
      0.205000          0.250615E-03
      0.210000          0.229221E-03
      0.215000          0.213073E-03
      0.220000          0.201137E-03
      0.225000          0.192530E-03
      0.230000          0.186506E-03
      0.235000          0.182440E-03
      0.240000          0.179815E-03
      0.245000          0.178210E-03
      0.250000          0.177286E-03
      0.255000          0.176771E-03
      0.260000          0.176456E-03
      0.265000          0.176178E-03
      0.270000          0.175817E-03
      0.275000          0.175284E-03
      0.280000          0.174521E-03
      0.285000          0.173491E-03
      0.290000          0.172177E-03
      0.295000          0.170576E-03
      0.300000          0.168699E-03
      0.305000          0.166566E-03
      0.310000          0.164204E-03
      0.315000          0.161649E-03
      0.320000          0.158937E-03
      0.325000          0.156111E-03
      0.330000          0.153210E-03
      0.335000          0.150275E-03
      0.340000          0.147347E-03
      0.345000          0.144459E-03
      0.350000          0.141645E-03
      0.355000          0.138932E-03
      0.360000          0.136340E-03
      0.365000          0.133886E-03
      0.370000          0.131580E-03
      0.375000          0.129427E-03
      0.380000          0.127426E-03
      0.385000          0.125570E-03
      0.390000          0.123850E-03
      0.395000          0.122252E-03
      0.400000          0.120759E-03
      0.405000          0.119353E-03
      0.410000          0.118013E-03
      0.415000          0.116719E-03
      0.420000          0.115451E-03
      0.425000          0.114190E-03
      0.430000          0.112918E-03
      0.435000          0.111620E-03
      0.440000          0.110282E-03
      0.445000          0.108894E-03
      0.450000          0.107449E-03
      0.455000          0.105940E-03
      0.460000          0.104366E-03
      0.465000          0.102727E-03
      0.470000          0.101027E-03
      0.475000          0.992704E-04
      0.480000          0.974659E-04
      0.485000          0.956224E-04
      0.490000          0.937511E-04
      0.495000          0.918640E-04
      0.500000          0.899742E-04
