 I_abs(s)[cm^-1]/c[mg/ml]
       0.00000          0.144446E-01
      0.500000E-02      0.144085E-01
      0.100000E-01      0.143007E-01
      0.150000E-01      0.141228E-01
      0.200000E-01      0.138773E-01
      0.250000E-01      0.135677E-01
      0.300000E-01      0.131982E-01
      0.350000E-01      0.127741E-01
      0.400000E-01      0.123011E-01
      0.450000E-01      0.117855E-01
      0.500000E-01      0.112340E-01
      0.550000E-01      0.106534E-01
      0.600000E-01      0.100510E-01
      0.650000E-01      0.943377E-02
      0.700000E-01      0.880862E-02
      0.750000E-01      0.818221E-02
      0.800000E-01      0.756085E-02
      0.850000E-01      0.695034E-02
      0.900000E-01      0.635595E-02
      0.950000E-01      0.578231E-02
      0.100000          0.523341E-02
      0.105000          0.471254E-02
      0.110000          0.422229E-02
      0.115000          0.376455E-02
      0.120000          0.334055E-02
      0.125000          0.295088E-02
      0.130000          0.259555E-02
      0.135000          0.227401E-02
      0.140000          0.198530E-02
      0.145000          0.172801E-02
      0.150000          0.150044E-02
      0.155000          0.130063E-02
      0.160000          0.112646E-02
      0.165000          0.975679E-03
      0.170000          0.845994E-03
      0.175000          0.735127E-03
      0.180000          0.640856E-03
      0.185000          0.561057E-03
      0.190000          0.493738E-03
      0.195000          0.437065E-03
      0.200000          0.389376E-03
      0.205000          0.349194E-03
      0.210000          0.315224E-03
      0.215000          0.286356E-03
      0.220000          0.261654E-03
      0.225000          0.240343E-03
      0.230000          0.221796E-03
      0.235000          0.205515E-03
      0.240000          0.191116E-03
      0.245000          0.178308E-03
      0.250000          0.166874E-03
      0.255000          0.156660E-03
      0.260000          0.147554E-03
      0.265000          0.139476E-03
      0.270000          0.132363E-03
      0.275000          0.126165E-03
      0.280000          0.120835E-03
      0.285000          0.116322E-03
      0.290000          0.112572E-03
      0.295000          0.109525E-03
      0.300000          0.107112E-03
      0.305000          0.105259E-03
      0.310000          0.103889E-03
      0.315000          0.102920E-03
      0.320000          0.102273E-03
      0.325000          0.101869E-03
      0.330000          0.101635E-03
      0.335000          0.101505E-03
      0.340000          0.101420E-03
      0.345000          0.101332E-03
      0.350000          0.101202E-03
      0.355000          0.101003E-03
      0.360000          0.100715E-03
      0.365000          0.100329E-03
      0.370000          0.998456E-04
      0.375000          0.992705E-04
      0.380000          0.986158E-04
      0.385000          0.978975E-04
      0.390000          0.971344E-04
      0.395000          0.963462E-04
      0.400000          0.955522E-04
      0.405000          0.947706E-04
      0.410000          0.940168E-04
      0.415000          0.933031E-04
      0.420000          0.926379E-04
      0.425000          0.920256E-04
      0.430000          0.914665E-04
      0.435000          0.909567E-04
      0.440000          0.904886E-04
      0.445000          0.900513E-04
      0.450000          0.896313E-04
      0.455000          0.892130E-04
      0.460000          0.887796E-04
      0.465000          0.883136E-04
      0.470000          0.877978E-04
      0.475000          0.872158E-04
      0.480000          0.865530E-04
      0.485000          0.857965E-04
      0.490000          0.849364E-04
      0.495000          0.839654E-04
      0.500000          0.828796E-04
