 I_abs(s)[cm^-1]/c[mg/ml]
       0.00000          0.146748E-01
      0.500000E-02      0.146380E-01
      0.100000E-01      0.145284E-01
      0.150000E-01      0.143475E-01
      0.200000E-01      0.140980E-01
      0.250000E-01      0.137836E-01
      0.300000E-01      0.134090E-01
      0.350000E-01      0.129793E-01
      0.400000E-01      0.125008E-01
      0.450000E-01      0.119798E-01
      0.500000E-01      0.114234E-01
      0.550000E-01      0.108387E-01
      0.600000E-01      0.102329E-01
      0.650000E-01      0.961319E-02
      0.700000E-01      0.898641E-02
      0.750000E-01      0.835922E-02
      0.800000E-01      0.773776E-02
      0.850000E-01      0.712766E-02
      0.900000E-01      0.653394E-02
      0.950000E-01      0.596096E-02
      0.100000          0.541240E-02
      0.105000          0.489123E-02
      0.110000          0.439974E-02
      0.115000          0.393954E-02
      0.120000          0.351161E-02
      0.125000          0.311637E-02
      0.130000          0.275369E-02
      0.135000          0.242300E-02
      0.140000          0.212335E-02
      0.145000          0.185346E-02
      0.150000          0.161182E-02
      0.155000          0.139672E-02
      0.160000          0.120636E-02
      0.165000          0.103885E-02
      0.170000          0.892292E-03
      0.175000          0.764822E-03
      0.180000          0.654622E-03
      0.185000          0.559956E-03
      0.190000          0.479188E-03
      0.195000          0.410790E-03
      0.200000          0.353348E-03
      0.205000          0.305564E-03
      0.210000          0.266251E-03
      0.215000          0.234331E-03
      0.220000          0.208823E-03
      0.225000          0.188841E-03
      0.230000          0.173579E-03
      0.235000          0.162310E-03
      0.240000          0.154374E-03
      0.245000          0.149174E-03
      0.250000          0.146170E-03
      0.255000          0.144877E-03
      0.260000          0.144859E-03
      0.265000          0.145731E-03
      0.270000          0.147154E-03
      0.275000          0.148835E-03
      0.280000          0.150526E-03
      0.285000          0.152024E-03
      0.290000          0.153168E-03
      0.295000          0.153837E-03
      0.300000          0.153949E-03
      0.305000          0.153457E-03
      0.310000          0.152344E-03
      0.315000          0.150625E-03
      0.320000          0.148333E-03
      0.325000          0.145524E-03
      0.330000          0.142266E-03
      0.335000          0.138638E-03
      0.340000          0.134724E-03
      0.345000          0.130609E-03
      0.350000          0.126377E-03
      0.355000          0.122105E-03
      0.360000          0.117865E-03
      0.365000          0.113719E-03
      0.370000          0.109720E-03
      0.375000          0.105909E-03
      0.380000          0.102318E-03
      0.385000          0.989667E-04
      0.390000          0.958688E-04
      0.395000          0.930278E-04
      0.400000          0.904411E-04
      0.405000          0.881004E-04
      0.410000          0.859933E-04
      0.415000          0.841042E-04
      0.420000          0.824161E-04
      0.425000          0.809108E-04
      0.430000          0.795702E-04
      0.435000          0.783765E-04
      0.440000          0.773131E-04
      0.445000          0.763642E-04
      0.450000          0.755156E-04
      0.455000          0.747541E-04
      0.460000          0.740677E-04
      0.465000          0.734455E-04
      0.470000          0.728774E-04
      0.475000          0.723539E-04
      0.480000          0.718664E-04
      0.485000          0.714067E-04
      0.490000          0.709670E-04
      0.495000          0.705403E-04
      0.500000          0.701202E-04
