 I_abs(s)[cm^-1]/c[mg/ml]
       0.00000          0.145476E-01
      0.500000E-02      0.145117E-01
      0.100000E-01      0.144047E-01
      0.150000E-01      0.142281E-01
      0.200000E-01      0.139843E-01
      0.250000E-01      0.136767E-01
      0.300000E-01      0.133097E-01
      0.350000E-01      0.128882E-01
      0.400000E-01      0.124179E-01
      0.450000E-01      0.119049E-01
      0.500000E-01      0.113558E-01
      0.550000E-01      0.107775E-01
      0.600000E-01      0.101767E-01
      0.650000E-01      0.956050E-02
      0.700000E-01      0.893563E-02
      0.750000E-01      0.830862E-02
      0.800000E-01      0.768564E-02
      0.850000E-01      0.707238E-02
      0.900000E-01      0.647403E-02
      0.950000E-01      0.589518E-02
      0.100000          0.533979E-02
      0.105000          0.481116E-02
      0.110000          0.431192E-02
      0.115000          0.384405E-02
      0.120000          0.340890E-02
      0.125000          0.300720E-02
      0.130000          0.263915E-02
      0.135000          0.230442E-02
      0.140000          0.200228E-02
      0.145000          0.173157E-02
      0.150000          0.149086E-02
      0.155000          0.127846E-02
      0.160000          0.109249E-02
      0.165000          0.930964E-03
      0.170000          0.791812E-03
      0.175000          0.672952E-03
      0.180000          0.572327E-03
      0.185000          0.487936E-03
      0.190000          0.417871E-03
      0.195000          0.360331E-03
      0.200000          0.313643E-03
      0.205000          0.276270E-03
      0.210000          0.246818E-03
      0.215000          0.224031E-03
      0.220000          0.206793E-03
      0.225000          0.194121E-03
      0.230000          0.185154E-03
      0.235000          0.179144E-03
      0.240000          0.175450E-03
      0.245000          0.173520E-03
      0.250000          0.172889E-03
      0.255000          0.173162E-03
      0.260000          0.174010E-03
      0.265000          0.175157E-03
      0.270000          0.176379E-03
      0.275000          0.177494E-03
      0.280000          0.178356E-03
      0.285000          0.178853E-03
      0.290000          0.178903E-03
      0.295000          0.178448E-03
      0.300000          0.177454E-03
      0.305000          0.175908E-03
      0.310000          0.173814E-03
      0.315000          0.171193E-03
      0.320000          0.168076E-03
      0.325000          0.164510E-03
      0.330000          0.160547E-03
      0.335000          0.156246E-03
      0.340000          0.151672E-03
      0.345000          0.146891E-03
      0.350000          0.141967E-03
      0.355000          0.136967E-03
      0.360000          0.131950E-03
      0.365000          0.126973E-03
      0.370000          0.122086E-03
      0.375000          0.117333E-03
      0.380000          0.112750E-03
      0.385000          0.108366E-03
      0.390000          0.104202E-03
      0.395000          0.100275E-03
      0.400000          0.965909E-04
      0.405000          0.931525E-04
      0.410000          0.899568E-04
      0.415000          0.869963E-04
      0.420000          0.842599E-04
      0.425000          0.817342E-04
      0.430000          0.794038E-04
      0.435000          0.772525E-04
      0.440000          0.752637E-04
      0.445000          0.734211E-04
      0.450000          0.717092E-04
      0.455000          0.701138E-04
      0.460000          0.686222E-04
      0.465000          0.672232E-04
      0.470000          0.659078E-04
      0.475000          0.646685E-04
      0.480000          0.634998E-04
      0.485000          0.623979E-04
      0.490000          0.613606E-04
      0.495000          0.603871E-04
      0.500000          0.594779E-04
