 I_abs(s)[cm^-1]/c[mg/ml]
       0.00000          0.146827E-01
      0.500000E-02      0.146413E-01
      0.100000E-01      0.145176E-01
      0.150000E-01      0.143138E-01
      0.200000E-01      0.140333E-01
      0.250000E-01      0.136807E-01
      0.300000E-01      0.132617E-01
      0.350000E-01      0.127831E-01
      0.400000E-01      0.122523E-01
      0.450000E-01      0.116774E-01
      0.500000E-01      0.110668E-01
      0.550000E-01      0.104292E-01
      0.600000E-01      0.977328E-02
      0.650000E-01      0.910750E-02
      0.700000E-01      0.843994E-02
      0.750000E-01      0.777817E-02
      0.800000E-01      0.712911E-02
      0.850000E-01      0.649892E-02
      0.900000E-01      0.589293E-02
      0.950000E-01      0.531559E-02
      0.100000          0.477044E-02
      0.105000          0.426013E-02
      0.110000          0.378646E-02
      0.115000          0.335040E-02
      0.120000          0.295218E-02
      0.125000          0.259137E-02
      0.130000          0.226696E-02
      0.135000          0.197748E-02
      0.140000          0.172104E-02
      0.145000          0.149552E-02
      0.150000          0.129855E-02
      0.155000          0.112769E-02
      0.160000          0.980439E-03
      0.165000          0.854319E-03
      0.170000          0.746934E-03
      0.175000          0.656003E-03
      0.180000          0.579393E-03
      0.185000          0.515136E-03
      0.190000          0.461446E-03
      0.195000          0.416718E-03
      0.200000          0.379527E-03
      0.205000          0.348623E-03
      0.210000          0.322919E-03
      0.215000          0.301476E-03
      0.220000          0.283492E-03
      0.225000          0.268288E-03
      0.230000          0.255290E-03
      0.235000          0.244020E-03
      0.240000          0.234083E-03
      0.245000          0.225154E-03
      0.250000          0.216971E-03
      0.255000          0.209330E-03
      0.260000          0.202069E-03
      0.265000          0.195071E-03
      0.270000          0.188255E-03
      0.275000          0.181570E-03
      0.280000          0.174990E-03
      0.285000          0.168512E-03
      0.290000          0.162150E-03
      0.295000          0.155930E-03
      0.300000          0.149890E-03
      0.305000          0.144070E-03
      0.310000          0.138511E-03
      0.315000          0.133255E-03
      0.320000          0.128338E-03
      0.325000          0.123789E-03
      0.330000          0.119630E-03
      0.335000          0.115873E-03
      0.340000          0.112522E-03
      0.345000          0.109570E-03
      0.350000          0.107002E-03
      0.355000          0.104797E-03
      0.360000          0.102927E-03
      0.365000          0.101361E-03
      0.370000          0.100063E-03
      0.375000          0.989988E-04
      0.380000          0.981336E-04
      0.385000          0.974346E-04
      0.390000          0.968718E-04
      0.395000          0.964189E-04
      0.400000          0.960533E-04
      0.405000          0.957561E-04
      0.410000          0.955123E-04
      0.415000          0.953101E-04
      0.420000          0.951401E-04
      0.425000          0.949948E-04
      0.430000          0.948682E-04
      0.435000          0.947543E-04
      0.440000          0.946476E-04
      0.445000          0.945415E-04
      0.450000          0.944292E-04
      0.455000          0.943025E-04
      0.460000          0.941527E-04
      0.465000          0.939704E-04
      0.470000          0.937457E-04
      0.475000          0.934692E-04
      0.480000          0.931320E-04
      0.485000          0.927263E-04
      0.490000          0.922458E-04
      0.495000          0.916864E-04
      0.500000          0.910461E-04
