 I_abs(s)[cm^-1]/c[mg/ml]
       0.00000          0.145634E-01
      0.500000E-02      0.145260E-01
      0.100000E-01      0.144142E-01
      0.150000E-01      0.142298E-01
      0.200000E-01      0.139754E-01
      0.250000E-01      0.136548E-01
      0.300000E-01      0.132725E-01
      0.350000E-01      0.128341E-01
      0.400000E-01      0.123457E-01
      0.450000E-01      0.118138E-01
      0.500000E-01      0.112457E-01
      0.550000E-01      0.106485E-01
      0.600000E-01      0.100298E-01
      0.650000E-01      0.939692E-02
      0.700000E-01      0.875701E-02
      0.750000E-01      0.811699E-02
      0.800000E-01      0.748331E-02
      0.850000E-01      0.686191E-02
      0.900000E-01      0.625813E-02
      0.950000E-01      0.567662E-02
      0.100000          0.512136E-02
      0.105000          0.459557E-02
      0.110000          0.410177E-02
      0.115000          0.364175E-02
      0.120000          0.321662E-02
      0.125000          0.282685E-02
      0.130000          0.247235E-02
      0.135000          0.215246E-02
      0.140000          0.186613E-02
      0.145000          0.161188E-02
      0.150000          0.138796E-02
      0.155000          0.119239E-02
      0.160000          0.102300E-02
      0.165000          0.877566E-03
      0.170000          0.753789E-03
      0.175000          0.649403E-03
      0.180000          0.562196E-03
      0.185000          0.490049E-03
      0.190000          0.430962E-03
      0.195000          0.383079E-03
      0.200000          0.344697E-03
      0.205000          0.314277E-03
      0.210000          0.290443E-03
      0.215000          0.271981E-03
      0.220000          0.257829E-03
      0.225000          0.247075E-03
      0.230000          0.238938E-03
      0.235000          0.232762E-03
      0.240000          0.228000E-03
      0.245000          0.224201E-03
      0.250000          0.221002E-03
      0.255000          0.218112E-03
      0.260000          0.215302E-03
      0.265000          0.212400E-03
      0.270000          0.209279E-03
      0.275000          0.205850E-03
      0.280000          0.202057E-03
      0.285000          0.197871E-03
      0.290000          0.193287E-03
      0.295000          0.188318E-03
      0.300000          0.182993E-03
      0.305000          0.177353E-03
      0.310000          0.171449E-03
      0.315000          0.165339E-03
      0.320000          0.159085E-03
      0.325000          0.152753E-03
      0.330000          0.146409E-03
      0.335000          0.140117E-03
      0.340000          0.133939E-03
      0.345000          0.127930E-03
      0.350000          0.122143E-03
      0.355000          0.116622E-03
      0.360000          0.111403E-03
      0.365000          0.106517E-03
      0.370000          0.101984E-03
      0.375000          0.978176E-04
      0.380000          0.940245E-04
      0.385000          0.906031E-04
      0.390000          0.875463E-04
      0.395000          0.848410E-04
      0.400000          0.824699E-04
      0.405000          0.804117E-04
      0.410000          0.786424E-04
      0.415000          0.771361E-04
      0.420000          0.758659E-04
      0.425000          0.748045E-04
      0.430000          0.739249E-04
      0.435000          0.732013E-04
      0.440000          0.726090E-04
      0.445000          0.721253E-04
      0.450000          0.717294E-04
      0.455000          0.714029E-04
      0.460000          0.711297E-04
      0.465000          0.708961E-04
      0.470000          0.706910E-04
      0.475000          0.705055E-04
      0.480000          0.703332E-04
      0.485000          0.701696E-04
      0.490000          0.700124E-04
      0.495000          0.698611E-04
      0.500000          0.697165E-04
