 I_abs(s)[cm^-1]/c[mg/ml]
       0.00000          0.146429E-01
      0.500000E-02      0.146070E-01
      0.100000E-01      0.144998E-01
      0.150000E-01      0.143227E-01
      0.200000E-01      0.140783E-01
      0.250000E-01      0.137700E-01
      0.300000E-01      0.134020E-01
      0.350000E-01      0.129794E-01
      0.400000E-01      0.125076E-01
      0.450000E-01      0.119930E-01
      0.500000E-01      0.114420E-01
      0.550000E-01      0.108614E-01
      0.600000E-01      0.102583E-01
      0.650000E-01      0.963945E-02
      0.700000E-01      0.901178E-02
      0.750000E-01      0.838181E-02
      0.800000E-01      0.775574E-02
      0.850000E-01      0.713933E-02
      0.900000E-01      0.653780E-02
      0.950000E-01      0.595579E-02
      0.100000          0.539730E-02
      0.105000          0.486568E-02
      0.110000          0.436361E-02
      0.115000          0.389307E-02
      0.120000          0.345544E-02
      0.125000          0.305147E-02
      0.130000          0.268135E-02
      0.135000          0.234474E-02
      0.140000          0.204086E-02
      0.145000          0.176855E-02
      0.150000          0.152634E-02
      0.155000          0.131247E-02
      0.160000          0.112504E-02
      0.165000          0.961994E-03
      0.170000          0.821237E-03
      0.175000          0.700647E-03
      0.180000          0.598136E-03
      0.185000          0.511688E-03
      0.190000          0.439384E-03
      0.195000          0.379432E-03
      0.200000          0.330174E-03
      0.205000          0.290105E-03
      0.210000          0.257867E-03
      0.215000          0.232254E-03
      0.220000          0.212207E-03
      0.225000          0.196798E-03
      0.230000          0.185228E-03
      0.235000          0.176809E-03
      0.240000          0.170951E-03
      0.245000          0.167152E-03
      0.250000          0.164983E-03
      0.255000          0.164077E-03
      0.260000          0.164120E-03
      0.265000          0.164838E-03
      0.270000          0.165999E-03
      0.275000          0.167395E-03
      0.280000          0.168850E-03
      0.285000          0.170208E-03
      0.290000          0.171337E-03
      0.295000          0.172126E-03
      0.300000          0.172483E-03
      0.305000          0.172337E-03
      0.310000          0.171640E-03
      0.315000          0.170360E-03
      0.320000          0.168488E-03
      0.325000          0.166034E-03
      0.330000          0.163024E-03
      0.335000          0.159503E-03
      0.340000          0.155528E-03
      0.345000          0.151169E-03
      0.350000          0.146503E-03
      0.355000          0.141616E-03
      0.360000          0.136594E-03
      0.365000          0.131524E-03
      0.370000          0.126490E-03
      0.375000          0.121568E-03
      0.380000          0.116829E-03
      0.385000          0.112332E-03
      0.390000          0.108125E-03
      0.395000          0.104243E-03
      0.400000          0.100711E-03
      0.405000          0.975386E-04
      0.410000          0.947246E-04
      0.415000          0.922572E-04
      0.420000          0.901149E-04
      0.425000          0.882681E-04
      0.430000          0.866814E-04
      0.435000          0.853150E-04
      0.440000          0.841267E-04
      0.445000          0.830741E-04
      0.450000          0.821157E-04
      0.455000          0.812129E-04
      0.460000          0.803313E-04
      0.465000          0.794412E-04
      0.470000          0.785190E-04
      0.475000          0.775474E-04
      0.480000          0.765152E-04
      0.485000          0.754177E-04
      0.490000          0.742563E-04
      0.495000          0.730377E-04
      0.500000          0.717731E-04
