 I_abs(s)[cm^-1]/c[mg/ml]
       0.00000          0.144525E-01
      0.500000E-02      0.144180E-01
      0.100000E-01      0.143147E-01
      0.150000E-01      0.141441E-01
      0.200000E-01      0.139085E-01
      0.250000E-01      0.136111E-01
      0.300000E-01      0.132558E-01
      0.350000E-01      0.128472E-01
      0.400000E-01      0.123906E-01
      0.450000E-01      0.118918E-01
      0.500000E-01      0.113569E-01
      0.550000E-01      0.107924E-01
      0.600000E-01      0.102049E-01
      0.650000E-01      0.960083E-02
      0.700000E-01      0.898689E-02
      0.750000E-01      0.836937E-02
      0.800000E-01      0.775430E-02
      0.850000E-01      0.714733E-02
      0.900000E-01      0.655365E-02
      0.950000E-01      0.597790E-02
      0.100000          0.542415E-02
      0.105000          0.489587E-02
      0.110000          0.439588E-02
      0.115000          0.392637E-02
      0.120000          0.348891E-02
      0.125000          0.308444E-02
      0.130000          0.271338E-02
      0.135000          0.237559E-02
      0.140000          0.207046E-02
      0.145000          0.179698E-02
      0.150000          0.155378E-02
      0.155000          0.133920E-02
      0.160000          0.115137E-02
      0.165000          0.988245E-03
      0.170000          0.847682E-03
      0.175000          0.727498E-03
      0.180000          0.625513E-03
      0.185000          0.539595E-03
      0.190000          0.467701E-03
      0.195000          0.407904E-03
      0.200000          0.358418E-03
      0.205000          0.317613E-03
      0.210000          0.284029E-03
      0.215000          0.256377E-03
      0.220000          0.233538E-03
      0.225000          0.214559E-03
      0.230000          0.198644E-03
      0.235000          0.185140E-03
      0.240000          0.173524E-03
      0.245000          0.163387E-03
      0.250000          0.154418E-03
      0.255000          0.146390E-03
      0.260000          0.139140E-03
      0.265000          0.132558E-03
      0.270000          0.126573E-03
      0.275000          0.121141E-03
      0.280000          0.116236E-03
      0.285000          0.111841E-03
      0.290000          0.107943E-03
      0.295000          0.104528E-03
      0.300000          0.101576E-03
      0.305000          0.990630E-04
      0.310000          0.969580E-04
      0.315000          0.952235E-04
      0.320000          0.938173E-04
      0.325000          0.926929E-04
      0.330000          0.918021E-04
      0.335000          0.910965E-04
      0.340000          0.905290E-04
      0.345000          0.900556E-04
      0.350000          0.896367E-04
      0.355000          0.892380E-04
      0.360000          0.888312E-04
      0.365000          0.883944E-04
      0.370000          0.879119E-04
      0.375000          0.873741E-04
      0.380000          0.867771E-04
      0.385000          0.861216E-04
      0.390000          0.854127E-04
      0.395000          0.846582E-04
      0.400000          0.838687E-04
      0.405000          0.830558E-04
      0.410000          0.822320E-04
      0.415000          0.814095E-04
      0.420000          0.806001E-04
      0.425000          0.798143E-04
      0.430000          0.790612E-04
      0.435000          0.783484E-04
      0.440000          0.776816E-04
      0.445000          0.770651E-04
      0.450000          0.765014E-04
      0.455000          0.759917E-04
      0.460000          0.755362E-04
      0.465000          0.751339E-04
      0.470000          0.747832E-04
      0.475000          0.744820E-04
      0.480000          0.742280E-04
      0.485000          0.740188E-04
      0.490000          0.738518E-04
      0.495000          0.737247E-04
      0.500000          0.736352E-04
