 I_abs(s)[cm^-1]/c[mg/ml]
       0.00000          0.144525E-01
      0.500000E-02      0.144186E-01
      0.100000E-01      0.143170E-01
      0.150000E-01      0.141493E-01
      0.200000E-01      0.139176E-01
      0.250000E-01      0.136249E-01
      0.300000E-01      0.132751E-01
      0.350000E-01      0.128724E-01
      0.400000E-01      0.124220E-01
      0.450000E-01      0.119295E-01
      0.500000E-01      0.114008E-01
      0.550000E-01      0.108420E-01
      0.600000E-01      0.102596E-01
      0.650000E-01      0.965995E-02
      0.700000E-01      0.904949E-02
      0.750000E-01      0.843441E-02
      0.800000E-01      0.782067E-02
      0.850000E-01      0.721385E-02
      0.900000E-01      0.661914E-02
      0.950000E-01      0.604123E-02
      0.100000          0.548424E-02
      0.105000          0.495174E-02
      0.110000          0.444669E-02
      0.115000          0.397144E-02
      0.120000          0.352773E-02
      0.125000          0.311669E-02
      0.130000          0.273892E-02
      0.135000          0.239447E-02
      0.140000          0.208292E-02
      0.145000          0.180342E-02
      0.150000          0.155475E-02
      0.155000          0.133537E-02
      0.160000          0.114351E-02
      0.165000          0.977195E-03
      0.170000          0.834321E-03
      0.175000          0.712716E-03
      0.180000          0.610183E-03
      0.185000          0.524547E-03
      0.190000          0.453697E-03
      0.195000          0.395623E-03
      0.200000          0.348437E-03
      0.205000          0.310399E-03
      0.210000          0.279929E-03
      0.215000          0.255618E-03
      0.220000          0.236229E-03
      0.225000          0.220698E-03
      0.230000          0.208124E-03
      0.235000          0.197764E-03
      0.240000          0.189018E-03
      0.245000          0.181415E-03
      0.250000          0.174600E-03
      0.255000          0.168315E-03
      0.260000          0.162386E-03
      0.265000          0.156705E-03
      0.270000          0.151214E-03
      0.275000          0.145899E-03
      0.280000          0.140768E-03
      0.285000          0.135849E-03
      0.290000          0.131178E-03
      0.295000          0.126789E-03
      0.300000          0.122718E-03
      0.305000          0.118990E-03
      0.310000          0.115622E-03
      0.315000          0.112619E-03
      0.320000          0.109977E-03
      0.325000          0.107681E-03
      0.330000          0.105708E-03
      0.335000          0.104028E-03
      0.340000          0.102606E-03
      0.345000          0.101403E-03
      0.350000          0.100380E-03
      0.355000          0.994968E-04
      0.360000          0.987162E-04
      0.365000          0.980037E-04
      0.370000          0.973286E-04
      0.375000          0.966648E-04
      0.380000          0.959908E-04
      0.385000          0.952899E-04
      0.390000          0.945501E-04
      0.395000          0.937633E-04
      0.400000          0.929254E-04
      0.405000          0.920352E-04
      0.410000          0.910939E-04
      0.415000          0.901048E-04
      0.420000          0.890723E-04
      0.425000          0.880017E-04
      0.430000          0.868984E-04
      0.435000          0.857680E-04
      0.440000          0.846157E-04
      0.445000          0.834462E-04
      0.450000          0.822638E-04
      0.455000          0.810722E-04
      0.460000          0.798749E-04
      0.465000          0.786746E-04
      0.470000          0.774743E-04
      0.475000          0.762766E-04
      0.480000          0.750843E-04
      0.485000          0.739004E-04
      0.490000          0.727284E-04
      0.495000          0.715718E-04
      0.500000          0.704351E-04
