 I_abs(s)[cm^-1]/c[mg/ml]
       0.00000          0.143342E-01
      0.500000E-02      0.142863E-01
      0.100000E-01      0.141435E-01
      0.150000E-01      0.139088E-01
      0.200000E-01      0.135867E-01
      0.250000E-01      0.131836E-01
      0.300000E-01      0.127073E-01
      0.350000E-01      0.121668E-01
      0.400000E-01      0.115721E-01
      0.450000E-01      0.109339E-01
      0.500000E-01      0.102632E-01
      0.550000E-01      0.957116E-02
      0.600000E-01      0.886868E-02
      0.650000E-01      0.816622E-02
      0.700000E-01      0.747346E-02
      0.750000E-01      0.679917E-02
      0.800000E-01      0.615101E-02
      0.850000E-01      0.553543E-02
      0.900000E-01      0.495758E-02
      0.950000E-01      0.442127E-02
      0.100000          0.392902E-02
      0.105000          0.348211E-02
      0.110000          0.308064E-02
      0.115000          0.272371E-02
      0.120000          0.240951E-02
      0.125000          0.213550E-02
      0.130000          0.189858E-02
      0.135000          0.169527E-02
      0.140000          0.152182E-02
      0.145000          0.137444E-02
      0.150000          0.124935E-02
      0.155000          0.114295E-02
      0.160000          0.105190E-02
      0.165000          0.973180E-03
      0.170000          0.904138E-03
      0.175000          0.842526E-03
      0.180000          0.786499E-03
      0.185000          0.734604E-03
      0.190000          0.685753E-03
      0.195000          0.639188E-03
      0.200000          0.594436E-03
      0.205000          0.551257E-03
      0.210000          0.509597E-03
      0.215000          0.469534E-03
      0.220000          0.431237E-03
      0.225000          0.394918E-03
      0.230000          0.360802E-03
      0.235000          0.329097E-03
      0.240000          0.299970E-03
      0.245000          0.273538E-03
      0.250000          0.249857E-03
      0.255000          0.228918E-03
      0.260000          0.210656E-03
      0.265000          0.194949E-03
      0.270000          0.181632E-03
      0.275000          0.170505E-03
      0.280000          0.161343E-03
      0.285000          0.153912E-03
      0.290000          0.147973E-03
      0.295000          0.143293E-03
      0.300000          0.139654E-03
      0.305000          0.136854E-03
      0.310000          0.134714E-03
      0.315000          0.133081E-03
      0.320000          0.131821E-03
      0.325000          0.130826E-03
      0.330000          0.130010E-03
      0.335000          0.129303E-03
      0.340000          0.128652E-03
      0.345000          0.128016E-03
      0.350000          0.127365E-03
      0.355000          0.126675E-03
      0.360000          0.125929E-03
      0.365000          0.125113E-03
      0.370000          0.124214E-03
      0.375000          0.123222E-03
      0.380000          0.122129E-03
      0.385000          0.120928E-03
      0.390000          0.119613E-03
      0.395000          0.118181E-03
      0.400000          0.116631E-03
      0.405000          0.114965E-03
      0.410000          0.113188E-03
      0.415000          0.111310E-03
      0.420000          0.109341E-03
      0.425000          0.107298E-03
      0.430000          0.105199E-03
      0.435000          0.103064E-03
      0.440000          0.100916E-03
      0.445000          0.987766E-04
      0.450000          0.966711E-04
      0.455000          0.946220E-04
      0.460000          0.926511E-04
      0.465000          0.907785E-04
      0.470000          0.890218E-04
      0.475000          0.873954E-04
      0.480000          0.859109E-04
      0.485000          0.845759E-04
      0.490000          0.833949E-04
      0.495000          0.823687E-04
      0.500000          0.814948E-04
