 I_abs(s)[cm^-1]/c[mg/ml]
       0.00000          0.145238E-01
      0.500000E-02      0.144807E-01
      0.100000E-01      0.143521E-01
      0.150000E-01      0.141406E-01
      0.200000E-01      0.138500E-01
      0.250000E-01      0.134856E-01
      0.300000E-01      0.130539E-01
      0.350000E-01      0.125626E-01
      0.400000E-01      0.120201E-01
      0.450000E-01      0.114352E-01
      0.500000E-01      0.108175E-01
      0.550000E-01      0.101761E-01
      0.600000E-01      0.952043E-02
      0.650000E-01      0.885923E-02
      0.700000E-01      0.820081E-02
      0.750000E-01      0.755271E-02
      0.800000E-01      0.692159E-02
      0.850000E-01      0.631319E-02
      0.900000E-01      0.573220E-02
      0.950000E-01      0.518233E-02
      0.100000          0.466625E-02
      0.105000          0.418569E-02
      0.110000          0.374149E-02
      0.115000          0.333372E-02
      0.120000          0.296176E-02
      0.125000          0.262442E-02
      0.130000          0.232010E-02
      0.135000          0.204685E-02
      0.140000          0.180254E-02
      0.145000          0.158488E-02
      0.150000          0.139161E-02
      0.155000          0.122046E-02
      0.160000          0.106929E-02
      0.165000          0.936095E-03
      0.170000          0.819017E-03
      0.175000          0.716377E-03
      0.180000          0.626667E-03
      0.185000          0.548541E-03
      0.190000          0.480802E-03
      0.195000          0.422381E-03
      0.200000          0.372323E-03
      0.205000          0.329759E-03
      0.210000          0.293894E-03
      0.215000          0.263993E-03
      0.220000          0.239363E-03
      0.225000          0.219355E-03
      0.230000          0.203350E-03
      0.235000          0.190766E-03
      0.240000          0.181056E-03
      0.245000          0.173711E-03
      0.250000          0.168268E-03
      0.255000          0.164309E-03
      0.260000          0.161469E-03
      0.265000          0.159435E-03
      0.270000          0.157952E-03
      0.275000          0.156815E-03
      0.280000          0.155872E-03
      0.285000          0.155017E-03
      0.290000          0.154183E-03
      0.295000          0.153337E-03
      0.300000          0.152470E-03
      0.305000          0.151592E-03
      0.310000          0.150721E-03
      0.315000          0.149878E-03
      0.320000          0.149084E-03
      0.325000          0.148349E-03
      0.330000          0.147676E-03
      0.335000          0.147055E-03
      0.340000          0.146466E-03
      0.345000          0.145878E-03
      0.350000          0.145250E-03
      0.355000          0.144539E-03
      0.360000          0.143699E-03
      0.365000          0.142685E-03
      0.370000          0.141456E-03
      0.375000          0.139981E-03
      0.380000          0.138237E-03
      0.385000          0.136212E-03
      0.390000          0.133909E-03
      0.395000          0.131341E-03
      0.400000          0.128531E-03
      0.405000          0.125515E-03
      0.410000          0.122335E-03
      0.415000          0.119040E-03
      0.420000          0.115681E-03
      0.425000          0.112311E-03
      0.430000          0.108982E-03
      0.435000          0.105740E-03
      0.440000          0.102629E-03
      0.445000          0.996840E-04
      0.450000          0.969335E-04
      0.455000          0.943978E-04
      0.460000          0.920895E-04
      0.465000          0.900136E-04
      0.470000          0.881681E-04
      0.475000          0.865450E-04
      0.480000          0.851314E-04
      0.485000          0.839104E-04
      0.490000          0.828626E-04
      0.495000          0.819667E-04
      0.500000          0.812007E-04
