 I_abs(s)[cm^-1]/c[mg/ml]
       0.00000          0.147226E-01
      0.500000E-02      0.146852E-01
      0.100000E-01      0.145737E-01
      0.150000E-01      0.143895E-01
      0.200000E-01      0.141354E-01
      0.250000E-01      0.138150E-01
      0.300000E-01      0.134329E-01
      0.350000E-01      0.129942E-01
      0.400000E-01      0.125051E-01
      0.450000E-01      0.119720E-01
      0.500000E-01      0.114019E-01
      0.550000E-01      0.108021E-01
      0.600000E-01      0.101798E-01
      0.650000E-01      0.954234E-02
      0.700000E-01      0.889693E-02
      0.750000E-01      0.825043E-02
      0.800000E-01      0.760933E-02
      0.850000E-01      0.697963E-02
      0.900000E-01      0.636675E-02
      0.950000E-01      0.577548E-02
      0.100000          0.520993E-02
      0.105000          0.467349E-02
      0.110000          0.416887E-02
      0.115000          0.369802E-02
      0.120000          0.326226E-02
      0.125000          0.286223E-02
      0.130000          0.249799E-02
      0.135000          0.216905E-02
      0.140000          0.187444E-02
      0.145000          0.161282E-02
      0.150000          0.138248E-02
      0.155000          0.118147E-02
      0.160000          0.100763E-02
      0.165000          0.858693E-03
      0.170000          0.732306E-03
      0.175000          0.626117E-03
      0.180000          0.537809E-03
      0.185000          0.465140E-03
      0.190000          0.405979E-03
      0.195000          0.358332E-03
      0.200000          0.320363E-03
      0.205000          0.290401E-03
      0.210000          0.266951E-03
      0.215000          0.248695E-03
      0.220000          0.234490E-03
      0.225000          0.223356E-03
      0.230000          0.214475E-03
      0.235000          0.207172E-03
      0.240000          0.200905E-03
      0.245000          0.195253E-03
      0.250000          0.189898E-03
      0.255000          0.184613E-03
      0.260000          0.179250E-03
      0.265000          0.173722E-03
      0.270000          0.167996E-03
      0.275000          0.162079E-03
      0.280000          0.156011E-03
      0.285000          0.149852E-03
      0.290000          0.143677E-03
      0.295000          0.137570E-03
      0.300000          0.131616E-03
      0.305000          0.125898E-03
      0.310000          0.120492E-03
      0.315000          0.115466E-03
      0.320000          0.110876E-03
      0.325000          0.106765E-03
      0.330000          0.103164E-03
      0.335000          0.100087E-03
      0.340000          0.975389E-04
      0.345000          0.955071E-04
      0.350000          0.939698E-04
      0.355000          0.928938E-04
      0.360000          0.922373E-04
      0.365000          0.919513E-04
      0.370000          0.919816E-04
      0.375000          0.922708E-04
      0.380000          0.927599E-04
      0.385000          0.933908E-04
      0.390000          0.941070E-04
      0.395000          0.948560E-04
      0.400000          0.955901E-04
      0.405000          0.962674E-04
      0.410000          0.968528E-04
      0.415000          0.973181E-04
      0.420000          0.976427E-04
      0.425000          0.978129E-04
      0.430000          0.978224E-04
      0.435000          0.976709E-04
      0.440000          0.973643E-04
      0.445000          0.969131E-04
      0.450000          0.963321E-04
      0.455000          0.956390E-04
      0.460000          0.948537E-04
      0.465000          0.939974E-04
      0.470000          0.930912E-04
      0.475000          0.921560E-04
      0.480000          0.912112E-04
      0.485000          0.902743E-04
      0.490000          0.893605E-04
      0.495000          0.884824E-04
      0.500000          0.876496E-04
