 I_abs(s)[cm^-1]/c[mg/ml]
       0.00000          0.145396E-01
      0.500000E-02      0.145014E-01
      0.100000E-01      0.143873E-01
      0.150000E-01      0.141990E-01
      0.200000E-01      0.139394E-01
      0.250000E-01      0.136124E-01
      0.300000E-01      0.132228E-01
      0.350000E-01      0.127762E-01
      0.400000E-01      0.122791E-01
      0.450000E-01      0.117383E-01
      0.500000E-01      0.111612E-01
      0.550000E-01      0.105555E-01
      0.600000E-01      0.992870E-02
      0.650000E-01      0.928853E-02
      0.700000E-01      0.864239E-02
      0.750000E-01      0.799735E-02
      0.800000E-01      0.736001E-02
      0.850000E-01      0.673643E-02
      0.900000E-01      0.613201E-02
      0.950000E-01      0.555144E-02
      0.100000          0.499867E-02
      0.105000          0.447690E-02
      0.110000          0.398853E-02
      0.115000          0.353523E-02
      0.120000          0.311797E-02
      0.125000          0.273703E-02
      0.130000          0.239212E-02
      0.135000          0.208239E-02
      0.140000          0.180656E-02
      0.145000          0.156294E-02
      0.150000          0.134957E-02
      0.155000          0.116425E-02
      0.160000          0.100465E-02
      0.165000          0.868340E-03
      0.170000          0.752898E-03
      0.175000          0.655922E-03
      0.180000          0.575098E-03
      0.185000          0.508230E-03
      0.190000          0.453272E-03
      0.195000          0.408344E-03
      0.200000          0.371751E-03
      0.205000          0.341982E-03
      0.210000          0.317715E-03
      0.215000          0.297811E-03
      0.220000          0.281302E-03
      0.225000          0.267386E-03
      0.230000          0.255405E-03
      0.235000          0.244837E-03
      0.240000          0.235273E-03
      0.245000          0.226408E-03
      0.250000          0.218020E-03
      0.255000          0.209958E-03
      0.260000          0.202130E-03
      0.265000          0.194486E-03
      0.270000          0.187014E-03
      0.275000          0.179723E-03
      0.280000          0.172644E-03
      0.285000          0.165813E-03
      0.290000          0.159275E-03
      0.295000          0.153074E-03
      0.300000          0.147251E-03
      0.305000          0.141841E-03
      0.310000          0.136873E-03
      0.315000          0.132366E-03
      0.320000          0.128331E-03
      0.325000          0.124767E-03
      0.330000          0.121666E-03
      0.335000          0.119009E-03
      0.340000          0.116771E-03
      0.345000          0.114918E-03
      0.350000          0.113411E-03
      0.355000          0.112205E-03
      0.360000          0.111253E-03
      0.365000          0.110507E-03
      0.370000          0.109916E-03
      0.375000          0.109432E-03
      0.380000          0.109010E-03
      0.385000          0.108606E-03
      0.390000          0.108183E-03
      0.395000          0.107709E-03
      0.400000          0.107156E-03
      0.405000          0.106503E-03
      0.410000          0.105736E-03
      0.415000          0.104847E-03
      0.420000          0.103833E-03
      0.425000          0.102697E-03
      0.430000          0.101446E-03
      0.435000          0.100091E-03
      0.440000          0.986463E-04
      0.445000          0.971291E-04
      0.450000          0.955570E-04
      0.455000          0.939485E-04
      0.460000          0.923220E-04
      0.465000          0.906950E-04
      0.470000          0.890837E-04
      0.475000          0.875023E-04
      0.480000          0.859632E-04
      0.485000          0.844764E-04
      0.490000          0.830497E-04
      0.495000          0.816886E-04
      0.500000          0.803965E-04
