 I_abs(s)[cm^-1]/c[mg/ml]
       0.00000          0.147226E-01
      0.500000E-02      0.146849E-01
      0.100000E-01      0.145725E-01
      0.150000E-01      0.143869E-01
      0.200000E-01      0.141308E-01
      0.250000E-01      0.138078E-01
      0.300000E-01      0.134224E-01
      0.350000E-01      0.129801E-01
      0.400000E-01      0.124867E-01
      0.450000E-01      0.119490E-01
      0.500000E-01      0.113738E-01
      0.550000E-01      0.107686E-01
      0.600000E-01      0.101406E-01
      0.650000E-01      0.949743E-02
      0.700000E-01      0.884625E-02
      0.750000E-01      0.819410E-02
      0.800000E-01      0.754759E-02
      0.850000E-01      0.691288E-02
      0.900000E-01      0.629551E-02
      0.950000E-01      0.570040E-02
      0.100000          0.513178E-02
      0.105000          0.459315E-02
      0.110000          0.408726E-02
      0.115000          0.361614E-02
      0.120000          0.318109E-02
      0.125000          0.278276E-02
      0.130000          0.242114E-02
      0.135000          0.209567E-02
      0.140000          0.180527E-02
      0.145000          0.154847E-02
      0.150000          0.132339E-02
      0.155000          0.112791E-02
      0.160000          0.959710E-03
      0.165000          0.816331E-03
      0.170000          0.695260E-03
      0.175000          0.593986E-03
      0.180000          0.510056E-03
      0.185000          0.441118E-03
      0.190000          0.384962E-03
      0.195000          0.339547E-03
      0.200000          0.303021E-03
      0.205000          0.273736E-03
      0.210000          0.250248E-03
      0.215000          0.231323E-03
      0.220000          0.215922E-03
      0.225000          0.203193E-03
      0.230000          0.192456E-03
      0.235000          0.183184E-03
      0.240000          0.174983E-03
      0.245000          0.167572E-03
      0.250000          0.160762E-03
      0.255000          0.154439E-03
      0.260000          0.148545E-03
      0.265000          0.143058E-03
      0.270000          0.137986E-03
      0.275000          0.133347E-03
      0.280000          0.129164E-03
      0.285000          0.125458E-03
      0.290000          0.122241E-03
      0.295000          0.119513E-03
      0.300000          0.117264E-03
      0.305000          0.115468E-03
      0.310000          0.114091E-03
      0.315000          0.113087E-03
      0.320000          0.112404E-03
      0.325000          0.111985E-03
      0.330000          0.111774E-03
      0.335000          0.111712E-03
      0.340000          0.111747E-03
      0.345000          0.111831E-03
      0.350000          0.111922E-03
      0.355000          0.111988E-03
      0.360000          0.112004E-03
      0.365000          0.111952E-03
      0.370000          0.111824E-03
      0.375000          0.111617E-03
      0.380000          0.111335E-03
      0.385000          0.110987E-03
      0.390000          0.110583E-03
      0.395000          0.110137E-03
      0.400000          0.109664E-03
      0.405000          0.109175E-03
      0.410000          0.108683E-03
      0.415000          0.108198E-03
      0.420000          0.107724E-03
      0.425000          0.107266E-03
      0.430000          0.106822E-03
      0.435000          0.106388E-03
      0.440000          0.105960E-03
      0.445000          0.105526E-03
      0.450000          0.105076E-03
      0.455000          0.104600E-03
      0.460000          0.104084E-03
      0.465000          0.103518E-03
      0.470000          0.102891E-03
      0.475000          0.102195E-03
      0.480000          0.101425E-03
      0.485000          0.100578E-03
      0.490000          0.996546E-04
      0.495000          0.986585E-04
      0.500000          0.975970E-04
