 I_abs(s)[cm^-1]/c[mg/ml]
       0.00000          0.146190E-01
      0.500000E-02      0.145854E-01
      0.100000E-01      0.144848E-01
      0.150000E-01      0.143186E-01
      0.200000E-01      0.140888E-01
      0.250000E-01      0.137985E-01
      0.300000E-01      0.134513E-01
      0.350000E-01      0.130514E-01
      0.400000E-01      0.126038E-01
      0.450000E-01      0.121139E-01
      0.500000E-01      0.115874E-01
      0.550000E-01      0.110304E-01
      0.600000E-01      0.104491E-01
      0.650000E-01      0.984975E-02
      0.700000E-01      0.923872E-02
      0.750000E-01      0.862207E-02
      0.800000E-01      0.800567E-02
      0.850000E-01      0.739508E-02
      0.900000E-01      0.679545E-02
      0.950000E-01      0.621149E-02
      0.100000          0.564737E-02
      0.105000          0.510672E-02
      0.110000          0.459258E-02
      0.115000          0.410742E-02
      0.120000          0.365311E-02
      0.125000          0.323093E-02
      0.130000          0.284163E-02
      0.135000          0.248542E-02
      0.140000          0.216205E-02
      0.145000          0.187082E-02
      0.150000          0.161067E-02
      0.155000          0.138019E-02
      0.160000          0.117774E-02
      0.165000          0.100145E-02
      0.170000          0.849325E-03
      0.175000          0.719248E-03
      0.180000          0.609078E-03
      0.185000          0.516673E-03
      0.190000          0.439935E-03
      0.195000          0.376845E-03
      0.200000          0.325494E-03
      0.205000          0.284103E-03
      0.210000          0.251044E-03
      0.215000          0.224848E-03
      0.220000          0.204211E-03
      0.225000          0.187996E-03
      0.230000          0.175230E-03
      0.235000          0.165093E-03
      0.240000          0.156915E-03
      0.245000          0.150154E-03
      0.250000          0.144393E-03
      0.255000          0.139314E-03
      0.260000          0.134692E-03
      0.265000          0.130375E-03
      0.270000          0.126270E-03
      0.275000          0.122330E-03
      0.280000          0.118542E-03
      0.285000          0.114916E-03
      0.290000          0.111477E-03
      0.295000          0.108254E-03
      0.300000          0.105277E-03
      0.305000          0.102573E-03
      0.310000          0.100162E-03
      0.315000          0.980518E-04
      0.320000          0.962440E-04
      0.325000          0.947290E-04
      0.330000          0.934887E-04
      0.335000          0.924978E-04
      0.340000          0.917253E-04
      0.345000          0.911363E-04
      0.350000          0.906941E-04
      0.355000          0.903619E-04
      0.360000          0.901042E-04
      0.365000          0.898884E-04
      0.370000          0.896858E-04
      0.375000          0.894722E-04
      0.380000          0.892287E-04
      0.385000          0.889414E-04
      0.390000          0.886016E-04
      0.395000          0.882057E-04
      0.400000          0.877540E-04
      0.405000          0.872507E-04
      0.410000          0.867028E-04
      0.415000          0.861197E-04
      0.420000          0.855118E-04
      0.425000          0.848907E-04
      0.430000          0.842678E-04
      0.435000          0.836538E-04
      0.440000          0.830588E-04
      0.445000          0.824912E-04
      0.450000          0.819582E-04
      0.455000          0.814650E-04
      0.460000          0.810154E-04
      0.465000          0.806113E-04
      0.470000          0.802532E-04
      0.475000          0.799403E-04
      0.480000          0.796707E-04
      0.485000          0.794416E-04
      0.490000          0.792496E-04
      0.495000          0.790909E-04
      0.500000          0.789617E-04
