 I_abs(s)[cm^-1]/c[mg/ml]
       0.00000          0.146190E-01
      0.500000E-02      0.145818E-01
      0.100000E-01      0.144705E-01
      0.150000E-01      0.142868E-01
      0.200000E-01      0.140335E-01
      0.250000E-01      0.137141E-01
      0.300000E-01      0.133332E-01
      0.350000E-01      0.128962E-01
      0.400000E-01      0.124091E-01
      0.450000E-01      0.118786E-01
      0.500000E-01      0.113116E-01
      0.550000E-01      0.107154E-01
      0.600000E-01      0.100975E-01
      0.650000E-01      0.946507E-02
      0.700000E-01      0.882544E-02
      0.750000E-01      0.818548E-02
      0.800000E-01      0.755169E-02
      0.850000E-01      0.693004E-02
      0.900000E-01      0.632592E-02
      0.950000E-01      0.574406E-02
      0.100000          0.518847E-02
      0.105000          0.466245E-02
      0.110000          0.416852E-02
      0.115000          0.370852E-02
      0.120000          0.328356E-02
      0.125000          0.289408E-02
      0.130000          0.253994E-02
      0.135000          0.222043E-02
      0.140000          0.193440E-02
      0.145000          0.168028E-02
      0.150000          0.145619E-02
      0.155000          0.126003E-02
      0.160000          0.108952E-02
      0.165000          0.942291E-03
      0.170000          0.815961E-03
      0.175000          0.708172E-03
      0.180000          0.616651E-03
      0.185000          0.539248E-03
      0.190000          0.473967E-03
      0.195000          0.418993E-03
      0.200000          0.372697E-03
      0.205000          0.333651E-03
      0.210000          0.300622E-03
      0.215000          0.272566E-03
      0.220000          0.248617E-03
      0.225000          0.228070E-03
      0.230000          0.210362E-03
      0.235000          0.195054E-03
      0.240000          0.181808E-03
      0.245000          0.170369E-03
      0.250000          0.160546E-03
      0.255000          0.152191E-03
      0.260000          0.145188E-03
      0.265000          0.139439E-03
      0.270000          0.134851E-03
      0.275000          0.131335E-03
      0.280000          0.128792E-03
      0.285000          0.127119E-03
      0.290000          0.126201E-03
      0.295000          0.125918E-03
      0.300000          0.126143E-03
      0.305000          0.126745E-03
      0.310000          0.127596E-03
      0.315000          0.128571E-03
      0.320000          0.129554E-03
      0.325000          0.130441E-03
      0.330000          0.131143E-03
      0.335000          0.131587E-03
      0.340000          0.131718E-03
      0.345000          0.131499E-03
      0.350000          0.130912E-03
      0.355000          0.129957E-03
      0.360000          0.128648E-03
      0.365000          0.127015E-03
      0.370000          0.125097E-03
      0.375000          0.122942E-03
      0.380000          0.120604E-03
      0.385000          0.118139E-03
      0.390000          0.115603E-03
      0.395000          0.113051E-03
      0.400000          0.110532E-03
      0.405000          0.108090E-03
      0.410000          0.105761E-03
      0.415000          0.103573E-03
      0.420000          0.101545E-03
      0.425000          0.996873E-04
      0.430000          0.980038E-04
      0.435000          0.964893E-04
      0.440000          0.951325E-04
      0.445000          0.939169E-04
      0.450000          0.928219E-04
      0.455000          0.918242E-04
      0.460000          0.908990E-04
      0.465000          0.900216E-04
      0.470000          0.891681E-04
      0.475000          0.883169E-04
      0.480000          0.874491E-04
      0.485000          0.865496E-04
      0.490000          0.856070E-04
      0.495000          0.846143E-04
      0.500000          0.835688E-04
