 I_abs(s)[cm^-1]/c[mg/ml]
       0.00000          0.145079E-01
      0.500000E-02      0.144700E-01
      0.100000E-01      0.143566E-01
      0.150000E-01      0.141695E-01
      0.200000E-01      0.139115E-01
      0.250000E-01      0.135865E-01
      0.300000E-01      0.131990E-01
      0.350000E-01      0.127548E-01
      0.400000E-01      0.122601E-01
      0.450000E-01      0.117218E-01
      0.500000E-01      0.111470E-01
      0.550000E-01      0.105434E-01
      0.600000E-01      0.991860E-02
      0.650000E-01      0.928018E-02
      0.700000E-01      0.863556E-02
      0.750000E-01      0.799184E-02
      0.800000E-01      0.735568E-02
      0.850000E-01      0.673319E-02
      0.900000E-01      0.612983E-02
      0.950000E-01      0.555038E-02
      0.100000          0.499888E-02
      0.105000          0.447857E-02
      0.110000          0.399193E-02
      0.115000          0.354069E-02
      0.120000          0.312582E-02
      0.125000          0.274761E-02
      0.130000          0.240574E-02
      0.135000          0.209930E-02
      0.140000          0.182693E-02
      0.145000          0.158685E-02
      0.150000          0.137697E-02
      0.155000          0.119497E-02
      0.160000          0.103837E-02
      0.165000          0.904634E-03
      0.170000          0.791188E-03
      0.175000          0.695533E-03
      0.180000          0.615266E-03
      0.185000          0.548132E-03
      0.190000          0.492056E-03
      0.195000          0.445163E-03
      0.200000          0.405794E-03
      0.205000          0.372508E-03
      0.210000          0.344083E-03
      0.215000          0.319506E-03
      0.220000          0.297956E-03
      0.225000          0.278788E-03
      0.230000          0.261515E-03
      0.235000          0.245779E-03
      0.240000          0.231334E-03
      0.245000          0.218019E-03
      0.250000          0.205740E-03
      0.255000          0.194448E-03
      0.260000          0.184123E-03
      0.265000          0.174760E-03
      0.270000          0.166359E-03
      0.275000          0.158912E-03
      0.280000          0.152402E-03
      0.285000          0.146793E-03
      0.290000          0.142039E-03
      0.295000          0.138074E-03
      0.300000          0.134820E-03
      0.305000          0.132189E-03
      0.310000          0.130087E-03
      0.315000          0.128415E-03
      0.320000          0.127078E-03
      0.325000          0.125985E-03
      0.330000          0.125053E-03
      0.335000          0.124209E-03
      0.340000          0.123394E-03
      0.345000          0.122561E-03
      0.350000          0.121677E-03
      0.355000          0.120724E-03
      0.360000          0.119691E-03
      0.365000          0.118583E-03
      0.370000          0.117408E-03
      0.375000          0.116185E-03
      0.380000          0.114933E-03
      0.385000          0.113674E-03
      0.390000          0.112431E-03
      0.395000          0.111223E-03
      0.400000          0.110064E-03
      0.405000          0.108968E-03
      0.410000          0.107939E-03
      0.415000          0.106977E-03
      0.420000          0.106077E-03
      0.425000          0.105228E-03
      0.430000          0.104416E-03
      0.435000          0.103621E-03
      0.440000          0.102824E-03
      0.445000          0.102003E-03
      0.450000          0.101136E-03
      0.455000          0.100202E-03
      0.460000          0.991832E-04
      0.465000          0.980651E-04
      0.470000          0.968363E-04
      0.475000          0.954903E-04
      0.480000          0.940248E-04
      0.485000          0.924428E-04
      0.490000          0.907513E-04
      0.495000          0.889620E-04
      0.500000          0.870898E-04
