 I_abs(s)[cm^-1]/c[mg/ml]
       0.00000          0.145238E-01
      0.500000E-02      0.144866E-01
      0.100000E-01      0.143757E-01
      0.150000E-01      0.141926E-01
      0.200000E-01      0.139401E-01
      0.250000E-01      0.136219E-01
      0.300000E-01      0.132426E-01
      0.350000E-01      0.128077E-01
      0.400000E-01      0.123230E-01
      0.450000E-01      0.117954E-01
      0.500000E-01      0.112319E-01
      0.550000E-01      0.106396E-01
      0.600000E-01      0.100259E-01
      0.650000E-01      0.939815E-02
      0.700000E-01      0.876345E-02
      0.750000E-01      0.812858E-02
      0.800000E-01      0.749990E-02
      0.850000E-01      0.688326E-02
      0.900000E-01      0.628390E-02
      0.950000E-01      0.570639E-02
      0.100000          0.515461E-02
      0.105000          0.463174E-02
      0.110000          0.414023E-02
      0.115000          0.368183E-02
      0.120000          0.325764E-02
      0.125000          0.286813E-02
      0.130000          0.251320E-02
      0.135000          0.219225E-02
      0.140000          0.190425E-02
      0.145000          0.164780E-02
      0.150000          0.142123E-02
      0.155000          0.122262E-02
      0.160000          0.104992E-02
      0.165000          0.900960E-03
      0.170000          0.773553E-03
      0.175000          0.665511E-03
      0.180000          0.574699E-03
      0.185000          0.499065E-03
      0.190000          0.436666E-03
      0.195000          0.385688E-03
      0.200000          0.344462E-03
      0.205000          0.311464E-03
      0.210000          0.285325E-03
      0.215000          0.264827E-03
      0.220000          0.248897E-03
      0.225000          0.236599E-03
      0.230000          0.227132E-03
      0.235000          0.219811E-03
      0.240000          0.214063E-03
      0.245000          0.209414E-03
      0.250000          0.205479E-03
      0.255000          0.201951E-03
      0.260000          0.198594E-03
      0.265000          0.195232E-03
      0.270000          0.191738E-03
      0.275000          0.188033E-03
      0.280000          0.184075E-03
      0.285000          0.179850E-03
      0.290000          0.175371E-03
      0.295000          0.170670E-03
      0.300000          0.165793E-03
      0.305000          0.160794E-03
      0.310000          0.155733E-03
      0.315000          0.150674E-03
      0.320000          0.145676E-03
      0.325000          0.140796E-03
      0.330000          0.136083E-03
      0.335000          0.131578E-03
      0.340000          0.127315E-03
      0.345000          0.123315E-03
      0.350000          0.119591E-03
      0.355000          0.116147E-03
      0.360000          0.112978E-03
      0.365000          0.110069E-03
      0.370000          0.107402E-03
      0.375000          0.104952E-03
      0.380000          0.102693E-03
      0.385000          0.100594E-03
      0.390000          0.986262E-04
      0.395000          0.967618E-04
      0.400000          0.949744E-04
      0.405000          0.932413E-04
      0.410000          0.915433E-04
      0.415000          0.898658E-04
      0.420000          0.881984E-04
      0.425000          0.865354E-04
      0.430000          0.848749E-04
      0.435000          0.832190E-04
      0.440000          0.815729E-04
      0.445000          0.799444E-04
      0.450000          0.783434E-04
      0.455000          0.767810E-04
      0.460000          0.752689E-04
      0.465000          0.738190E-04
      0.470000          0.724431E-04
      0.475000          0.711517E-04
      0.480000          0.699549E-04
      0.485000          0.688609E-04
      0.490000          0.678769E-04
      0.495000          0.670084E-04
      0.500000          0.662597E-04
