 I_abs(s)[cm^-1]/c[mg/ml]
       0.00000          0.144604E-01
      0.500000E-02      0.144252E-01
      0.100000E-01      0.143200E-01
      0.150000E-01      0.141463E-01
      0.200000E-01      0.139064E-01
      0.250000E-01      0.136037E-01
      0.300000E-01      0.132421E-01
      0.350000E-01      0.128266E-01
      0.400000E-01      0.123626E-01
      0.450000E-01      0.118561E-01
      0.500000E-01      0.113133E-01
      0.550000E-01      0.107409E-01
      0.600000E-01      0.101457E-01
      0.650000E-01      0.953447E-02
      0.700000E-01      0.891391E-02
      0.750000E-01      0.829047E-02
      0.800000E-01      0.767030E-02
      0.850000E-01      0.705913E-02
      0.900000E-01      0.646220E-02
      0.950000E-01      0.588418E-02
      0.100000          0.532914E-02
      0.105000          0.480052E-02
      0.110000          0.430108E-02
      0.115000          0.383297E-02
      0.120000          0.339764E-02
      0.125000          0.299597E-02
      0.130000          0.262826E-02
      0.135000          0.229426E-02
      0.140000          0.199328E-02
      0.145000          0.172419E-02
      0.150000          0.148554E-02
      0.155000          0.127559E-02
      0.160000          0.109239E-02
      0.165000          0.933861E-03
      0.170000          0.797808E-03
      0.175000          0.682023E-03
      0.180000          0.584311E-03
      0.185000          0.502537E-03
      0.190000          0.434663E-03
      0.195000          0.378775E-03
      0.200000          0.333106E-03
      0.205000          0.296048E-03
      0.210000          0.266162E-03
      0.215000          0.242177E-03
      0.220000          0.222993E-03
      0.225000          0.207668E-03
      0.230000          0.195412E-03
      0.235000          0.185569E-03
      0.240000          0.177610E-03
      0.245000          0.171111E-03
      0.250000          0.165739E-03
      0.255000          0.161240E-03
      0.260000          0.157419E-03
      0.265000          0.154131E-03
      0.270000          0.151270E-03
      0.275000          0.148754E-03
      0.280000          0.146522E-03
      0.285000          0.144524E-03
      0.290000          0.142718E-03
      0.295000          0.141066E-03
      0.300000          0.139530E-03
      0.305000          0.138074E-03
      0.310000          0.136661E-03
      0.315000          0.135257E-03
      0.320000          0.133825E-03
      0.325000          0.132335E-03
      0.330000          0.130758E-03
      0.335000          0.129071E-03
      0.340000          0.127253E-03
      0.345000          0.125294E-03
      0.350000          0.123188E-03
      0.355000          0.120933E-03
      0.360000          0.118537E-03
      0.365000          0.116012E-03
      0.370000          0.113374E-03
      0.375000          0.110643E-03
      0.380000          0.107845E-03
      0.385000          0.105003E-03
      0.390000          0.102144E-03
      0.395000          0.992934E-04
      0.400000          0.964767E-04
      0.405000          0.937166E-04
      0.410000          0.910334E-04
      0.415000          0.884447E-04
      0.420000          0.859647E-04
      0.425000          0.836044E-04
      0.430000          0.813716E-04
      0.435000          0.792708E-04
      0.440000          0.773039E-04
      0.445000          0.754702E-04
      0.450000          0.737670E-04
      0.455000          0.721900E-04
      0.460000          0.707335E-04
      0.465000          0.693916E-04
      0.470000          0.681575E-04
      0.475000          0.670248E-04
      0.480000          0.659875E-04
      0.485000          0.650398E-04
      0.490000          0.641770E-04
      0.495000          0.633952E-04
      0.500000          0.626913E-04
