 I_abs(s)[cm^-1]/c[mg/ml]
       0.00000          0.144921E-01
      0.500000E-02      0.144479E-01
      0.100000E-01      0.143160E-01
      0.150000E-01      0.140992E-01
      0.200000E-01      0.138015E-01
      0.250000E-01      0.134289E-01
      0.300000E-01      0.129882E-01
      0.350000E-01      0.124875E-01
      0.400000E-01      0.119358E-01
      0.450000E-01      0.113425E-01
      0.500000E-01      0.107173E-01
      0.550000E-01      0.100698E-01
      0.600000E-01      0.940955E-02
      0.650000E-01      0.874537E-02
      0.700000E-01      0.808552E-02
      0.750000E-01      0.743739E-02
      0.800000E-01      0.680742E-02
      0.850000E-01      0.620104E-02
      0.900000E-01      0.562263E-02
      0.950000E-01      0.507555E-02
      0.100000          0.456219E-02
      0.105000          0.408403E-02
      0.110000          0.364174E-02
      0.115000          0.323530E-02
      0.120000          0.286411E-02
      0.125000          0.252708E-02
      0.130000          0.222279E-02
      0.135000          0.194954E-02
      0.140000          0.170549E-02
      0.145000          0.148866E-02
      0.150000          0.129708E-02
      0.155000          0.112876E-02
      0.160000          0.981757E-03
      0.165000          0.854198E-03
      0.170000          0.744275E-03
      0.175000          0.650263E-03
      0.180000          0.570517E-03
      0.185000          0.503474E-03
      0.190000          0.447651E-03
      0.195000          0.401641E-03
      0.200000          0.364122E-03
      0.205000          0.333853E-03
      0.210000          0.309681E-03
      0.215000          0.290545E-03
      0.220000          0.275481E-03
      0.225000          0.263629E-03
      0.230000          0.254234E-03
      0.235000          0.246648E-03
      0.240000          0.240330E-03
      0.245000          0.234841E-03
      0.250000          0.229841E-03
      0.255000          0.225076E-03
      0.260000          0.220373E-03
      0.265000          0.215623E-03
      0.270000          0.210774E-03
      0.275000          0.205814E-03
      0.280000          0.200760E-03
      0.285000          0.195650E-03
      0.290000          0.190531E-03
      0.295000          0.185452E-03
      0.300000          0.180460E-03
      0.305000          0.175591E-03
      0.310000          0.170878E-03
      0.315000          0.166341E-03
      0.320000          0.161990E-03
      0.325000          0.157830E-03
      0.330000          0.153860E-03
      0.335000          0.150074E-03
      0.340000          0.146464E-03
      0.345000          0.143020E-03
      0.350000          0.139735E-03
      0.355000          0.136599E-03
      0.360000          0.133605E-03
      0.365000          0.130745E-03
      0.370000          0.128011E-03
      0.375000          0.125394E-03
      0.380000          0.122884E-03
      0.385000          0.120468E-03
      0.390000          0.118133E-03
      0.395000          0.115864E-03
      0.400000          0.113646E-03
      0.405000          0.111462E-03
      0.410000          0.109298E-03
      0.415000          0.107142E-03
      0.420000          0.104984E-03
      0.425000          0.102821E-03
      0.430000          0.100650E-03
      0.435000          0.984790E-04
      0.440000          0.963167E-04
      0.445000          0.941787E-04
      0.450000          0.920841E-04
      0.455000          0.900552E-04
      0.460000          0.881158E-04
      0.465000          0.862902E-04
      0.470000          0.846012E-04
      0.475000          0.830692E-04
      0.480000          0.817109E-04
      0.485000          0.805380E-04
      0.490000          0.795572E-04
      0.495000          0.787693E-04
      0.500000          0.781696E-04
