 I_abs(s)[cm^-1]/c[mg/ml]
       0.00000          0.146429E-01
      0.500000E-02      0.146068E-01
      0.100000E-01      0.144990E-01
      0.150000E-01      0.143211E-01
      0.200000E-01      0.140756E-01
      0.250000E-01      0.137659E-01
      0.300000E-01      0.133964E-01
      0.350000E-01      0.129722E-01
      0.400000E-01      0.124989E-01
      0.450000E-01      0.119829E-01
      0.500000E-01      0.114307E-01
      0.550000E-01      0.108493E-01
      0.600000E-01      0.102458E-01
      0.650000E-01      0.962708E-02
      0.700000E-01      0.900010E-02
      0.750000E-01      0.837146E-02
      0.800000E-01      0.774738E-02
      0.850000E-01      0.713366E-02
      0.900000E-01      0.653550E-02
      0.950000E-01      0.595751E-02
      0.100000          0.540367E-02
      0.105000          0.487724E-02
      0.110000          0.438082E-02
      0.115000          0.391631E-02
      0.120000          0.348496E-02
      0.125000          0.308739E-02
      0.130000          0.272366E-02
      0.135000          0.239331E-02
      0.140000          0.209541E-02
      0.145000          0.182868E-02
      0.150000          0.159150E-02
      0.155000          0.138203E-02
      0.160000          0.119824E-02
      0.165000          0.103801E-02
      0.170000          0.899161E-03
      0.175000          0.779539E-03
      0.180000          0.677027E-03
      0.185000          0.589607E-03
      0.190000          0.515378E-03
      0.195000          0.452588E-03
      0.200000          0.399638E-03
      0.205000          0.355099E-03
      0.210000          0.317705E-03
      0.215000          0.286357E-03
      0.220000          0.260106E-03
      0.225000          0.238148E-03
      0.230000          0.219809E-03
      0.235000          0.204523E-03
      0.240000          0.191824E-03
      0.245000          0.181325E-03
      0.250000          0.172705E-03
      0.255000          0.165693E-03
      0.260000          0.160059E-03
      0.265000          0.155602E-03
      0.270000          0.152140E-03
      0.275000          0.149507E-03
      0.280000          0.147548E-03
      0.285000          0.146116E-03
      0.290000          0.145071E-03
      0.295000          0.144280E-03
      0.300000          0.143619E-03
      0.305000          0.142975E-03
      0.310000          0.142244E-03
      0.315000          0.141338E-03
      0.320000          0.140186E-03
      0.325000          0.138730E-03
      0.330000          0.136933E-03
      0.335000          0.134775E-03
      0.340000          0.132254E-03
      0.345000          0.129382E-03
      0.350000          0.126189E-03
      0.355000          0.122717E-03
      0.360000          0.119016E-03
      0.365000          0.115148E-03
      0.370000          0.111175E-03
      0.375000          0.107164E-03
      0.380000          0.103181E-03
      0.385000          0.992868E-04
      0.390000          0.955392E-04
      0.395000          0.919871E-04
      0.400000          0.886710E-04
      0.405000          0.856219E-04
      0.410000          0.828606E-04
      0.415000          0.803978E-04
      0.420000          0.782343E-04
      0.425000          0.763620E-04
      0.430000          0.747645E-04
      0.435000          0.734186E-04
      0.440000          0.722960E-04
      0.445000          0.713640E-04
      0.450000          0.705878E-04
      0.455000          0.699317E-04
      0.460000          0.693605E-04
      0.465000          0.688408E-04
      0.470000          0.683418E-04
      0.475000          0.678368E-04
      0.480000          0.673033E-04
      0.485000          0.667237E-04
      0.490000          0.660856E-04
      0.495000          0.653817E-04
      0.500000          0.646094E-04
