 I_abs(s)[cm^-1]/c[mg/ml]
       0.00000          0.145555E-01
      0.500000E-02      0.145181E-01
      0.100000E-01      0.144064E-01
      0.150000E-01      0.142222E-01
      0.200000E-01      0.139680E-01
      0.250000E-01      0.136478E-01
      0.300000E-01      0.132660E-01
      0.350000E-01      0.128282E-01
      0.400000E-01      0.123406E-01
      0.450000E-01      0.118097E-01
      0.500000E-01      0.112427E-01
      0.550000E-01      0.106469E-01
      0.600000E-01      0.100296E-01
      0.650000E-01      0.939837E-02
      0.700000E-01      0.876025E-02
      0.750000E-01      0.812214E-02
      0.800000E-01      0.749045E-02
      0.850000E-01      0.687106E-02
      0.900000E-01      0.626927E-02
      0.950000E-01      0.568968E-02
      0.100000          0.513620E-02
      0.105000          0.461202E-02
      0.110000          0.411959E-02
      0.115000          0.366066E-02
      0.120000          0.323631E-02
      0.125000          0.284698E-02
      0.130000          0.249254E-02
      0.135000          0.217236E-02
      0.140000          0.188535E-02
      0.145000          0.163008E-02
      0.150000          0.140482E-02
      0.155000          0.120761E-02
      0.160000          0.103635E-02
      0.165000          0.888852E-03
      0.170000          0.762879E-03
      0.175000          0.656227E-03
      0.180000          0.566743E-03
      0.185000          0.492369E-03
      0.190000          0.431163E-03
      0.195000          0.381320E-03
      0.200000          0.341184E-03
      0.205000          0.309252E-03
      0.210000          0.284179E-03
      0.215000          0.264770E-03
      0.220000          0.249977E-03
      0.225000          0.238887E-03
      0.230000          0.230716E-03
      0.235000          0.224791E-03
      0.240000          0.220546E-03
      0.245000          0.217505E-03
      0.250000          0.215272E-03
      0.255000          0.213522E-03
      0.260000          0.211994E-03
      0.265000          0.210477E-03
      0.270000          0.208809E-03
      0.275000          0.206869E-03
      0.280000          0.204570E-03
      0.285000          0.201856E-03
      0.290000          0.198698E-03
      0.295000          0.195090E-03
      0.300000          0.191048E-03
      0.305000          0.186602E-03
      0.310000          0.181797E-03
      0.315000          0.176690E-03
      0.320000          0.171344E-03
      0.325000          0.165829E-03
      0.330000          0.160216E-03
      0.335000          0.154579E-03
      0.340000          0.148985E-03
      0.345000          0.143501E-03
      0.350000          0.138185E-03
      0.355000          0.133088E-03
      0.360000          0.128252E-03
      0.365000          0.123707E-03
      0.370000          0.119477E-03
      0.375000          0.115572E-03
      0.380000          0.111995E-03
      0.385000          0.108738E-03
      0.390000          0.105786E-03
      0.395000          0.103117E-03
      0.400000          0.100703E-03
      0.405000          0.985136E-04
      0.410000          0.965147E-04
      0.415000          0.946716E-04
      0.420000          0.929501E-04
      0.425000          0.913174E-04
      0.430000          0.897440E-04
      0.435000          0.882034E-04
      0.440000          0.866740E-04
      0.445000          0.851385E-04
      0.450000          0.835849E-04
      0.455000          0.820061E-04
      0.460000          0.803998E-04
      0.465000          0.787682E-04
      0.470000          0.771177E-04
      0.475000          0.754579E-04
      0.480000          0.738014E-04
      0.485000          0.721629E-04
      0.490000          0.705586E-04
      0.495000          0.690052E-04
      0.500000          0.675198E-04
