 I_abs(s)[cm^-1]/c[mg/ml]
       0.00000          0.145317E-01
      0.500000E-02      0.144943E-01
      0.100000E-01      0.143827E-01
      0.150000E-01      0.141986E-01
      0.200000E-01      0.139446E-01
      0.250000E-01      0.136246E-01
      0.300000E-01      0.132432E-01
      0.350000E-01      0.128058E-01
      0.400000E-01      0.123187E-01
      0.450000E-01      0.117884E-01
      0.500000E-01      0.112221E-01
      0.550000E-01      0.106271E-01
      0.600000E-01      0.100109E-01
      0.650000E-01      0.938078E-02
      0.700000E-01      0.874393E-02
      0.750000E-01      0.810721E-02
      0.800000E-01      0.747702E-02
      0.850000E-01      0.685924E-02
      0.900000E-01      0.625912E-02
      0.950000E-01      0.568123E-02
      0.100000          0.512945E-02
      0.105000          0.460690E-02
      0.110000          0.411600E-02
      0.115000          0.365844E-02
      0.120000          0.323522E-02
      0.125000          0.284673E-02
      0.130000          0.249280E-02
      0.135000          0.217272E-02
      0.140000          0.188540E-02
      0.145000          0.162934E-02
      0.150000          0.140282E-02
      0.155000          0.120386E-02
      0.160000          0.103038E-02
      0.165000          0.880217E-03
      0.170000          0.751189E-03
      0.175000          0.641152E-03
      0.180000          0.548031E-03
      0.185000          0.469856E-03
      0.190000          0.404786E-03
      0.195000          0.351121E-03
      0.200000          0.307311E-03
      0.205000          0.271961E-03
      0.210000          0.243823E-03
      0.215000          0.221794E-03
      0.220000          0.204902E-03
      0.225000          0.192296E-03
      0.230000          0.183232E-03
      0.235000          0.177063E-03
      0.240000          0.173221E-03
      0.245000          0.171211E-03
      0.250000          0.170598E-03
      0.255000          0.170999E-03
      0.260000          0.172078E-03
      0.265000          0.173539E-03
      0.270000          0.175123E-03
      0.275000          0.176608E-03
      0.280000          0.177805E-03
      0.285000          0.178558E-03
      0.290000          0.178744E-03
      0.295000          0.178272E-03
      0.300000          0.177085E-03
      0.305000          0.175156E-03
      0.310000          0.172488E-03
      0.315000          0.169111E-03
      0.320000          0.165079E-03
      0.325000          0.160472E-03
      0.330000          0.155381E-03
      0.335000          0.149915E-03
      0.340000          0.144189E-03
      0.345000          0.138325E-03
      0.350000          0.132440E-03
      0.355000          0.126651E-03
      0.360000          0.121062E-03
      0.365000          0.115769E-03
      0.370000          0.110852E-03
      0.375000          0.106373E-03
      0.380000          0.102380E-03
      0.385000          0.989013E-04
      0.390000          0.959479E-04
      0.395000          0.935150E-04
      0.400000          0.915826E-04
      0.405000          0.901180E-04
      0.410000          0.890778E-04
      0.415000          0.884105E-04
      0.420000          0.880593E-04
      0.425000          0.879643E-04
      0.430000          0.880648E-04
      0.435000          0.883021E-04
      0.440000          0.886207E-04
      0.445000          0.889703E-04
      0.450000          0.893066E-04
      0.455000          0.895928E-04
      0.460000          0.897991E-04
      0.465000          0.899038E-04
      0.470000          0.898921E-04
      0.475000          0.897566E-04
      0.480000          0.894959E-04
      0.485000          0.891142E-04
      0.490000          0.886201E-04
      0.495000          0.880256E-04
      0.500000          0.873454E-04
