 I_abs(s)[cm^-1]/c[mg/ml]
       0.00000          0.144604E-01
      0.500000E-02      0.144237E-01
      0.100000E-01      0.143140E-01
      0.150000E-01      0.141330E-01
      0.200000E-01      0.138832E-01
      0.250000E-01      0.135682E-01
      0.300000E-01      0.131926E-01
      0.350000E-01      0.127615E-01
      0.400000E-01      0.122809E-01
      0.450000E-01      0.117573E-01
      0.500000E-01      0.111976E-01
      0.550000E-01      0.106089E-01
      0.600000E-01      0.999845E-02
      0.650000E-01      0.937356E-02
      0.700000E-01      0.874133E-02
      0.750000E-01      0.810860E-02
      0.800000E-01      0.748179E-02
      0.850000E-01      0.686685E-02
      0.900000E-01      0.626914E-02
      0.950000E-01      0.569340E-02
      0.100000          0.514365E-02
      0.105000          0.462320E-02
      0.110000          0.413463E-02
      0.115000          0.367982E-02
      0.120000          0.325992E-02
      0.125000          0.287542E-02
      0.130000          0.252623E-02
      0.135000          0.221169E-02
      0.140000          0.193066E-02
      0.145000          0.168161E-02
      0.150000          0.146265E-02
      0.155000          0.127169E-02
      0.160000          0.110641E-02
      0.165000          0.964417E-03
      0.170000          0.843279E-03
      0.175000          0.740577E-03
      0.180000          0.653969E-03
      0.185000          0.581230E-03
      0.190000          0.520286E-03
      0.195000          0.469240E-03
      0.200000          0.426388E-03
      0.205000          0.390229E-03
      0.210000          0.359467E-03
      0.215000          0.333006E-03
      0.220000          0.309940E-03
      0.225000          0.289540E-03
      0.230000          0.271234E-03
      0.235000          0.254589E-03
      0.240000          0.239290E-03
      0.245000          0.225121E-03
      0.250000          0.211942E-03
      0.255000          0.199671E-03
      0.260000          0.188267E-03
      0.265000          0.177715E-03
      0.270000          0.168013E-03
      0.275000          0.159164E-03
      0.280000          0.151164E-03
      0.285000          0.144001E-03
      0.290000          0.137650E-03
      0.295000          0.132071E-03
      0.300000          0.127213E-03
      0.305000          0.123011E-03
      0.310000          0.119392E-03
      0.315000          0.116276E-03
      0.320000          0.113581E-03
      0.325000          0.111228E-03
      0.330000          0.109139E-03
      0.335000          0.107244E-03
      0.340000          0.105482E-03
      0.345000          0.103805E-03
      0.350000          0.102174E-03
      0.355000          0.100563E-03
      0.360000          0.989581E-04
      0.365000          0.973563E-04
      0.370000          0.957639E-04
      0.375000          0.941952E-04
      0.380000          0.926702E-04
      0.385000          0.912129E-04
      0.390000          0.898489E-04
      0.395000          0.886035E-04
      0.400000          0.874999E-04
      0.405000          0.865575E-04
      0.410000          0.857908E-04
      0.415000          0.852081E-04
      0.420000          0.848111E-04
      0.425000          0.845948E-04
      0.430000          0.845471E-04
      0.435000          0.846496E-04
      0.440000          0.848783E-04
      0.445000          0.852042E-04
      0.450000          0.855947E-04
      0.455000          0.860146E-04
      0.460000          0.864276E-04
      0.465000          0.867974E-04
      0.470000          0.870891E-04
      0.475000          0.872701E-04
      0.480000          0.873119E-04
      0.485000          0.871901E-04
      0.490000          0.868857E-04
      0.495000          0.863856E-04
      0.500000          0.856826E-04
