 I_abs(s)[cm^-1]/c[mg/ml]
       0.00000          0.144921E-01
      0.500000E-02      0.144578E-01
      0.100000E-01      0.143552E-01
      0.150000E-01      0.141858E-01
      0.200000E-01      0.139518E-01
      0.250000E-01      0.136562E-01
      0.300000E-01      0.133028E-01
      0.350000E-01      0.128960E-01
      0.400000E-01      0.124411E-01
      0.450000E-01      0.119436E-01
      0.500000E-01      0.114095E-01
      0.550000E-01      0.108451E-01
      0.600000E-01      0.102568E-01
      0.650000E-01      0.965108E-02
      0.700000E-01      0.903447E-02
      0.750000E-01      0.841323E-02
      0.800000E-01      0.779338E-02
      0.850000E-01      0.718059E-02
      0.900000E-01      0.658010E-02
      0.950000E-01      0.599667E-02
      0.100000          0.543449E-02
      0.105000          0.489718E-02
      0.110000          0.438774E-02
      0.115000          0.390857E-02
      0.120000          0.346143E-02
      0.125000          0.304749E-02
      0.130000          0.266735E-02
      0.135000          0.232109E-02
      0.140000          0.200827E-02
      0.145000          0.172803E-02
      0.150000          0.147915E-02
      0.155000          0.126007E-02
      0.160000          0.106898E-02
      0.165000          0.903884E-03
      0.170000          0.762638E-03
      0.175000          0.643036E-03
      0.180000          0.542840E-03
      0.185000          0.459839E-03
      0.190000          0.391884E-03
      0.195000          0.336925E-03
      0.200000          0.293040E-03
      0.205000          0.258457E-03
      0.210000          0.231566E-03
      0.215000          0.210930E-03
      0.220000          0.195290E-03
      0.225000          0.183560E-03
      0.230000          0.174821E-03
      0.235000          0.168316E-03
      0.240000          0.163429E-03
      0.245000          0.159680E-03
      0.250000          0.156700E-03
      0.255000          0.154222E-03
      0.260000          0.152059E-03
      0.265000          0.150091E-03
      0.270000          0.148250E-03
      0.275000          0.146502E-03
      0.280000          0.144843E-03
      0.285000          0.143281E-03
      0.290000          0.141830E-03
      0.295000          0.140507E-03
      0.300000          0.139322E-03
      0.305000          0.138278E-03
      0.310000          0.137367E-03
      0.315000          0.136573E-03
      0.320000          0.135869E-03
      0.325000          0.135221E-03
      0.330000          0.134587E-03
      0.335000          0.133925E-03
      0.340000          0.133188E-03
      0.345000          0.132333E-03
      0.350000          0.131318E-03
      0.355000          0.130109E-03
      0.360000          0.128677E-03
      0.365000          0.127003E-03
      0.370000          0.125077E-03
      0.375000          0.122897E-03
      0.380000          0.120471E-03
      0.385000          0.117816E-03
      0.390000          0.114956E-03
      0.395000          0.111923E-03
      0.400000          0.108752E-03
      0.405000          0.105485E-03
      0.410000          0.102163E-03
      0.415000          0.988300E-04
      0.420000          0.955296E-04
      0.425000          0.923026E-04
      0.430000          0.891872E-04
      0.435000          0.862177E-04
      0.440000          0.834237E-04
      0.445000          0.808297E-04
      0.450000          0.784547E-04
      0.455000          0.763119E-04
      0.460000          0.744091E-04
      0.465000          0.727490E-04
      0.470000          0.713291E-04
      0.475000          0.701427E-04
      0.480000          0.691790E-04
      0.485000          0.684245E-04
      0.490000          0.678627E-04
      0.495000          0.674754E-04
      0.500000          0.672432E-04
