 I_abs(s)[cm^-1]/c[mg/ml]
       0.00000          0.145952E-01
      0.500000E-02      0.145614E-01
      0.100000E-01      0.144606E-01
      0.150000E-01      0.142940E-01
      0.200000E-01      0.140637E-01
      0.250000E-01      0.137728E-01
      0.300000E-01      0.134249E-01
      0.350000E-01      0.130243E-01
      0.400000E-01      0.125761E-01
      0.450000E-01      0.120857E-01
      0.500000E-01      0.115589E-01
      0.550000E-01      0.110018E-01
      0.600000E-01      0.104206E-01
      0.650000E-01      0.982178E-02
      0.700000E-01      0.921156E-02
      0.750000E-01      0.859608E-02
      0.800000E-01      0.798124E-02
      0.850000E-01      0.737259E-02
      0.900000E-01      0.677528E-02
      0.950000E-01      0.619399E-02
      0.100000          0.563287E-02
      0.105000          0.509549E-02
      0.110000          0.458487E-02
      0.115000          0.410340E-02
      0.120000          0.365288E-02
      0.125000          0.323454E-02
      0.130000          0.284906E-02
      0.135000          0.249657E-02
      0.140000          0.217676E-02
      0.145000          0.188886E-02
      0.150000          0.163175E-02
      0.155000          0.140399E-02
      0.160000          0.120388E-02
      0.165000          0.102953E-02
      0.170000          0.878901E-03
      0.175000          0.749880E-03
      0.180000          0.640317E-03
      0.185000          0.548077E-03
      0.190000          0.471076E-03
      0.195000          0.407320E-03
      0.200000          0.354930E-03
      0.205000          0.312163E-03
      0.210000          0.277432E-03
      0.215000          0.249312E-03
      0.220000          0.226545E-03
      0.225000          0.208041E-03
      0.230000          0.192871E-03
      0.235000          0.180261E-03
      0.240000          0.169580E-03
      0.245000          0.160326E-03
      0.250000          0.152112E-03
      0.255000          0.144653E-03
      0.260000          0.137744E-03
      0.265000          0.131254E-03
      0.270000          0.125104E-03
      0.275000          0.119257E-03
      0.280000          0.113707E-03
      0.285000          0.108465E-03
      0.290000          0.103554E-03
      0.295000          0.990019E-04
      0.300000          0.948337E-04
      0.305000          0.910690E-04
      0.310000          0.877195E-04
      0.315000          0.847875E-04
      0.320000          0.822657E-04
      0.325000          0.801373E-04
      0.330000          0.783777E-04
      0.335000          0.769555E-04
      0.340000          0.758342E-04
      0.345000          0.749744E-04
      0.350000          0.743356E-04
      0.355000          0.738773E-04
      0.360000          0.735608E-04
      0.365000          0.733506E-04
      0.370000          0.732148E-04
      0.375000          0.731260E-04
      0.380000          0.730612E-04
      0.385000          0.730025E-04
      0.390000          0.729360E-04
      0.395000          0.728525E-04
      0.400000          0.727459E-04
      0.405000          0.726134E-04
      0.410000          0.724546E-04
      0.415000          0.722708E-04
      0.420000          0.720647E-04
      0.425000          0.718396E-04
      0.430000          0.715990E-04
      0.435000          0.713467E-04
      0.440000          0.710858E-04
      0.445000          0.708194E-04
      0.450000          0.705499E-04
      0.455000          0.702794E-04
      0.460000          0.700095E-04
      0.465000          0.697419E-04
      0.470000          0.694780E-04
      0.475000          0.692194E-04
      0.480000          0.689681E-04
      0.485000          0.687263E-04
      0.490000          0.684967E-04
      0.495000          0.682827E-04
      0.500000          0.680879E-04
