 I_abs(s)[cm^-1]/c[mg/ml]
       0.00000          0.146350E-01
      0.500000E-02      0.145987E-01
      0.100000E-01      0.144906E-01
      0.150000E-01      0.143121E-01
      0.200000E-01      0.140658E-01
      0.250000E-01      0.137550E-01
      0.300000E-01      0.133842E-01
      0.350000E-01      0.129585E-01
      0.400000E-01      0.124834E-01
      0.450000E-01      0.119654E-01
      0.500000E-01      0.114110E-01
      0.550000E-01      0.108271E-01
      0.600000E-01      0.102209E-01
      0.650000E-01      0.959915E-02
      0.700000E-01      0.896889E-02
      0.750000E-01      0.833669E-02
      0.800000E-01      0.770879E-02
      0.850000E-01      0.709096E-02
      0.900000E-01      0.648844E-02
      0.950000E-01      0.590587E-02
      0.100000          0.534724E-02
      0.105000          0.481587E-02
      0.110000          0.431442E-02
      0.115000          0.384485E-02
      0.120000          0.340850E-02
      0.125000          0.300610E-02
      0.130000          0.263778E-02
      0.135000          0.230320E-02
      0.140000          0.200155E-02
      0.145000          0.173163E-02
      0.150000          0.149193E-02
      0.155000          0.128069E-02
      0.160000          0.109597E-02
      0.165000          0.935694E-03
      0.170000          0.797725E-03
      0.175000          0.679910E-03
      0.180000          0.580123E-03
      0.185000          0.496304E-03
      0.190000          0.426490E-03
      0.195000          0.368839E-03
      0.200000          0.321645E-03
      0.205000          0.283350E-03
      0.210000          0.252551E-03
      0.215000          0.227997E-03
      0.220000          0.208590E-03
      0.225000          0.193375E-03
      0.230000          0.181533E-03
      0.235000          0.172372E-03
      0.240000          0.165309E-03
      0.245000          0.159865E-03
      0.250000          0.155648E-03
      0.255000          0.152343E-03
      0.260000          0.149701E-03
      0.265000          0.147528E-03
      0.270000          0.145675E-03
      0.275000          0.144031E-03
      0.280000          0.142514E-03
      0.285000          0.141068E-03
      0.290000          0.139654E-03
      0.295000          0.138250E-03
      0.300000          0.136841E-03
      0.305000          0.135424E-03
      0.310000          0.133998E-03
      0.315000          0.132569E-03
      0.320000          0.131142E-03
      0.325000          0.129726E-03
      0.330000          0.128327E-03
      0.335000          0.126951E-03
      0.340000          0.125605E-03
      0.345000          0.124289E-03
      0.350000          0.123006E-03
      0.355000          0.121754E-03
      0.360000          0.120529E-03
      0.365000          0.119324E-03
      0.370000          0.118132E-03
      0.375000          0.116943E-03
      0.380000          0.115746E-03
      0.385000          0.114528E-03
      0.390000          0.113277E-03
      0.395000          0.111982E-03
      0.400000          0.110629E-03
      0.405000          0.109210E-03
      0.410000          0.107715E-03
      0.415000          0.106137E-03
      0.420000          0.104473E-03
      0.425000          0.102720E-03
      0.430000          0.100880E-03
      0.435000          0.989560E-04
      0.440000          0.969558E-04
      0.445000          0.948883E-04
      0.450000          0.927651E-04
      0.455000          0.906002E-04
      0.460000          0.884089E-04
      0.465000          0.862083E-04
      0.470000          0.840160E-04
      0.475000          0.818502E-04
      0.480000          0.797290E-04
      0.485000          0.776700E-04
      0.490000          0.756901E-04
      0.495000          0.738047E-04
      0.500000          0.720277E-04
