 I_abs(s)[cm^-1]/c[mg/ml]
       0.00000          0.144684E-01
      0.500000E-02      0.144326E-01
      0.100000E-01      0.143257E-01
      0.150000E-01      0.141494E-01
      0.200000E-01      0.139061E-01
      0.250000E-01      0.135993E-01
      0.300000E-01      0.132332E-01
      0.350000E-01      0.128130E-01
      0.400000E-01      0.123444E-01
      0.450000E-01      0.118336E-01
      0.500000E-01      0.112871E-01
      0.550000E-01      0.107119E-01
      0.600000E-01      0.101149E-01
      0.650000E-01      0.950291E-02
      0.700000E-01      0.888283E-02
      0.750000E-01      0.826111E-02
      0.800000E-01      0.764385E-02
      0.850000E-01      0.703669E-02
      0.900000E-01      0.644471E-02
      0.950000E-01      0.587240E-02
      0.100000          0.532360E-02
      0.105000          0.480149E-02
      0.110000          0.430858E-02
      0.115000          0.384672E-02
      0.120000          0.341715E-02
      0.125000          0.302050E-02
      0.130000          0.265688E-02
      0.135000          0.232590E-02
      0.140000          0.202675E-02
      0.145000          0.175827E-02
      0.150000          0.151902E-02
      0.155000          0.130731E-02
      0.160000          0.112132E-02
      0.165000          0.959095E-03
      0.170000          0.818648E-03
      0.175000          0.697981E-03
      0.180000          0.595128E-03
      0.185000          0.508191E-03
      0.190000          0.435362E-03
      0.195000          0.374943E-03
      0.200000          0.325358E-03
      0.205000          0.285160E-03
      0.210000          0.253033E-03
      0.215000          0.227791E-03
      0.220000          0.208375E-03
      0.225000          0.193841E-03
      0.230000          0.183358E-03
      0.235000          0.176193E-03
      0.240000          0.171706E-03
      0.245000          0.169338E-03
      0.250000          0.168601E-03
      0.255000          0.169076E-03
      0.260000          0.170398E-03
      0.265000          0.172254E-03
      0.270000          0.174378E-03
      0.275000          0.176545E-03
      0.280000          0.178569E-03
      0.285000          0.180296E-03
      0.290000          0.181607E-03
      0.295000          0.182412E-03
      0.300000          0.182645E-03
      0.305000          0.182270E-03
      0.310000          0.181269E-03
      0.315000          0.179647E-03
      0.320000          0.177427E-03
      0.325000          0.174644E-03
      0.330000          0.171350E-03
      0.335000          0.167602E-03
      0.340000          0.163468E-03
      0.345000          0.159018E-03
      0.350000          0.154324E-03
      0.355000          0.149459E-03
      0.360000          0.144493E-03
      0.365000          0.139490E-03
      0.370000          0.134511E-03
      0.375000          0.129610E-03
      0.380000          0.124832E-03
      0.385000          0.120215E-03
      0.390000          0.115792E-03
      0.395000          0.111583E-03
      0.400000          0.107605E-03
      0.405000          0.103866E-03
      0.410000          0.100369E-03
      0.415000          0.971107E-04
      0.420000          0.940850E-04
      0.425000          0.912808E-04
      0.430000          0.886849E-04
      0.435000          0.862819E-04
      0.440000          0.840557E-04
      0.445000          0.819895E-04
      0.450000          0.800665E-04
      0.455000          0.782710E-04
      0.460000          0.765879E-04
      0.465000          0.750037E-04
      0.470000          0.735065E-04
      0.475000          0.720864E-04
      0.480000          0.707351E-04
      0.485000          0.694464E-04
      0.490000          0.682161E-04
      0.495000          0.670417E-04
      0.500000          0.659225E-04
