 I_abs(s)[cm^-1]/c[mg/ml]
       0.00000          0.145952E-01
      0.500000E-02      0.145560E-01
      0.100000E-01      0.144389E-01
      0.150000E-01      0.142458E-01
      0.200000E-01      0.139797E-01
      0.250000E-01      0.136448E-01
      0.300000E-01      0.132462E-01
      0.350000E-01      0.127899E-01
      0.400000E-01      0.122826E-01
      0.450000E-01      0.117318E-01
      0.500000E-01      0.111450E-01
      0.550000E-01      0.105301E-01
      0.600000E-01      0.989520E-02
      0.650000E-01      0.924808E-02
      0.700000E-01      0.859632E-02
      0.750000E-01      0.794708E-02
      0.800000E-01      0.730699E-02
      0.850000E-01      0.668204E-02
      0.900000E-01      0.607752E-02
      0.950000E-01      0.549796E-02
      0.100000          0.494708E-02
      0.105000          0.442782E-02
      0.110000          0.394232E-02
      0.115000          0.349200E-02
      0.120000          0.307755E-02
      0.125000          0.269902E-02
      0.130000          0.235593E-02
      0.135000          0.204726E-02
      0.140000          0.177163E-02
      0.145000          0.152731E-02
      0.150000          0.131233E-02
      0.155000          0.112456E-02
      0.160000          0.961777E-03
      0.165000          0.821702E-03
      0.170000          0.702086E-03
      0.175000          0.600738E-03
      0.180000          0.515560E-03
      0.185000          0.444578E-03
      0.190000          0.385955E-03
      0.195000          0.338007E-03
      0.200000          0.299202E-03
      0.205000          0.268165E-03
      0.210000          0.243668E-03
      0.215000          0.224624E-03
      0.220000          0.210081E-03
      0.225000          0.199205E-03
      0.230000          0.191271E-03
      0.235000          0.185654E-03
      0.240000          0.181816E-03
      0.245000          0.179295E-03
      0.250000          0.177702E-03
      0.255000          0.176706E-03
      0.260000          0.176033E-03
      0.265000          0.175458E-03
      0.270000          0.174802E-03
      0.275000          0.173926E-03
      0.280000          0.172727E-03
      0.285000          0.171138E-03
      0.290000          0.169119E-03
      0.295000          0.166661E-03
      0.300000          0.163773E-03
      0.305000          0.160488E-03
      0.310000          0.156854E-03
      0.315000          0.152930E-03
      0.320000          0.148787E-03
      0.325000          0.144498E-03
      0.330000          0.140143E-03
      0.335000          0.135795E-03
      0.340000          0.131529E-03
      0.345000          0.127411E-03
      0.350000          0.123500E-03
      0.355000          0.119844E-03
      0.360000          0.116485E-03
      0.365000          0.113450E-03
      0.370000          0.110758E-03
      0.375000          0.108416E-03
      0.380000          0.106423E-03
      0.385000          0.104768E-03
      0.390000          0.103432E-03
      0.395000          0.102393E-03
      0.400000          0.101620E-03
      0.405000          0.101082E-03
      0.410000          0.100744E-03
      0.415000          0.100573E-03
      0.420000          0.100532E-03
      0.425000          0.100590E-03
      0.430000          0.100715E-03
      0.435000          0.100878E-03
      0.440000          0.101056E-03
      0.445000          0.101226E-03
      0.450000          0.101369E-03
      0.455000          0.101472E-03
      0.460000          0.101522E-03
      0.465000          0.101510E-03
      0.470000          0.101431E-03
      0.475000          0.101280E-03
      0.480000          0.101056E-03
      0.485000          0.100757E-03
      0.490000          0.100385E-03
      0.495000          0.999406E-04
      0.500000          0.994267E-04
