 I_abs(s)[cm^-1]/c[mg/ml]
       0.00000          0.146190E-01
      0.500000E-02      0.145779E-01
      0.100000E-01      0.144550E-01
      0.150000E-01      0.142523E-01
      0.200000E-01      0.139730E-01
      0.250000E-01      0.136215E-01
      0.300000E-01      0.132032E-01
      0.350000E-01      0.127244E-01
      0.400000E-01      0.121922E-01
      0.450000E-01      0.116144E-01
      0.500000E-01      0.109992E-01
      0.550000E-01      0.103549E-01
      0.600000E-01      0.969025E-02
      0.650000E-01      0.901358E-02
      0.700000E-01      0.833309E-02
      0.750000E-01      0.765656E-02
      0.800000E-01      0.699121E-02
      0.850000E-01      0.634360E-02
      0.900000E-01      0.571956E-02
      0.950000E-01      0.512406E-02
      0.100000          0.456122E-02
      0.105000          0.403428E-02
      0.110000          0.354560E-02
      0.115000          0.309666E-02
      0.120000          0.268815E-02
      0.125000          0.232001E-02
      0.130000          0.199150E-02
      0.135000          0.170129E-02
      0.140000          0.144754E-02
      0.145000          0.122803E-02
      0.150000          0.104022E-02
      0.155000          0.881357E-03
      0.160000          0.748579E-03
      0.165000          0.638968E-03
      0.170000          0.549643E-03
      0.175000          0.477814E-03
      0.180000          0.420839E-03
      0.185000          0.376261E-03
      0.190000          0.341841E-03
      0.195000          0.315576E-03
      0.200000          0.295706E-03
      0.205000          0.280721E-03
      0.210000          0.269348E-03
      0.215000          0.260544E-03
      0.220000          0.253474E-03
      0.225000          0.247493E-03
      0.230000          0.242122E-03
      0.235000          0.237022E-03
      0.240000          0.231974E-03
      0.245000          0.226853E-03
      0.250000          0.221607E-03
      0.255000          0.216236E-03
      0.260000          0.210778E-03
      0.265000          0.205292E-03
      0.270000          0.199849E-03
      0.275000          0.194519E-03
      0.280000          0.189368E-03
      0.285000          0.184452E-03
      0.290000          0.179812E-03
      0.295000          0.175478E-03
      0.300000          0.171464E-03
      0.305000          0.167774E-03
      0.310000          0.164398E-03
      0.315000          0.161319E-03
      0.320000          0.158513E-03
      0.325000          0.155949E-03
      0.330000          0.153595E-03
      0.335000          0.151418E-03
      0.340000          0.149385E-03
      0.345000          0.147465E-03
      0.350000          0.145627E-03
      0.355000          0.143847E-03
      0.360000          0.142099E-03
      0.365000          0.140364E-03
      0.370000          0.138626E-03
      0.375000          0.136871E-03
      0.380000          0.135089E-03
      0.385000          0.133271E-03
      0.390000          0.131412E-03
      0.395000          0.129511E-03
      0.400000          0.127566E-03
      0.405000          0.125580E-03
      0.410000          0.123555E-03
      0.415000          0.121498E-03
      0.420000          0.119415E-03
      0.425000          0.117315E-03
      0.430000          0.115208E-03
      0.435000          0.113104E-03
      0.440000          0.111016E-03
      0.445000          0.108954E-03
      0.450000          0.106932E-03
      0.455000          0.104961E-03
      0.460000          0.103052E-03
      0.465000          0.101216E-03
      0.470000          0.994605E-04
      0.475000          0.977942E-04
      0.480000          0.962222E-04
      0.485000          0.947480E-04
      0.490000          0.933728E-04
      0.495000          0.920960E-04
      0.500000          0.909144E-04
