 I_abs(s)[cm^-1]/c[mg/ml]
       0.00000          0.145952E-01
      0.500000E-02      0.145549E-01
      0.100000E-01      0.144345E-01
      0.150000E-01      0.142361E-01
      0.200000E-01      0.139628E-01
      0.250000E-01      0.136192E-01
      0.300000E-01      0.132107E-01
      0.350000E-01      0.127435E-01
      0.400000E-01      0.122250E-01
      0.450000E-01      0.116629E-01
      0.500000E-01      0.110651E-01
      0.550000E-01      0.104401E-01
      0.600000E-01      0.979625E-02
      0.650000E-01      0.914164E-02
      0.700000E-01      0.848416E-02
      0.750000E-01      0.783118E-02
      0.800000E-01      0.718945E-02
      0.850000E-01      0.656505E-02
      0.900000E-01      0.596325E-02
      0.950000E-01      0.538851E-02
      0.100000          0.484442E-02
      0.105000          0.433371E-02
      0.110000          0.385830E-02
      0.115000          0.341931E-02
      0.120000          0.301712E-02
      0.125000          0.265148E-02
      0.130000          0.232156E-02
      0.135000          0.202603E-02
      0.140000          0.176319E-02
      0.145000          0.153104E-02
      0.150000          0.132736E-02
      0.155000          0.114980E-02
      0.160000          0.995954E-03
      0.165000          0.863419E-03
      0.170000          0.749853E-03
      0.175000          0.653013E-03
      0.180000          0.570794E-03
      0.185000          0.501250E-03
      0.190000          0.442608E-03
      0.195000          0.393275E-03
      0.200000          0.351838E-03
      0.205000          0.317058E-03
      0.210000          0.287863E-03
      0.215000          0.263329E-03
      0.220000          0.242675E-03
      0.225000          0.225240E-03
      0.230000          0.210469E-03
      0.235000          0.197902E-03
      0.240000          0.187157E-03
      0.245000          0.177916E-03
      0.250000          0.169919E-03
      0.255000          0.162950E-03
      0.260000          0.156833E-03
      0.265000          0.151420E-03
      0.270000          0.146593E-03
      0.275000          0.142253E-03
      0.280000          0.138322E-03
      0.285000          0.134736E-03
      0.290000          0.131446E-03
      0.295000          0.128414E-03
      0.300000          0.125613E-03
      0.305000          0.123023E-03
      0.310000          0.120632E-03
      0.315000          0.118433E-03
      0.320000          0.116424E-03
      0.325000          0.114606E-03
      0.330000          0.112981E-03
      0.335000          0.111550E-03
      0.340000          0.110317E-03
      0.345000          0.109281E-03
      0.350000          0.108440E-03
      0.355000          0.107790E-03
      0.360000          0.107322E-03
      0.365000          0.107023E-03
      0.370000          0.106878E-03
      0.375000          0.106868E-03
      0.380000          0.106970E-03
      0.385000          0.107159E-03
      0.390000          0.107407E-03
      0.395000          0.107685E-03
      0.400000          0.107963E-03
      0.405000          0.108212E-03
      0.410000          0.108403E-03
      0.415000          0.108508E-03
      0.420000          0.108504E-03
      0.425000          0.108368E-03
      0.430000          0.108085E-03
      0.435000          0.107639E-03
      0.440000          0.107024E-03
      0.445000          0.106236E-03
      0.450000          0.105276E-03
      0.455000          0.104150E-03
      0.460000          0.102870E-03
      0.465000          0.101450E-03
      0.470000          0.999081E-04
      0.475000          0.982664E-04
      0.480000          0.965477E-04
      0.485000          0.947768E-04
      0.490000          0.929788E-04
      0.495000          0.911785E-04
      0.500000          0.893998E-04
