 I_abs(s)[cm^-1]/c[mg/ml]
       0.00000          0.144842E-01
      0.500000E-02      0.144395E-01
      0.100000E-01      0.143062E-01
      0.150000E-01      0.140868E-01
      0.200000E-01      0.137852E-01
      0.250000E-01      0.134067E-01
      0.300000E-01      0.129582E-01
      0.350000E-01      0.124473E-01
      0.400000E-01      0.118828E-01
      0.450000E-01      0.112738E-01
      0.500000E-01      0.106302E-01
      0.550000E-01      0.996193E-02
      0.600000E-01      0.927869E-02
      0.650000E-01      0.859007E-02
      0.700000E-01      0.790509E-02
      0.750000E-01      0.723206E-02
      0.800000E-01      0.657847E-02
      0.850000E-01      0.595081E-02
      0.900000E-01      0.535453E-02
      0.950000E-01      0.479397E-02
      0.100000          0.427234E-02
      0.105000          0.379177E-02
      0.110000          0.335333E-02
      0.115000          0.295712E-02
      0.120000          0.260238E-02
      0.125000          0.228757E-02
      0.130000          0.201058E-02
      0.135000          0.176877E-02
      0.140000          0.155917E-02
      0.145000          0.137859E-02
      0.150000          0.122374E-02
      0.155000          0.109136E-02
      0.160000          0.978280E-03
      0.165000          0.881547E-03
      0.170000          0.798446E-03
      0.175000          0.726565E-03
      0.180000          0.663809E-03
      0.185000          0.608418E-03
      0.190000          0.558954E-03
      0.195000          0.514289E-03
      0.200000          0.473572E-03
      0.205000          0.436195E-03
      0.210000          0.401757E-03
      0.215000          0.370016E-03
      0.220000          0.340853E-03
      0.225000          0.314227E-03
      0.230000          0.290143E-03
      0.235000          0.268621E-03
      0.240000          0.249669E-03
      0.245000          0.233267E-03
      0.250000          0.219352E-03
      0.255000          0.207813E-03
      0.260000          0.198493E-03
      0.265000          0.191186E-03
      0.270000          0.185649E-03
      0.275000          0.181613E-03
      0.280000          0.178791E-03
      0.285000          0.176891E-03
      0.290000          0.175629E-03
      0.295000          0.174740E-03
      0.300000          0.173987E-03
      0.305000          0.173167E-03
      0.310000          0.172118E-03
      0.315000          0.170718E-03
      0.320000          0.168891E-03
      0.325000          0.166599E-03
      0.330000          0.163842E-03
      0.335000          0.160652E-03
      0.340000          0.157085E-03
      0.345000          0.153218E-03
      0.350000          0.149138E-03
      0.355000          0.144937E-03
      0.360000          0.140705E-03
      0.365000          0.136528E-03
      0.370000          0.132479E-03
      0.375000          0.128616E-03
      0.380000          0.124983E-03
      0.385000          0.121606E-03
      0.390000          0.118497E-03
      0.395000          0.115649E-03
      0.400000          0.113045E-03
      0.405000          0.110658E-03
      0.410000          0.108452E-03
      0.415000          0.106388E-03
      0.420000          0.104427E-03
      0.425000          0.102530E-03
      0.430000          0.100664E-03
      0.435000          0.988037E-04
      0.440000          0.969297E-04
      0.445000          0.950323E-04
      0.450000          0.931110E-04
      0.455000          0.911737E-04
      0.460000          0.892361E-04
      0.465000          0.873203E-04
      0.470000          0.854530E-04
      0.475000          0.836636E-04
      0.480000          0.819825E-04
      0.485000          0.804388E-04
      0.490000          0.790587E-04
      0.495000          0.778636E-04
      0.500000          0.768690E-04
