 I_abs(s)[cm^-1]/c[mg/ml]
       0.00000          0.147945E-01
      0.500000E-02      0.147471E-01
      0.100000E-01      0.146057E-01
      0.150000E-01      0.143731E-01
      0.200000E-01      0.140535E-01
      0.250000E-01      0.136529E-01
      0.300000E-01      0.131785E-01
      0.350000E-01      0.126388E-01
      0.400000E-01      0.120432E-01
      0.450000E-01      0.114016E-01
      0.500000E-01      0.107247E-01
      0.550000E-01      0.100230E-01
      0.600000E-01      0.930696E-02
      0.650000E-01      0.858667E-02
      0.700000E-01      0.787163E-02
      0.750000E-01      0.717053E-02
      0.800000E-01      0.649111E-02
      0.850000E-01      0.584003E-02
      0.900000E-01      0.522281E-02
      0.950000E-01      0.464380E-02
      0.100000          0.410614E-02
      0.105000          0.361184E-02
      0.110000          0.316184E-02
      0.115000          0.275609E-02
      0.120000          0.239368E-02
      0.125000          0.207295E-02
      0.130000          0.179166E-02
      0.135000          0.154712E-02
      0.140000          0.133629E-02
      0.145000          0.115598E-02
      0.150000          0.100288E-02
      0.155000          0.873744E-03
      0.160000          0.765424E-03
      0.165000          0.674957E-03
      0.170000          0.599615E-03
      0.175000          0.536933E-03
      0.180000          0.484733E-03
      0.185000          0.441126E-03
      0.190000          0.404502E-03
      0.195000          0.373518E-03
      0.200000          0.347072E-03
      0.205000          0.324278E-03
      0.210000          0.304432E-03
      0.215000          0.286989E-03
      0.220000          0.271529E-03
      0.225000          0.257730E-03
      0.230000          0.245352E-03
      0.235000          0.234207E-03
      0.240000          0.224154E-03
      0.245000          0.215079E-03
      0.250000          0.206888E-03
      0.255000          0.199502E-03
      0.260000          0.192852E-03
      0.265000          0.186876E-03
      0.270000          0.181520E-03
      0.275000          0.176734E-03
      0.280000          0.172473E-03
      0.285000          0.168699E-03
      0.290000          0.165375E-03
      0.295000          0.162472E-03
      0.300000          0.159958E-03
      0.305000          0.157808E-03
      0.310000          0.155991E-03
      0.315000          0.154480E-03
      0.320000          0.153243E-03
      0.325000          0.152244E-03
      0.330000          0.151446E-03
      0.335000          0.150807E-03
      0.340000          0.150284E-03
      0.345000          0.149830E-03
      0.350000          0.149400E-03
      0.355000          0.148950E-03
      0.360000          0.148435E-03
      0.365000          0.147820E-03
      0.370000          0.147072E-03
      0.375000          0.146164E-03
      0.380000          0.145081E-03
      0.385000          0.143812E-03
      0.390000          0.142357E-03
      0.395000          0.140720E-03
      0.400000          0.138917E-03
      0.405000          0.136965E-03
      0.410000          0.134888E-03
      0.415000          0.132713E-03
      0.420000          0.130467E-03
      0.425000          0.128180E-03
      0.430000          0.125876E-03
      0.435000          0.123581E-03
      0.440000          0.121316E-03
      0.445000          0.119098E-03
      0.450000          0.116940E-03
      0.455000          0.114851E-03
      0.460000          0.112836E-03
      0.465000          0.110897E-03
      0.470000          0.109034E-03
      0.475000          0.107242E-03
      0.480000          0.105519E-03
      0.485000          0.103860E-03
      0.490000          0.102259E-03
      0.495000          0.100713E-03
      0.500000          0.992206E-04
