 I_abs(s)[cm^-1]/c[mg/ml]
       0.00000          0.145000E-01
      0.500000E-02      0.144616E-01
      0.100000E-01      0.143469E-01
      0.150000E-01      0.141578E-01
      0.200000E-01      0.138972E-01
      0.250000E-01      0.135691E-01
      0.300000E-01      0.131785E-01
      0.350000E-01      0.127312E-01
      0.400000E-01      0.122337E-01
      0.450000E-01      0.116932E-01
      0.500000E-01      0.111172E-01
      0.550000E-01      0.105133E-01
      0.600000E-01      0.988945E-02
      0.650000E-01      0.925321E-02
      0.700000E-01      0.861204E-02
      0.750000E-01      0.797298E-02
      0.800000E-01      0.734257E-02
      0.850000E-01      0.672671E-02
      0.900000E-01      0.613063E-02
      0.950000E-01      0.555884E-02
      0.100000          0.501503E-02
      0.105000          0.450212E-02
      0.110000          0.402229E-02
      0.115000          0.357691E-02
      0.120000          0.316672E-02
      0.125000          0.279176E-02
      0.130000          0.245155E-02
      0.135000          0.214508E-02
      0.140000          0.187096E-02
      0.145000          0.162747E-02
      0.150000          0.141263E-02
      0.155000          0.122431E-02
      0.160000          0.106028E-02
      0.165000          0.918293E-03
      0.170000          0.796106E-03
      0.175000          0.691563E-03
      0.180000          0.602610E-03
      0.185000          0.527333E-03
      0.190000          0.463966E-03
      0.195000          0.410909E-03
      0.200000          0.366729E-03
      0.205000          0.330152E-03
      0.210000          0.300062E-03
      0.215000          0.275486E-03
      0.220000          0.255580E-03
      0.225000          0.239616E-03
      0.230000          0.226966E-03
      0.235000          0.217088E-03
      0.240000          0.209511E-03
      0.245000          0.203825E-03
      0.250000          0.199671E-03
      0.255000          0.196729E-03
      0.260000          0.194719E-03
      0.265000          0.193390E-03
      0.270000          0.192520E-03
      0.275000          0.191912E-03
      0.280000          0.191397E-03
      0.285000          0.190829E-03
      0.290000          0.190087E-03
      0.295000          0.189075E-03
      0.300000          0.187720E-03
      0.305000          0.185975E-03
      0.310000          0.183812E-03
      0.315000          0.181225E-03
      0.320000          0.178225E-03
      0.325000          0.174840E-03
      0.330000          0.171107E-03
      0.335000          0.167077E-03
      0.340000          0.162804E-03
      0.345000          0.158346E-03
      0.350000          0.153763E-03
      0.355000          0.149111E-03
      0.360000          0.144442E-03
      0.365000          0.139805E-03
      0.370000          0.135240E-03
      0.375000          0.130781E-03
      0.380000          0.126454E-03
      0.385000          0.122279E-03
      0.390000          0.118269E-03
      0.395000          0.114431E-03
      0.400000          0.110770E-03
      0.405000          0.107285E-03
      0.410000          0.103975E-03
      0.415000          0.100837E-03
      0.420000          0.978667E-04
      0.425000          0.950620E-04
      0.430000          0.924204E-04
      0.435000          0.899409E-04
      0.440000          0.876233E-04
      0.445000          0.854682E-04
      0.450000          0.834768E-04
      0.455000          0.816503E-04
      0.460000          0.799894E-04
      0.465000          0.784939E-04
      0.470000          0.771620E-04
      0.475000          0.759902E-04
      0.480000          0.749726E-04
      0.485000          0.741014E-04
      0.490000          0.733662E-04
      0.495000          0.727547E-04
      0.500000          0.722529E-04
