 I_abs(s)[cm^-1]/c[mg/ml]
       0.00000          0.145952E-01
      0.500000E-02      0.145600E-01
      0.100000E-01      0.144550E-01
      0.150000E-01      0.142815E-01
      0.200000E-01      0.140419E-01
      0.250000E-01      0.137393E-01
      0.300000E-01      0.133779E-01
      0.350000E-01      0.129623E-01
      0.400000E-01      0.124978E-01
      0.450000E-01      0.119903E-01
      0.500000E-01      0.114461E-01
      0.550000E-01      0.108717E-01
      0.600000E-01      0.102738E-01
      0.650000E-01      0.965911E-02
      0.700000E-01      0.903424E-02
      0.750000E-01      0.840567E-02
      0.800000E-01      0.777952E-02
      0.850000E-01      0.716156E-02
      0.900000E-01      0.655707E-02
      0.950000E-01      0.597078E-02
      0.100000          0.540687E-02
      0.105000          0.486887E-02
      0.110000          0.435969E-02
      0.115000          0.388158E-02
      0.120000          0.343618E-02
      0.125000          0.302451E-02
      0.130000          0.264701E-02
      0.135000          0.230358E-02
      0.140000          0.199367E-02
      0.145000          0.171628E-02
      0.150000          0.147006E-02
      0.155000          0.125338E-02
      0.160000          0.106435E-02
      0.165000          0.900931E-03
      0.170000          0.760973E-03
      0.175000          0.642266E-03
      0.180000          0.542602E-03
      0.185000          0.459810E-03
      0.190000          0.391799E-03
      0.195000          0.336589E-03
      0.200000          0.292329E-03
      0.205000          0.257320E-03
      0.210000          0.230026E-03
      0.215000          0.209074E-03
      0.220000          0.193259E-03
      0.225000          0.181537E-03
      0.230000          0.173021E-03
      0.235000          0.166963E-03
      0.240000          0.162748E-03
      0.245000          0.159878E-03
      0.250000          0.157955E-03
      0.255000          0.156670E-03
      0.260000          0.155785E-03
      0.265000          0.155123E-03
      0.270000          0.154553E-03
      0.275000          0.153982E-03
      0.280000          0.153345E-03
      0.285000          0.152596E-03
      0.290000          0.151703E-03
      0.295000          0.150646E-03
      0.300000          0.149407E-03
      0.305000          0.147976E-03
      0.310000          0.146343E-03
      0.315000          0.144501E-03
      0.320000          0.142446E-03
      0.325000          0.140177E-03
      0.330000          0.137694E-03
      0.335000          0.135002E-03
      0.340000          0.132110E-03
      0.345000          0.129031E-03
      0.350000          0.125784E-03
      0.355000          0.122391E-03
      0.360000          0.118879E-03
      0.365000          0.115277E-03
      0.370000          0.111618E-03
      0.375000          0.107938E-03
      0.380000          0.104272E-03
      0.385000          0.100655E-03
      0.390000          0.971219E-04
      0.395000          0.937039E-04
      0.400000          0.904304E-04
      0.405000          0.873264E-04
      0.410000          0.844130E-04
      0.415000          0.817063E-04
      0.420000          0.792178E-04
      0.425000          0.769540E-04
      0.430000          0.749169E-04
      0.435000          0.731040E-04
      0.440000          0.715090E-04
      0.445000          0.701224E-04
      0.450000          0.689317E-04
      0.455000          0.679226E-04
      0.460000          0.670793E-04
      0.465000          0.663854E-04
      0.470000          0.658240E-04
      0.475000          0.653792E-04
      0.480000          0.650354E-04
      0.485000          0.647786E-04
      0.490000          0.645963E-04
      0.495000          0.644776E-04
      0.500000          0.644136E-04
