 I_abs(s)[cm^-1]/c[mg/ml]
       0.00000          0.145000E-01
      0.500000E-02      0.144574E-01
      0.100000E-01      0.143304E-01
      0.150000E-01      0.141211E-01
      0.200000E-01      0.138332E-01
      0.250000E-01      0.134714E-01
      0.300000E-01      0.130419E-01
      0.350000E-01      0.125516E-01
      0.400000E-01      0.120084E-01
      0.450000E-01      0.114209E-01
      0.500000E-01      0.107978E-01
      0.550000E-01      0.101485E-01
      0.600000E-01      0.948186E-02
      0.650000E-01      0.880690E-02
      0.700000E-01      0.813209E-02
      0.750000E-01      0.746537E-02
      0.800000E-01      0.681399E-02
      0.850000E-01      0.618436E-02
      0.900000E-01      0.558199E-02
      0.950000E-01      0.501144E-02
      0.100000          0.447627E-02
      0.105000          0.397909E-02
      0.110000          0.352154E-02
      0.115000          0.310436E-02
      0.120000          0.272749E-02
      0.125000          0.239013E-02
      0.130000          0.209085E-02
      0.135000          0.182770E-02
      0.140000          0.159832E-02
      0.145000          0.140007E-02
      0.150000          0.123008E-02
      0.155000          0.108542E-02
      0.160000          0.963125E-03
      0.165000          0.860318E-03
      0.170000          0.774243E-03
      0.175000          0.702329E-03
      0.180000          0.642223E-03
      0.185000          0.591815E-03
      0.190000          0.549251E-03
      0.195000          0.512931E-03
      0.200000          0.481509E-03
      0.205000          0.453876E-03
      0.210000          0.429138E-03
      0.215000          0.406601E-03
      0.220000          0.385737E-03
      0.225000          0.366164E-03
      0.230000          0.347621E-03
      0.235000          0.329939E-03
      0.240000          0.313026E-03
      0.245000          0.296841E-03
      0.250000          0.281379E-03
      0.255000          0.266660E-03
      0.260000          0.252714E-03
      0.265000          0.239577E-03
      0.270000          0.227277E-03
      0.275000          0.215838E-03
      0.280000          0.205274E-03
      0.285000          0.195585E-03
      0.290000          0.186762E-03
      0.295000          0.178783E-03
      0.300000          0.171615E-03
      0.305000          0.165219E-03
      0.310000          0.159544E-03
      0.315000          0.154534E-03
      0.320000          0.150129E-03
      0.325000          0.146264E-03
      0.330000          0.142874E-03
      0.335000          0.139889E-03
      0.340000          0.137245E-03
      0.345000          0.134875E-03
      0.350000          0.132718E-03
      0.355000          0.130717E-03
      0.360000          0.128818E-03
      0.365000          0.126976E-03
      0.370000          0.125153E-03
      0.375000          0.123315E-03
      0.380000          0.121440E-03
      0.385000          0.119512E-03
      0.390000          0.117522E-03
      0.395000          0.115468E-03
      0.400000          0.113355E-03
      0.405000          0.111194E-03
      0.410000          0.108998E-03
      0.415000          0.106784E-03
      0.420000          0.104571E-03
      0.425000          0.102377E-03
      0.430000          0.100219E-03
      0.435000          0.981141E-04
      0.440000          0.960733E-04
      0.445000          0.941060E-04
      0.450000          0.922173E-04
      0.455000          0.904082E-04
      0.460000          0.886759E-04
      0.465000          0.870142E-04
      0.470000          0.854144E-04
      0.475000          0.838658E-04
      0.480000          0.823567E-04
      0.485000          0.808758E-04
      0.490000          0.794124E-04
      0.495000          0.779582E-04
      0.500000          0.765075E-04
