 I_abs(s)[cm^-1]/c[mg/ml]
       0.00000          0.146668E-01
      0.500000E-02      0.146309E-01
      0.100000E-01      0.145238E-01
      0.150000E-01      0.143470E-01
      0.200000E-01      0.141030E-01
      0.250000E-01      0.137952E-01
      0.300000E-01      0.134279E-01
      0.350000E-01      0.130062E-01
      0.400000E-01      0.125356E-01
      0.450000E-01      0.120224E-01
      0.500000E-01      0.114730E-01
      0.550000E-01      0.108945E-01
      0.600000E-01      0.102936E-01
      0.650000E-01      0.967723E-02
      0.700000E-01      0.905223E-02
      0.750000E-01      0.842507E-02
      0.800000E-01      0.780189E-02
      0.850000E-01      0.718835E-02
      0.900000E-01      0.658960E-02
      0.950000E-01      0.601020E-02
      0.100000          0.545405E-02
      0.105000          0.492442E-02
      0.110000          0.442391E-02
      0.115000          0.395446E-02
      0.120000          0.351740E-02
      0.125000          0.311343E-02
      0.130000          0.274275E-02
      0.135000          0.240502E-02
      0.140000          0.209950E-02
      0.145000          0.182507E-02
      0.150000          0.158030E-02
      0.155000          0.136352E-02
      0.160000          0.117290E-02
      0.165000          0.100647E-02
      0.170000          0.862193E-03
      0.175000          0.738037E-03
      0.180000          0.631977E-03
      0.185000          0.542050E-03
      0.190000          0.466382E-03
      0.195000          0.403207E-03
      0.200000          0.350884E-03
      0.205000          0.307905E-03
      0.210000          0.272903E-03
      0.215000          0.244649E-03
      0.220000          0.222051E-03
      0.225000          0.204150E-03
      0.230000          0.190107E-03
      0.235000          0.179201E-03
      0.240000          0.170813E-03
      0.245000          0.164417E-03
      0.250000          0.159573E-03
      0.255000          0.155913E-03
      0.260000          0.153132E-03
      0.265000          0.150982E-03
      0.270000          0.149263E-03
      0.275000          0.147814E-03
      0.280000          0.146508E-03
      0.285000          0.145250E-03
      0.290000          0.143966E-03
      0.295000          0.142604E-03
      0.300000          0.141129E-03
      0.305000          0.139520E-03
      0.310000          0.137765E-03
      0.315000          0.135865E-03
      0.320000          0.133824E-03
      0.325000          0.131654E-03
      0.330000          0.129369E-03
      0.335000          0.126989E-03
      0.340000          0.124531E-03
      0.345000          0.122015E-03
      0.350000          0.119460E-03
      0.355000          0.116886E-03
      0.360000          0.114309E-03
      0.365000          0.111746E-03
      0.370000          0.109211E-03
      0.375000          0.106716E-03
      0.380000          0.104272E-03
      0.385000          0.101888E-03
      0.390000          0.995721E-04
      0.395000          0.973303E-04
      0.400000          0.951676E-04
      0.405000          0.930879E-04
      0.410000          0.910945E-04
      0.415000          0.891896E-04
      0.420000          0.873750E-04
      0.425000          0.856515E-04
      0.430000          0.840196E-04
      0.435000          0.824791E-04
      0.440000          0.810295E-04
      0.445000          0.796693E-04
      0.450000          0.783969E-04
      0.455000          0.772098E-04
      0.460000          0.761052E-04
      0.465000          0.750798E-04
      0.470000          0.741299E-04
      0.475000          0.732515E-04
      0.480000          0.724404E-04
      0.485000          0.716924E-04
      0.490000          0.710033E-04
      0.495000          0.703692E-04
      0.500000          0.697863E-04
