 I_abs(s)[cm^-1]/c[mg/ml]
       0.00000          0.145079E-01
      0.500000E-02      0.144705E-01
      0.100000E-01      0.143588E-01
      0.150000E-01      0.141744E-01
      0.200000E-01      0.139201E-01
      0.250000E-01      0.135996E-01
      0.300000E-01      0.132175E-01
      0.350000E-01      0.127794E-01
      0.400000E-01      0.122913E-01
      0.450000E-01      0.117600E-01
      0.500000E-01      0.111926E-01
      0.550000E-01      0.105964E-01
      0.600000E-01      0.997891E-02
      0.650000E-01      0.934757E-02
      0.700000E-01      0.870962E-02
      0.750000E-01      0.807200E-02
      0.800000E-01      0.744121E-02
      0.850000E-01      0.682324E-02
      0.900000E-01      0.622345E-02
      0.950000E-01      0.564651E-02
      0.100000          0.509640E-02
      0.105000          0.457632E-02
      0.110000          0.408874E-02
      0.115000          0.363540E-02
      0.120000          0.321730E-02
      0.125000          0.283482E-02
      0.130000          0.248771E-02
      0.135000          0.217520E-02
      0.140000          0.189604E-02
      0.145000          0.164860E-02
      0.150000          0.143095E-02
      0.155000          0.124093E-02
      0.160000          0.107623E-02
      0.165000          0.934444E-03
      0.170000          0.813171E-03
      0.175000          0.710037E-03
      0.180000          0.622758E-03
      0.185000          0.549179E-03
      0.190000          0.487298E-03
      0.195000          0.435296E-03
      0.200000          0.391542E-03
      0.205000          0.354602E-03
      0.210000          0.323238E-03
      0.215000          0.296402E-03
      0.220000          0.273219E-03
      0.225000          0.252978E-03
      0.230000          0.235111E-03
      0.235000          0.219177E-03
      0.240000          0.204840E-03
      0.245000          0.191849E-03
      0.250000          0.180026E-03
      0.255000          0.169243E-03
      0.260000          0.159411E-03
      0.265000          0.150467E-03
      0.270000          0.142364E-03
      0.275000          0.135062E-03
      0.280000          0.128526E-03
      0.285000          0.122716E-03
      0.290000          0.117588E-03
      0.295000          0.113097E-03
      0.300000          0.109188E-03
      0.305000          0.105807E-03
      0.310000          0.102896E-03
      0.315000          0.100397E-03
      0.320000          0.982525E-04
      0.325000          0.964110E-04
      0.330000          0.948241E-04
      0.335000          0.934495E-04
      0.340000          0.922520E-04
      0.345000          0.912032E-04
      0.350000          0.902814E-04
      0.355000          0.894717E-04
      0.360000          0.887647E-04
      0.365000          0.881556E-04
      0.370000          0.876435E-04
      0.375000          0.872297E-04
      0.380000          0.869170E-04
      0.385000          0.867083E-04
      0.390000          0.866056E-04
      0.395000          0.866094E-04
      0.400000          0.867179E-04
      0.405000          0.869266E-04
      0.410000          0.872282E-04
      0.415000          0.876123E-04
      0.420000          0.880659E-04
      0.425000          0.885734E-04
      0.430000          0.891171E-04
      0.435000          0.896780E-04
      0.440000          0.902360E-04
      0.445000          0.907707E-04
      0.450000          0.912621E-04
      0.455000          0.916910E-04
      0.460000          0.920397E-04
      0.465000          0.922926E-04
      0.470000          0.924363E-04
      0.475000          0.924600E-04
      0.480000          0.923558E-04
      0.485000          0.921188E-04
      0.490000          0.917472E-04
      0.495000          0.912421E-04
      0.500000          0.906072E-04
