 I_abs(s)[cm^-1]/c[mg/ml]
       0.00000          0.146190E-01
      0.500000E-02      0.145746E-01
      0.100000E-01      0.144421E-01
      0.150000E-01      0.142237E-01
      0.200000E-01      0.139233E-01
      0.250000E-01      0.135461E-01
      0.300000E-01      0.130984E-01
      0.350000E-01      0.125876E-01
      0.400000E-01      0.120222E-01
      0.450000E-01      0.114111E-01
      0.500000E-01      0.107637E-01
      0.550000E-01      0.100897E-01
      0.600000E-01      0.939884E-02
      0.650000E-01      0.870045E-02
      0.700000E-01      0.800354E-02
      0.750000E-01      0.731654E-02
      0.800000E-01      0.664707E-02
      0.850000E-01      0.600190E-02
      0.900000E-01      0.538679E-02
      0.950000E-01      0.480649E-02
      0.100000          0.426466E-02
      0.105000          0.376391E-02
      0.110000          0.330580E-02
      0.115000          0.289092E-02
      0.120000          0.251898E-02
      0.125000          0.218889E-02
      0.130000          0.189886E-02
      0.135000          0.164657E-02
      0.140000          0.142924E-02
      0.145000          0.124381E-02
      0.150000          0.108700E-02
      0.155000          0.955497E-03
      0.160000          0.845975E-03
      0.165000          0.755244E-03
      0.170000          0.680295E-03
      0.175000          0.618367E-03
      0.180000          0.566981E-03
      0.185000          0.523968E-03
      0.190000          0.487479E-03
      0.195000          0.455986E-03
      0.200000          0.428263E-03
      0.205000          0.403363E-03
      0.210000          0.380596E-03
      0.215000          0.359484E-03
      0.220000          0.339731E-03
      0.225000          0.321183E-03
      0.230000          0.303791E-03
      0.235000          0.287579E-03
      0.240000          0.272610E-03
      0.245000          0.258962E-03
      0.250000          0.246710E-03
      0.255000          0.235905E-03
      0.260000          0.226567E-03
      0.265000          0.218677E-03
      0.270000          0.212177E-03
      0.275000          0.206972E-03
      0.280000          0.202932E-03
      0.285000          0.199899E-03
      0.290000          0.197700E-03
      0.295000          0.196148E-03
      0.300000          0.195055E-03
      0.305000          0.194240E-03
      0.310000          0.193532E-03
      0.315000          0.192782E-03
      0.320000          0.191858E-03
      0.325000          0.190657E-03
      0.330000          0.189099E-03
      0.335000          0.187130E-03
      0.340000          0.184720E-03
      0.345000          0.181860E-03
      0.350000          0.178561E-03
      0.355000          0.174848E-03
      0.360000          0.170756E-03
      0.365000          0.166332E-03
      0.370000          0.161625E-03
      0.375000          0.156687E-03
      0.380000          0.151572E-03
      0.385000          0.146329E-03
      0.390000          0.141009E-03
      0.395000          0.135656E-03
      0.400000          0.130312E-03
      0.405000          0.125015E-03
      0.410000          0.119801E-03
      0.415000          0.114704E-03
      0.420000          0.109754E-03
      0.425000          0.104981E-03
      0.430000          0.100415E-03
      0.435000          0.960831E-04
      0.440000          0.920127E-04
      0.445000          0.882293E-04
      0.450000          0.847572E-04
      0.455000          0.816176E-04
      0.460000          0.788290E-04
      0.465000          0.764054E-04
      0.470000          0.743561E-04
      0.475000          0.726845E-04
      0.480000          0.713877E-04
      0.485000          0.704560E-04
      0.490000          0.698731E-04
      0.495000          0.696154E-04
      0.500000          0.696532E-04
