 I_abs(s)[cm^-1]/c[mg/ml]
       0.00000          0.143815E-01
      0.500000E-02      0.143357E-01
      0.100000E-01      0.141994E-01
      0.150000E-01      0.139752E-01
      0.200000E-01      0.136672E-01
      0.250000E-01      0.132813E-01
      0.300000E-01      0.128247E-01
      0.350000E-01      0.123056E-01
      0.400000E-01      0.117330E-01
      0.450000E-01      0.111169E-01
      0.500000E-01      0.104674E-01
      0.550000E-01      0.979459E-02
      0.600000E-01      0.910858E-02
      0.650000E-01      0.841899E-02
      0.700000E-01      0.773481E-02
      0.750000E-01      0.706420E-02
      0.800000E-01      0.641439E-02
      0.850000E-01      0.579157E-02
      0.900000E-01      0.520079E-02
      0.950000E-01      0.464597E-02
      0.100000          0.412992E-02
      0.105000          0.365439E-02
      0.110000          0.322014E-02
      0.115000          0.282703E-02
      0.120000          0.247415E-02
      0.125000          0.215998E-02
      0.130000          0.188244E-02
      0.135000          0.163910E-02
      0.140000          0.142726E-02
      0.145000          0.124408E-02
      0.150000          0.108667E-02
      0.155000          0.952183E-03
      0.160000          0.837868E-03
      0.165000          0.741145E-03
      0.170000          0.659624E-03
      0.175000          0.591138E-03
      0.180000          0.533747E-03
      0.185000          0.485742E-03
      0.190000          0.445632E-03
      0.195000          0.412134E-03
      0.200000          0.384150E-03
      0.205000          0.360749E-03
      0.210000          0.341146E-03
      0.215000          0.324676E-03
      0.220000          0.310783E-03
      0.225000          0.298995E-03
      0.230000          0.288913E-03
      0.235000          0.280199E-03
      0.240000          0.272563E-03
      0.245000          0.265762E-03
      0.250000          0.259586E-03
      0.255000          0.253859E-03
      0.260000          0.248435E-03
      0.265000          0.243193E-03
      0.270000          0.238038E-03
      0.275000          0.232898E-03
      0.280000          0.227720E-03
      0.285000          0.222471E-03
      0.290000          0.217135E-03
      0.295000          0.211710E-03
      0.300000          0.206206E-03
      0.305000          0.200643E-03
      0.310000          0.195050E-03
      0.315000          0.189458E-03
      0.320000          0.183905E-03
      0.325000          0.178427E-03
      0.330000          0.173061E-03
      0.335000          0.167840E-03
      0.340000          0.162795E-03
      0.345000          0.157951E-03
      0.350000          0.153327E-03
      0.355000          0.148935E-03
      0.360000          0.144782E-03
      0.365000          0.140867E-03
      0.370000          0.137182E-03
      0.375000          0.133715E-03
      0.380000          0.130447E-03
      0.385000          0.127356E-03
      0.390000          0.124414E-03
      0.395000          0.121597E-03
      0.400000          0.118875E-03
      0.405000          0.116224E-03
      0.410000          0.113620E-03
      0.415000          0.111043E-03
      0.420000          0.108480E-03
      0.425000          0.105923E-03
      0.430000          0.103368E-03
      0.435000          0.100822E-03
      0.440000          0.982935E-04
      0.445000          0.957991E-04
      0.450000          0.933591E-04
      0.455000          0.909972E-04
      0.460000          0.887392E-04
      0.465000          0.866109E-04
      0.470000          0.846374E-04
      0.475000          0.828407E-04
      0.480000          0.812394E-04
      0.485000          0.798469E-04
      0.490000          0.786707E-04
      0.495000          0.777126E-04
      0.500000          0.769679E-04
