 I_abs(s)[cm^-1]/c[mg/ml]
       0.00000          0.146350E-01
      0.500000E-02      0.146001E-01
      0.100000E-01      0.144960E-01
      0.150000E-01      0.143240E-01
      0.200000E-01      0.140864E-01
      0.250000E-01      0.137865E-01
      0.300000E-01      0.134281E-01
      0.350000E-01      0.130159E-01
      0.400000E-01      0.125552E-01
      0.450000E-01      0.120517E-01
      0.500000E-01      0.115116E-01
      0.550000E-01      0.109414E-01
      0.600000E-01      0.103476E-01
      0.650000E-01      0.973698E-02
      0.700000E-01      0.911605E-02
      0.750000E-01      0.849119E-02
      0.800000E-01      0.786850E-02
      0.850000E-01      0.725369E-02
      0.900000E-01      0.665199E-02
      0.950000E-01      0.606814E-02
      0.100000          0.550628E-02
      0.105000          0.496994E-02
      0.110000          0.446203E-02
      0.115000          0.398481E-02
      0.120000          0.353991E-02
      0.125000          0.312837E-02
      0.130000          0.275063E-02
      0.135000          0.240662E-02
      0.140000          0.209578E-02
      0.145000          0.181713E-02
      0.150000          0.156932E-02
      0.155000          0.135070E-02
      0.160000          0.115940E-02
      0.165000          0.993368E-03
      0.170000          0.850433E-03
      0.175000          0.728380E-03
      0.180000          0.624989E-03
      0.185000          0.538078E-03
      0.190000          0.465551E-03
      0.195000          0.405421E-03
      0.200000          0.355841E-03
      0.205000          0.315121E-03
      0.210000          0.281740E-03
      0.215000          0.254352E-03
      0.220000          0.231787E-03
      0.225000          0.213045E-03
      0.230000          0.197290E-03
      0.235000          0.183839E-03
      0.240000          0.172145E-03
      0.245000          0.161786E-03
      0.250000          0.152445E-03
      0.255000          0.143895E-03
      0.260000          0.135985E-03
      0.265000          0.128619E-03
      0.270000          0.121750E-03
      0.275000          0.115360E-03
      0.280000          0.109451E-03
      0.285000          0.104040E-03
      0.290000          0.991444E-04
      0.295000          0.947821E-04
      0.300000          0.909645E-04
      0.305000          0.876947E-04
      0.310000          0.849658E-04
      0.315000          0.827610E-04
      0.320000          0.810534E-04
      0.325000          0.798081E-04
      0.330000          0.789830E-04
      0.335000          0.785312E-04
      0.340000          0.784027E-04
      0.345000          0.785461E-04
      0.350000          0.789109E-04
      0.355000          0.794485E-04
      0.360000          0.801137E-04
      0.365000          0.808654E-04
      0.370000          0.816672E-04
      0.375000          0.824878E-04
      0.380000          0.833008E-04
      0.385000          0.840848E-04
      0.390000          0.848226E-04
      0.395000          0.855006E-04
      0.400000          0.861088E-04
      0.405000          0.866392E-04
      0.410000          0.870862E-04
      0.415000          0.874450E-04
      0.420000          0.877119E-04
      0.425000          0.878836E-04
      0.430000          0.879568E-04
      0.435000          0.879285E-04
      0.440000          0.877956E-04
      0.445000          0.875550E-04
      0.450000          0.872042E-04
      0.455000          0.867410E-04
      0.460000          0.861644E-04
      0.465000          0.854744E-04
      0.470000          0.846727E-04
      0.475000          0.837629E-04
      0.480000          0.827507E-04
      0.485000          0.816438E-04
      0.490000          0.804528E-04
      0.495000          0.791903E-04
      0.500000          0.778712E-04
