 I_abs(s)[cm^-1]/c[mg/ml]
       0.00000          0.146270E-01
      0.500000E-02      0.145906E-01
      0.100000E-01      0.144819E-01
      0.150000E-01      0.143025E-01
      0.200000E-01      0.140550E-01
      0.250000E-01      0.137430E-01
      0.300000E-01      0.133708E-01
      0.350000E-01      0.129436E-01
      0.400000E-01      0.124672E-01
      0.450000E-01      0.119481E-01
      0.500000E-01      0.113929E-01
      0.550000E-01      0.108087E-01
      0.600000E-01      0.102025E-01
      0.650000E-01      0.958142E-02
      0.700000E-01      0.895234E-02
      0.750000E-01      0.832188E-02
      0.800000E-01      0.769624E-02
      0.850000E-01      0.708116E-02
      0.900000E-01      0.648181E-02
      0.950000E-01      0.590274E-02
      0.100000          0.534785E-02
      0.105000          0.482034E-02
      0.110000          0.432275E-02
      0.115000          0.385695E-02
      0.120000          0.342415E-02
      0.125000          0.302497E-02
      0.130000          0.265949E-02
      0.135000          0.232729E-02
      0.140000          0.202749E-02
      0.145000          0.175889E-02
      0.150000          0.151998E-02
      0.155000          0.130899E-02
      0.160000          0.112403E-02
      0.165000          0.963077E-03
      0.170000          0.824052E-03
      0.175000          0.704877E-03
      0.180000          0.603508E-03
      0.185000          0.517968E-03
      0.190000          0.446374E-03
      0.195000          0.386959E-03
      0.200000          0.338084E-03
      0.205000          0.298250E-03
      0.210000          0.266095E-03
      0.215000          0.240401E-03
      0.220000          0.220087E-03
      0.225000          0.204200E-03
      0.230000          0.191913E-03
      0.235000          0.182511E-03
      0.240000          0.175383E-03
      0.245000          0.170011E-03
      0.250000          0.165962E-03
      0.255000          0.162875E-03
      0.260000          0.160456E-03
      0.265000          0.158469E-03
      0.270000          0.156725E-03
      0.275000          0.155081E-03
      0.280000          0.153430E-03
      0.285000          0.151696E-03
      0.290000          0.149832E-03
      0.295000          0.147811E-03
      0.300000          0.145628E-03
      0.305000          0.143291E-03
      0.310000          0.140822E-03
      0.315000          0.138249E-03
      0.320000          0.135609E-03
      0.325000          0.132942E-03
      0.330000          0.130287E-03
      0.335000          0.127686E-03
      0.340000          0.125175E-03
      0.345000          0.122788E-03
      0.350000          0.120552E-03
      0.355000          0.118488E-03
      0.360000          0.116612E-03
      0.365000          0.114930E-03
      0.370000          0.113443E-03
      0.375000          0.112144E-03
      0.380000          0.111020E-03
      0.385000          0.110053E-03
      0.390000          0.109220E-03
      0.395000          0.108494E-03
      0.400000          0.107845E-03
      0.405000          0.107243E-03
      0.410000          0.106657E-03
      0.415000          0.106056E-03
      0.420000          0.105412E-03
      0.425000          0.104699E-03
      0.430000          0.103894E-03
      0.435000          0.102978E-03
      0.440000          0.101935E-03
      0.445000          0.100757E-03
      0.450000          0.994357E-04
      0.455000          0.979718E-04
      0.460000          0.963683E-04
      0.465000          0.946328E-04
      0.470000          0.927771E-04
      0.475000          0.908161E-04
      0.480000          0.887681E-04
      0.485000          0.866535E-04
      0.490000          0.844950E-04
      0.495000          0.823163E-04
      0.500000          0.801423E-04
