 I_abs(s)[cm^-1]/c[mg/ml]
       0.00000          0.144525E-01
      0.500000E-02      0.144080E-01
      0.100000E-01      0.142751E-01
      0.150000E-01      0.140564E-01
      0.200000E-01      0.137558E-01
      0.250000E-01      0.133789E-01
      0.300000E-01      0.129324E-01
      0.350000E-01      0.124242E-01
      0.400000E-01      0.118629E-01
      0.450000E-01      0.112578E-01
      0.500000E-01      0.106188E-01
      0.550000E-01      0.995553E-02
      0.600000E-01      0.927777E-02
      0.650000E-01      0.859485E-02
      0.700000E-01      0.791557E-02
      0.750000E-01      0.724799E-02
      0.800000E-01      0.659931E-02
      0.850000E-01      0.597575E-02
      0.900000E-01      0.538248E-02
      0.950000E-01      0.482361E-02
      0.100000          0.430217E-02
      0.105000          0.382016E-02
      0.110000          0.337860E-02
      0.115000          0.297764E-02
      0.120000          0.261664E-02
      0.125000          0.229428E-02
      0.130000          0.200874E-02
      0.135000          0.175773E-02
      0.140000          0.153868E-02
      0.145000          0.134883E-02
      0.150000          0.118533E-02
      0.155000          0.104532E-02
      0.160000          0.926020E-03
      0.165000          0.824778E-03
      0.170000          0.739119E-03
      0.175000          0.666775E-03
      0.180000          0.605701E-03
      0.185000          0.554082E-03
      0.190000          0.510335E-03
      0.195000          0.473092E-03
      0.200000          0.441191E-03
      0.205000          0.413658E-03
      0.210000          0.389681E-03
      0.215000          0.368597E-03
      0.220000          0.349864E-03
      0.225000          0.333050E-03
      0.230000          0.317809E-03
      0.235000          0.303867E-03
      0.240000          0.291014E-03
      0.245000          0.279084E-03
      0.250000          0.267955E-03
      0.255000          0.257532E-03
      0.260000          0.247749E-03
      0.265000          0.238556E-03
      0.270000          0.229918E-03
      0.275000          0.221812E-03
      0.280000          0.214218E-03
      0.285000          0.207123E-03
      0.290000          0.200510E-03
      0.295000          0.194365E-03
      0.300000          0.188664E-03
      0.305000          0.183384E-03
      0.310000          0.178491E-03
      0.315000          0.173947E-03
      0.320000          0.169708E-03
      0.325000          0.165725E-03
      0.330000          0.161947E-03
      0.335000          0.158319E-03
      0.340000          0.154789E-03
      0.345000          0.151306E-03
      0.350000          0.147826E-03
      0.355000          0.144308E-03
      0.360000          0.140723E-03
      0.365000          0.137051E-03
      0.370000          0.133280E-03
      0.375000          0.129410E-03
      0.380000          0.125452E-03
      0.385000          0.121424E-03
      0.390000          0.117355E-03
      0.395000          0.113278E-03
      0.400000          0.109232E-03
      0.405000          0.105258E-03
      0.410000          0.101399E-03
      0.415000          0.976946E-04
      0.420000          0.941840E-04
      0.425000          0.909007E-04
      0.430000          0.878729E-04
      0.435000          0.851224E-04
      0.440000          0.826645E-04
      0.445000          0.805072E-04
      0.450000          0.786521E-04
      0.455000          0.770943E-04
      0.460000          0.758235E-04
      0.465000          0.748249E-04
      0.470000          0.740796E-04
      0.475000          0.735664E-04
      0.480000          0.732622E-04
      0.485000          0.731430E-04
      0.490000          0.731849E-04
      0.495000          0.733647E-04
      0.500000          0.736602E-04
