 I_abs(s)[cm^-1]/c[mg/ml]
       0.00000          0.144130E-01
      0.500000E-02      0.143780E-01
      0.100000E-01      0.142735E-01
      0.150000E-01      0.141008E-01
      0.200000E-01      0.138624E-01
      0.250000E-01      0.135614E-01
      0.300000E-01      0.132019E-01
      0.350000E-01      0.127886E-01
      0.400000E-01      0.123269E-01
      0.450000E-01      0.118226E-01
      0.500000E-01      0.112820E-01
      0.550000E-01      0.107117E-01
      0.600000E-01      0.101184E-01
      0.650000E-01      0.950886E-02
      0.700000E-01      0.888967E-02
      0.750000E-01      0.826731E-02
      0.800000E-01      0.764794E-02
      0.850000E-01      0.703730E-02
      0.900000E-01      0.644067E-02
      0.950000E-01      0.586278E-02
      0.100000          0.530777E-02
      0.105000          0.477914E-02
      0.110000          0.427976E-02
      0.115000          0.381183E-02
      0.120000          0.337692E-02
      0.125000          0.297598E-02
      0.130000          0.260938E-02
      0.135000          0.227693E-02
      0.140000          0.197798E-02
      0.145000          0.171144E-02
      0.150000          0.147587E-02
      0.155000          0.126952E-02
      0.160000          0.109043E-02
      0.165000          0.936438E-03
      0.170000          0.805316E-03
      0.175000          0.694769E-03
      0.180000          0.602513E-03
      0.185000          0.526314E-03
      0.190000          0.464026E-03
      0.195000          0.413629E-03
      0.200000          0.373244E-03
      0.205000          0.341161E-03
      0.210000          0.315840E-03
      0.215000          0.295924E-03
      0.220000          0.280236E-03
      0.225000          0.267771E-03
      0.230000          0.257690E-03
      0.235000          0.249308E-03
      0.240000          0.242077E-03
      0.245000          0.235574E-03
      0.250000          0.229483E-03
      0.255000          0.223576E-03
      0.260000          0.217701E-03
      0.265000          0.211768E-03
      0.270000          0.205728E-03
      0.275000          0.199571E-03
      0.280000          0.193307E-03
      0.285000          0.186964E-03
      0.290000          0.180577E-03
      0.295000          0.174185E-03
      0.300000          0.167826E-03
      0.305000          0.161536E-03
      0.310000          0.155346E-03
      0.315000          0.149284E-03
      0.320000          0.143372E-03
      0.325000          0.137630E-03
      0.330000          0.132075E-03
      0.335000          0.126722E-03
      0.340000          0.121585E-03
      0.345000          0.116677E-03
      0.350000          0.112013E-03
      0.355000          0.107608E-03
      0.360000          0.103477E-03
      0.365000          0.996361E-04
      0.370000          0.960998E-04
      0.375000          0.928826E-04
      0.380000          0.899969E-04
      0.385000          0.874523E-04
      0.390000          0.852551E-04
      0.395000          0.834070E-04
      0.400000          0.819049E-04
      0.405000          0.807405E-04
      0.410000          0.798996E-04
      0.415000          0.793625E-04
      0.420000          0.791040E-04
      0.425000          0.790940E-04
      0.430000          0.792978E-04
      0.435000          0.796773E-04
      0.440000          0.801914E-04
      0.445000          0.807978E-04
      0.450000          0.814535E-04
      0.455000          0.821159E-04
      0.460000          0.827443E-04
      0.465000          0.833006E-04
      0.470000          0.837502E-04
      0.475000          0.840630E-04
      0.480000          0.842138E-04
      0.485000          0.841829E-04
      0.490000          0.839562E-04
      0.495000          0.835255E-04
      0.500000          0.828884E-04
