 I_abs(s)[cm^-1]/c[mg/ml]
       0.00000          0.145238E-01
      0.500000E-02      0.144872E-01
      0.100000E-01      0.143778E-01
      0.150000E-01      0.141973E-01
      0.200000E-01      0.139481E-01
      0.250000E-01      0.136337E-01
      0.300000E-01      0.132584E-01
      0.350000E-01      0.128273E-01
      0.400000E-01      0.123461E-01
      0.450000E-01      0.118212E-01
      0.500000E-01      0.112593E-01
      0.550000E-01      0.106674E-01
      0.600000E-01      0.100525E-01
      0.650000E-01      0.942193E-02
      0.700000E-01      0.878265E-02
      0.750000E-01      0.814148E-02
      0.800000E-01      0.750489E-02
      0.850000E-01      0.687890E-02
      0.900000E-01      0.626897E-02
      0.950000E-01      0.568001E-02
      0.100000          0.511624E-02
      0.105000          0.458122E-02
      0.110000          0.407780E-02
      0.115000          0.360814E-02
      0.120000          0.317368E-02
      0.125000          0.277526E-02
      0.130000          0.241305E-02
      0.135000          0.208669E-02
      0.140000          0.179531E-02
      0.145000          0.153760E-02
      0.150000          0.131187E-02
      0.155000          0.111616E-02
      0.160000          0.948264E-03
      0.165000          0.805838E-03
      0.170000          0.686436E-03
      0.175000          0.587589E-03
      0.180000          0.506850E-03
      0.185000          0.441845E-03
      0.190000          0.390309E-03
      0.195000          0.350123E-03
      0.200000          0.319334E-03
      0.205000          0.296173E-03
      0.210000          0.279064E-03
      0.215000          0.266630E-03
      0.220000          0.257686E-03
      0.225000          0.251237E-03
      0.230000          0.246466E-03
      0.235000          0.242715E-03
      0.240000          0.239478E-03
      0.245000          0.236376E-03
      0.250000          0.233144E-03
      0.255000          0.229608E-03
      0.260000          0.225674E-03
      0.265000          0.221306E-03
      0.270000          0.216517E-03
      0.275000          0.211350E-03
      0.280000          0.205869E-03
      0.285000          0.200153E-03
      0.290000          0.194283E-03
      0.295000          0.188337E-03
      0.300000          0.182389E-03
      0.305000          0.176502E-03
      0.310000          0.170730E-03
      0.315000          0.165114E-03
      0.320000          0.159683E-03
      0.325000          0.154456E-03
      0.330000          0.149443E-03
      0.335000          0.144644E-03
      0.340000          0.140054E-03
      0.345000          0.135663E-03
      0.350000          0.131455E-03
      0.355000          0.127417E-03
      0.360000          0.123530E-03
      0.365000          0.119780E-03
      0.370000          0.116152E-03
      0.375000          0.112632E-03
      0.380000          0.109210E-03
      0.385000          0.105878E-03
      0.390000          0.102632E-03
      0.395000          0.994679E-04
      0.400000          0.963870E-04
      0.405000          0.933916E-04
      0.410000          0.904861E-04
      0.415000          0.876768E-04
      0.420000          0.849715E-04
      0.425000          0.823787E-04
      0.430000          0.799077E-04
      0.435000          0.775680E-04
      0.440000          0.753688E-04
      0.445000          0.733189E-04
      0.450000          0.714264E-04
      0.455000          0.696982E-04
      0.460000          0.681397E-04
      0.465000          0.667550E-04
      0.470000          0.655462E-04
      0.475000          0.645137E-04
      0.480000          0.636559E-04
      0.485000          0.629691E-04
      0.490000          0.624478E-04
      0.495000          0.620846E-04
      0.500000          0.618702E-04
