 I_abs(s)[cm^-1]/c[mg/ml]
       0.00000          0.147066E-01
      0.500000E-02      0.146720E-01
      0.100000E-01      0.145685E-01
      0.150000E-01      0.143976E-01
      0.200000E-01      0.141614E-01
      0.250000E-01      0.138629E-01
      0.300000E-01      0.135061E-01
      0.350000E-01      0.130953E-01
      0.400000E-01      0.126358E-01
      0.450000E-01      0.121331E-01
      0.500000E-01      0.115932E-01
      0.550000E-01      0.110225E-01
      0.600000E-01      0.104273E-01
      0.650000E-01      0.981432E-02
      0.700000E-01      0.918995E-02
      0.750000E-01      0.856052E-02
      0.800000E-01      0.793212E-02
      0.850000E-01      0.731046E-02
      0.900000E-01      0.670086E-02
      0.950000E-01      0.610813E-02
      0.100000          0.553653E-02
      0.105000          0.498975E-02
      0.110000          0.447087E-02
      0.115000          0.398236E-02
      0.120000          0.352607E-02
      0.125000          0.310324E-02
      0.130000          0.271456E-02
      0.135000          0.236015E-02
      0.140000          0.203966E-02
      0.145000          0.175229E-02
      0.150000          0.149687E-02
      0.155000          0.127187E-02
      0.160000          0.107553E-02
      0.165000          0.905860E-03
      0.170000          0.760738E-03
      0.175000          0.637949E-03
      0.180000          0.535242E-03
      0.185000          0.450377E-03
      0.190000          0.381168E-03
      0.195000          0.325516E-03
      0.200000          0.281442E-03
      0.205000          0.247105E-03
      0.210000          0.220826E-03
      0.215000          0.201091E-03
      0.220000          0.186562E-03
      0.225000          0.176074E-03
      0.230000          0.168632E-03
      0.235000          0.163405E-03
      0.240000          0.159709E-03
      0.245000          0.157004E-03
      0.250000          0.154869E-03
      0.255000          0.152995E-03
      0.260000          0.151164E-03
      0.265000          0.149236E-03
      0.270000          0.147133E-03
      0.275000          0.144825E-03
      0.280000          0.142319E-03
      0.285000          0.139648E-03
      0.290000          0.136858E-03
      0.295000          0.134003E-03
      0.300000          0.131140E-03
      0.305000          0.128321E-03
      0.310000          0.125590E-03
      0.315000          0.122985E-03
      0.320000          0.120530E-03
      0.325000          0.118241E-03
      0.330000          0.116123E-03
      0.335000          0.114173E-03
      0.340000          0.112381E-03
      0.345000          0.110729E-03
      0.350000          0.109197E-03
      0.355000          0.107762E-03
      0.360000          0.106401E-03
      0.365000          0.105091E-03
      0.370000          0.103810E-03
      0.375000          0.102541E-03
      0.380000          0.101268E-03
      0.385000          0.999801E-04
      0.390000          0.986707E-04
      0.395000          0.973363E-04
      0.400000          0.959774E-04
      0.405000          0.945979E-04
      0.410000          0.932041E-04
      0.415000          0.918049E-04
      0.420000          0.904106E-04
      0.425000          0.890323E-04
      0.430000          0.876817E-04
      0.435000          0.863702E-04
      0.440000          0.851082E-04
      0.445000          0.839055E-04
      0.450000          0.827700E-04
      0.455000          0.817079E-04
      0.460000          0.807237E-04
      0.465000          0.798198E-04
      0.470000          0.789966E-04
      0.475000          0.782529E-04
      0.480000          0.775855E-04
      0.485000          0.769899E-04
      0.490000          0.764602E-04
      0.495000          0.759898E-04
      0.500000          0.755711E-04
