 I_abs(s)[cm^-1]/c[mg/ml]
       0.00000          0.144525E-01
      0.500000E-02      0.144190E-01
      0.100000E-01      0.143189E-01
      0.150000E-01      0.141534E-01
      0.200000E-01      0.139247E-01
      0.250000E-01      0.136358E-01
      0.300000E-01      0.132903E-01
      0.350000E-01      0.128925E-01
      0.400000E-01      0.124473E-01
      0.450000E-01      0.119602E-01
      0.500000E-01      0.114369E-01
      0.550000E-01      0.108835E-01
      0.600000E-01      0.103062E-01
      0.650000E-01      0.971132E-02
      0.700000E-01      0.910514E-02
      0.750000E-01      0.849376E-02
      0.800000E-01      0.788302E-02
      0.850000E-01      0.727848E-02
      0.900000E-01      0.668525E-02
      0.950000E-01      0.610800E-02
      0.100000          0.555087E-02
      0.105000          0.501745E-02
      0.110000          0.451072E-02
      0.115000          0.403310E-02
      0.120000          0.358640E-02
      0.125000          0.317183E-02
      0.130000          0.279009E-02
      0.135000          0.244132E-02
      0.140000          0.212521E-02
      0.145000          0.184100E-02
      0.150000          0.158756E-02
      0.155000          0.136346E-02
      0.160000          0.116699E-02
      0.165000          0.996252E-03
      0.170000          0.849207E-03
      0.175000          0.723729E-03
      0.180000          0.617656E-03
      0.185000          0.528837E-03
      0.190000          0.455175E-03
      0.195000          0.394660E-03
      0.200000          0.345395E-03
      0.205000          0.305625E-03
      0.210000          0.273746E-03
      0.215000          0.248321E-03
      0.220000          0.228082E-03
      0.225000          0.211927E-03
      0.230000          0.198922E-03
      0.235000          0.188288E-03
      0.240000          0.179391E-03
      0.245000          0.171731E-03
      0.250000          0.164922E-03
      0.255000          0.158684E-03
      0.260000          0.152819E-03
      0.265000          0.147204E-03
      0.270000          0.141769E-03
      0.275000          0.136488E-03
      0.280000          0.131366E-03
      0.285000          0.126427E-03
      0.290000          0.121705E-03
      0.295000          0.117240E-03
      0.300000          0.113069E-03
      0.305000          0.109224E-03
      0.310000          0.105726E-03
      0.315000          0.102588E-03
      0.320000          0.998131E-04
      0.325000          0.973932E-04
      0.330000          0.953117E-04
      0.335000          0.935448E-04
      0.340000          0.920629E-04
      0.345000          0.908326E-04
      0.350000          0.898186E-04
      0.355000          0.889853E-04
      0.360000          0.882981E-04
      0.365000          0.877249E-04
      0.370000          0.872367E-04
      0.375000          0.868083E-04
      0.380000          0.864188E-04
      0.385000          0.860512E-04
      0.390000          0.856927E-04
      0.395000          0.853341E-04
      0.400000          0.849693E-04
      0.405000          0.845950E-04
      0.410000          0.842098E-04
      0.415000          0.838139E-04
      0.420000          0.834085E-04
      0.425000          0.829952E-04
      0.430000          0.825760E-04
      0.435000          0.821527E-04
      0.440000          0.817266E-04
      0.445000          0.812989E-04
      0.450000          0.808703E-04
      0.455000          0.804413E-04
      0.460000          0.800119E-04
      0.465000          0.795823E-04
      0.470000          0.791528E-04
      0.475000          0.787236E-04
      0.480000          0.782956E-04
      0.485000          0.778700E-04
      0.490000          0.774485E-04
      0.495000          0.770334E-04
      0.500000          0.766272E-04
