 I_abs(s)[cm^-1]/c[mg/ml]
       0.00000          0.146270E-01
      0.500000E-02      0.145877E-01
      0.100000E-01      0.144706E-01
      0.150000E-01      0.142774E-01
      0.200000E-01      0.140112E-01
      0.250000E-01      0.136762E-01
      0.300000E-01      0.132774E-01
      0.350000E-01      0.128208E-01
      0.400000E-01      0.123133E-01
      0.450000E-01      0.117622E-01
      0.500000E-01      0.111750E-01
      0.550000E-01      0.105597E-01
      0.600000E-01      0.992425E-02
      0.650000E-01      0.927650E-02
      0.700000E-01      0.862399E-02
      0.750000E-01      0.797385E-02
      0.800000E-01      0.733270E-02
      0.850000E-01      0.670651E-02
      0.900000E-01      0.610054E-02
      0.950000E-01      0.551930E-02
      0.100000          0.496650E-02
      0.105000          0.444509E-02
      0.110000          0.395721E-02
      0.115000          0.350428E-02
      0.120000          0.308700E-02
      0.125000          0.270547E-02
      0.130000          0.235921E-02
      0.135000          0.204728E-02
      0.140000          0.176833E-02
      0.145000          0.152070E-02
      0.150000          0.130248E-02
      0.155000          0.111160E-02
      0.160000          0.945900E-03
      0.165000          0.803175E-03
      0.170000          0.681233E-03
      0.175000          0.577942E-03
      0.180000          0.491253E-03
      0.185000          0.419231E-03
      0.190000          0.360073E-03
      0.195000          0.312111E-03
      0.200000          0.273823E-03
      0.205000          0.243828E-03
      0.210000          0.220883E-03
      0.215000          0.203874E-03
      0.220000          0.191811E-03
      0.225000          0.183814E-03
      0.230000          0.179104E-03
      0.235000          0.176998E-03
      0.240000          0.176892E-03
      0.245000          0.178260E-03
      0.250000          0.180645E-03
      0.255000          0.183651E-03
      0.260000          0.186941E-03
      0.265000          0.190231E-03
      0.270000          0.193287E-03
      0.275000          0.195921E-03
      0.280000          0.197987E-03
      0.285000          0.199380E-03
      0.290000          0.200031E-03
      0.295000          0.199904E-03
      0.300000          0.198993E-03
      0.305000          0.197318E-03
      0.310000          0.194918E-03
      0.315000          0.191853E-03
      0.320000          0.188194E-03
      0.325000          0.184022E-03
      0.330000          0.179424E-03
      0.335000          0.174491E-03
      0.340000          0.169311E-03
      0.345000          0.163968E-03
      0.350000          0.158544E-03
      0.355000          0.153111E-03
      0.360000          0.147733E-03
      0.365000          0.142467E-03
      0.370000          0.137358E-03
      0.375000          0.132444E-03
      0.380000          0.127754E-03
      0.385000          0.123306E-03
      0.390000          0.119116E-03
      0.395000          0.115188E-03
      0.400000          0.111525E-03
      0.405000          0.108123E-03
      0.410000          0.104976E-03
      0.415000          0.102073E-03
      0.420000          0.994039E-04
      0.425000          0.969556E-04
      0.430000          0.947147E-04
      0.435000          0.926672E-04
      0.440000          0.907993E-04
      0.445000          0.890971E-04
      0.450000          0.875471E-04
      0.455000          0.861359E-04
      0.460000          0.848508E-04
      0.465000          0.836792E-04
      0.470000          0.826089E-04
      0.475000          0.816281E-04
      0.480000          0.807254E-04
      0.485000          0.798894E-04
      0.490000          0.791097E-04
      0.495000          0.783761E-04
      0.500000          0.776788E-04
