 I_abs(s)[cm^-1]/c[mg/ml]
       0.00000          0.145793E-01
      0.500000E-02      0.145432E-01
      0.100000E-01      0.144353E-01
      0.150000E-01      0.142571E-01
      0.200000E-01      0.140111E-01
      0.250000E-01      0.137007E-01
      0.300000E-01      0.133300E-01
      0.350000E-01      0.129041E-01
      0.400000E-01      0.124284E-01
      0.450000E-01      0.119093E-01
      0.500000E-01      0.113531E-01
      0.550000E-01      0.107668E-01
      0.600000E-01      0.101573E-01
      0.650000E-01      0.953158E-02
      0.700000E-01      0.889654E-02
      0.750000E-01      0.825884E-02
      0.800000E-01      0.762481E-02
      0.850000E-01      0.700036E-02
      0.900000E-01      0.639089E-02
      0.950000E-01      0.580120E-02
      0.100000          0.523552E-02
      0.105000          0.469736E-02
      0.110000          0.418961E-02
      0.115000          0.371445E-02
      0.120000          0.327341E-02
      0.125000          0.286741E-02
      0.130000          0.249672E-02
      0.135000          0.216113E-02
      0.140000          0.185989E-02
      0.145000          0.159185E-02
      0.150000          0.135550E-02
      0.155000          0.114902E-02
      0.160000          0.970379E-03
      0.165000          0.817391E-03
      0.170000          0.687764E-03
      0.175000          0.579166E-03
      0.180000          0.489280E-03
      0.185000          0.415841E-03
      0.190000          0.356679E-03
      0.195000          0.309750E-03
      0.200000          0.273154E-03
      0.205000          0.245157E-03
      0.210000          0.224198E-03
      0.215000          0.208895E-03
      0.220000          0.198043E-03
      0.225000          0.190609E-03
      0.230000          0.185724E-03
      0.235000          0.182669E-03
      0.240000          0.180863E-03
      0.245000          0.179849E-03
      0.250000          0.179276E-03
      0.255000          0.178885E-03
      0.260000          0.178493E-03
      0.265000          0.177980E-03
      0.270000          0.177275E-03
      0.275000          0.176343E-03
      0.280000          0.175178E-03
      0.285000          0.173791E-03
      0.290000          0.172206E-03
      0.295000          0.170451E-03
      0.300000          0.168557E-03
      0.305000          0.166553E-03
      0.310000          0.164462E-03
      0.315000          0.162306E-03
      0.320000          0.160097E-03
      0.325000          0.157846E-03
      0.330000          0.155555E-03
      0.335000          0.153225E-03
      0.340000          0.150851E-03
      0.345000          0.148428E-03
      0.350000          0.145948E-03
      0.355000          0.143402E-03
      0.360000          0.140783E-03
      0.365000          0.138083E-03
      0.370000          0.135297E-03
      0.375000          0.132421E-03
      0.380000          0.129454E-03
      0.385000          0.126397E-03
      0.390000          0.123252E-03
      0.395000          0.120027E-03
      0.400000          0.116728E-03
      0.405000          0.113367E-03
      0.410000          0.109956E-03
      0.415000          0.106509E-03
      0.420000          0.103044E-03
      0.425000          0.995756E-04
      0.430000          0.961237E-04
      0.435000          0.927071E-04
      0.440000          0.893452E-04
      0.445000          0.860573E-04
      0.450000          0.828628E-04
      0.455000          0.797804E-04
      0.460000          0.768279E-04
      0.465000          0.740220E-04
      0.470000          0.713781E-04
      0.475000          0.689098E-04
      0.480000          0.666291E-04
      0.485000          0.645457E-04
      0.490000          0.626674E-04
      0.495000          0.609995E-04
      0.500000          0.595452E-04
