 I_abs(s)[cm^-1]/c[mg/ml]
       0.00000          0.144209E-01
      0.500000E-02      0.143844E-01
      0.100000E-01      0.142755E-01
      0.150000E-01      0.140957E-01
      0.200000E-01      0.138475E-01
      0.250000E-01      0.135346E-01
      0.300000E-01      0.131612E-01
      0.350000E-01      0.127325E-01
      0.400000E-01      0.122544E-01
      0.450000E-01      0.117332E-01
      0.500000E-01      0.111757E-01
      0.550000E-01      0.105889E-01
      0.600000E-01      0.997999E-02
      0.650000E-01      0.935620E-02
      0.700000E-01      0.872453E-02
      0.750000E-01      0.809179E-02
      0.800000E-01      0.746437E-02
      0.850000E-01      0.684822E-02
      0.900000E-01      0.624872E-02
      0.950000E-01      0.567065E-02
      0.100000          0.511809E-02
      0.105000          0.459443E-02
      0.110000          0.410236E-02
      0.115000          0.364383E-02
      0.120000          0.322014E-02
      0.125000          0.283189E-02
      0.130000          0.247910E-02
      0.135000          0.216122E-02
      0.140000          0.187724E-02
      0.145000          0.162569E-02
      0.150000          0.140480E-02
      0.155000          0.121251E-02
      0.160000          0.104657E-02
      0.165000          0.904614E-03
      0.170000          0.784203E-03
      0.175000          0.682914E-03
      0.180000          0.598376E-03
      0.185000          0.528318E-03
      0.190000          0.470605E-03
      0.195000          0.423269E-03
      0.200000          0.384524E-03
      0.205000          0.352780E-03
      0.210000          0.326650E-03
      0.215000          0.304946E-03
      0.220000          0.286671E-03
      0.225000          0.271008E-03
      0.230000          0.257307E-03
      0.235000          0.245064E-03
      0.240000          0.233903E-03
      0.245000          0.223555E-03
      0.250000          0.213843E-03
      0.255000          0.204656E-03
      0.260000          0.195937E-03
      0.265000          0.187665E-03
      0.270000          0.179843E-03
      0.275000          0.172486E-03
      0.280000          0.165612E-03
      0.285000          0.159236E-03
      0.290000          0.153363E-03
      0.295000          0.147992E-03
      0.300000          0.143106E-03
      0.305000          0.138679E-03
      0.310000          0.134676E-03
      0.315000          0.131055E-03
      0.320000          0.127765E-03
      0.325000          0.124759E-03
      0.330000          0.121985E-03
      0.335000          0.119396E-03
      0.340000          0.116950E-03
      0.345000          0.114613E-03
      0.350000          0.112354E-03
      0.355000          0.110156E-03
      0.360000          0.108004E-03
      0.365000          0.105894E-03
      0.370000          0.103830E-03
      0.375000          0.101816E-03
      0.380000          0.998665E-04
      0.385000          0.979937E-04
      0.390000          0.962130E-04
      0.395000          0.945390E-04
      0.400000          0.929845E-04
      0.405000          0.915596E-04
      0.410000          0.902707E-04
      0.415000          0.891198E-04
      0.420000          0.881049E-04
      0.425000          0.872189E-04
      0.430000          0.864508E-04
      0.435000          0.857859E-04
      0.440000          0.852061E-04
      0.445000          0.846914E-04
      0.450000          0.842199E-04
      0.455000          0.837698E-04
      0.460000          0.833195E-04
      0.465000          0.828486E-04
      0.470000          0.823392E-04
      0.475000          0.817759E-04
      0.480000          0.811468E-04
      0.485000          0.804437E-04
      0.490000          0.796619E-04
      0.495000          0.788011E-04
      0.500000          0.778644E-04
