 I_abs(s)[cm^-1]/c[mg/ml]
       0.00000          0.145793E-01
      0.500000E-02      0.145456E-01
      0.100000E-01      0.144450E-01
      0.150000E-01      0.142787E-01
      0.200000E-01      0.140489E-01
      0.250000E-01      0.137585E-01
      0.300000E-01      0.134113E-01
      0.350000E-01      0.130115E-01
      0.400000E-01      0.125641E-01
      0.450000E-01      0.120745E-01
      0.500000E-01      0.115485E-01
      0.550000E-01      0.109922E-01
      0.600000E-01      0.104119E-01
      0.650000E-01      0.981388E-02
      0.700000E-01      0.920439E-02
      0.750000E-01      0.858956E-02
      0.800000E-01      0.797527E-02
      0.850000E-01      0.736707E-02
      0.900000E-01      0.677011E-02
      0.950000E-01      0.618906E-02
      0.100000          0.562806E-02
      0.105000          0.509070E-02
      0.110000          0.458000E-02
      0.115000          0.409836E-02
      0.120000          0.364762E-02
      0.125000          0.322901E-02
      0.130000          0.284322E-02
      0.135000          0.249044E-02
      0.140000          0.217035E-02
      0.145000          0.188222E-02
      0.150000          0.162496E-02
      0.155000          0.139714E-02
      0.160000          0.119708E-02
      0.165000          0.102291E-02
      0.170000          0.872609E-03
      0.175000          0.744064E-03
      0.180000          0.635133E-03
      0.185000          0.543677E-03
      0.190000          0.467609E-03
      0.195000          0.404921E-03
      0.200000          0.353718E-03
      0.205000          0.312241E-03
      0.210000          0.278876E-03
      0.215000          0.252173E-03
      0.220000          0.230846E-03
      0.225000          0.213776E-03
      0.230000          0.200005E-03
      0.235000          0.188730E-03
      0.240000          0.179293E-03
      0.245000          0.171167E-03
      0.250000          0.163946E-03
      0.255000          0.157325E-03
      0.260000          0.151088E-03
      0.265000          0.145094E-03
      0.270000          0.139260E-03
      0.275000          0.133552E-03
      0.280000          0.127966E-03
      0.285000          0.122526E-03
      0.290000          0.117269E-03
      0.295000          0.112237E-03
      0.300000          0.107476E-03
      0.305000          0.103028E-03
      0.310000          0.989256E-04
      0.315000          0.951955E-04
      0.320000          0.918532E-04
      0.325000          0.889042E-04
      0.330000          0.863443E-04
      0.335000          0.841609E-04
      0.340000          0.823340E-04
      0.345000          0.808376E-04
      0.350000          0.796417E-04
      0.355000          0.787135E-04
      0.360000          0.780191E-04
      0.365000          0.775245E-04
      0.370000          0.771967E-04
      0.375000          0.770047E-04
      0.380000          0.769199E-04
      0.385000          0.769168E-04
      0.390000          0.769727E-04
      0.395000          0.770679E-04
      0.400000          0.771858E-04
      0.405000          0.773123E-04
      0.410000          0.774360E-04
      0.415000          0.775472E-04
      0.420000          0.776382E-04
      0.425000          0.777026E-04
      0.430000          0.777353E-04
      0.435000          0.777320E-04
      0.440000          0.776894E-04
      0.445000          0.776047E-04
      0.450000          0.774758E-04
      0.455000          0.773014E-04
      0.460000          0.770809E-04
      0.465000          0.768144E-04
      0.470000          0.765030E-04
      0.475000          0.761488E-04
      0.480000          0.757548E-04
      0.485000          0.753254E-04
      0.490000          0.748661E-04
      0.495000          0.743834E-04
      0.500000          0.738850E-04
