 I_abs(s)[cm^-1]/c[mg/ml]
       0.00000          0.146111E-01
      0.500000E-02      0.145753E-01
      0.100000E-01      0.144686E-01
      0.150000E-01      0.142922E-01
      0.200000E-01      0.140487E-01
      0.250000E-01      0.137414E-01
      0.300000E-01      0.133744E-01
      0.350000E-01      0.129524E-01
      0.400000E-01      0.124812E-01
      0.450000E-01      0.119666E-01
      0.500000E-01      0.114151E-01
      0.550000E-01      0.108334E-01
      0.600000E-01      0.102284E-01
      0.650000E-01      0.960690E-02
      0.700000E-01      0.897578E-02
      0.750000E-01      0.834159E-02
      0.800000E-01      0.771059E-02
      0.850000E-01      0.708862E-02
      0.900000E-01      0.648104E-02
      0.950000E-01      0.589266E-02
      0.100000          0.532766E-02
      0.105000          0.478958E-02
      0.110000          0.428132E-02
      0.115000          0.380508E-02
      0.120000          0.336246E-02
      0.125000          0.295438E-02
      0.130000          0.258122E-02
      0.135000          0.224278E-02
      0.140000          0.193839E-02
      0.145000          0.166696E-02
      0.150000          0.142703E-02
      0.155000          0.121684E-02
      0.160000          0.103442E-02
      0.165000          0.877614E-03
      0.170000          0.744176E-03
      0.175000          0.631811E-03
      0.180000          0.538231E-03
      0.185000          0.461195E-03
      0.190000          0.398553E-03
      0.195000          0.348270E-03
      0.200000          0.308457E-03
      0.205000          0.277384E-03
      0.210000          0.253490E-03
      0.215000          0.235390E-03
      0.220000          0.221874E-03
      0.225000          0.211902E-03
      0.230000          0.204595E-03
      0.235000          0.199224E-03
      0.240000          0.195196E-03
      0.245000          0.192043E-03
      0.250000          0.189401E-03
      0.255000          0.186999E-03
      0.260000          0.184643E-03
      0.265000          0.182202E-03
      0.270000          0.179593E-03
      0.275000          0.176776E-03
      0.280000          0.173735E-03
      0.285000          0.170478E-03
      0.290000          0.167024E-03
      0.295000          0.163403E-03
      0.300000          0.159647E-03
      0.305000          0.155789E-03
      0.310000          0.151860E-03
      0.315000          0.147892E-03
      0.320000          0.143910E-03
      0.325000          0.139938E-03
      0.330000          0.135998E-03
      0.335000          0.132106E-03
      0.340000          0.128278E-03
      0.345000          0.124529E-03
      0.350000          0.120869E-03
      0.355000          0.117311E-03
      0.360000          0.113862E-03
      0.365000          0.110533E-03
      0.370000          0.107331E-03
      0.375000          0.104262E-03
      0.380000          0.101331E-03
      0.385000          0.985423E-04
      0.390000          0.958980E-04
      0.395000          0.933987E-04
      0.400000          0.910434E-04
      0.405000          0.888295E-04
      0.410000          0.867527E-04
      0.415000          0.848076E-04
      0.420000          0.829871E-04
      0.425000          0.812837E-04
      0.430000          0.796890E-04
      0.435000          0.781944E-04
      0.440000          0.767914E-04
      0.445000          0.754719E-04
      0.450000          0.742286E-04
      0.455000          0.730552E-04
      0.460000          0.719467E-04
      0.465000          0.708994E-04
      0.470000          0.699113E-04
      0.475000          0.689818E-04
      0.480000          0.681120E-04
      0.485000          0.673042E-04
      0.490000          0.665621E-04
      0.495000          0.658905E-04
      0.500000          0.652946E-04
