 I_abs(s)[cm^-1]/c[mg/ml]
       0.00000          0.145317E-01
      0.500000E-02      0.144973E-01
      0.100000E-01      0.143945E-01
      0.150000E-01      0.142247E-01
      0.200000E-01      0.139902E-01
      0.250000E-01      0.136940E-01
      0.300000E-01      0.133401E-01
      0.350000E-01      0.129331E-01
      0.400000E-01      0.124780E-01
      0.450000E-01      0.119806E-01
      0.500000E-01      0.114471E-01
      0.550000E-01      0.108836E-01
      0.600000E-01      0.102969E-01
      0.650000E-01      0.969328E-02
      0.700000E-01      0.907938E-02
      0.750000E-01      0.846144E-02
      0.800000E-01      0.784549E-02
      0.850000E-01      0.723714E-02
      0.900000E-01      0.664160E-02
      0.950000E-01      0.606351E-02
      0.100000          0.550699E-02
      0.105000          0.497553E-02
      0.110000          0.447202E-02
      0.115000          0.399869E-02
      0.120000          0.355719E-02
      0.125000          0.314855E-02
      0.130000          0.277323E-02
      0.135000          0.243118E-02
      0.140000          0.212187E-02
      0.145000          0.184434E-02
      0.150000          0.159728E-02
      0.155000          0.137909E-02
      0.160000          0.118793E-02
      0.165000          0.102178E-02
      0.170000          0.878533E-03
      0.175000          0.755997E-03
      0.180000          0.651993E-03
      0.185000          0.564377E-03
      0.190000          0.491082E-03
      0.195000          0.430151E-03
      0.200000          0.379764E-03
      0.205000          0.338251E-03
      0.210000          0.304108E-03
      0.215000          0.276004E-03
      0.220000          0.252778E-03
      0.225000          0.233435E-03
      0.230000          0.217144E-03
      0.235000          0.203218E-03
      0.240000          0.191109E-03
      0.245000          0.180387E-03
      0.250000          0.170727E-03
      0.255000          0.161895E-03
      0.260000          0.153726E-03
      0.265000          0.146115E-03
      0.270000          0.139002E-03
      0.275000          0.132356E-03
      0.280000          0.126170E-03
      0.285000          0.120448E-03
      0.290000          0.115200E-03
      0.295000          0.110435E-03
      0.300000          0.106157E-03
      0.305000          0.102366E-03
      0.310000          0.990513E-04
      0.315000          0.961939E-04
      0.320000          0.937679E-04
      0.325000          0.917400E-04
      0.330000          0.900716E-04
      0.335000          0.887205E-04
      0.340000          0.876425E-04
      0.345000          0.867934E-04
      0.350000          0.861300E-04
      0.355000          0.856122E-04
      0.360000          0.852030E-04
      0.365000          0.848704E-04
      0.370000          0.845866E-04
      0.375000          0.843291E-04
      0.380000          0.840801E-04
      0.385000          0.838263E-04
      0.390000          0.835584E-04
      0.395000          0.832707E-04
      0.400000          0.829602E-04
      0.405000          0.826259E-04
      0.410000          0.822688E-04
      0.415000          0.818904E-04
      0.420000          0.814929E-04
      0.425000          0.810786E-04
      0.430000          0.806496E-04
      0.435000          0.802076E-04
      0.440000          0.797542E-04
      0.445000          0.792901E-04
      0.450000          0.788162E-04
      0.455000          0.783330E-04
      0.460000          0.778411E-04
      0.465000          0.773415E-04
      0.470000          0.768354E-04
      0.475000          0.763249E-04
      0.480000          0.758128E-04
      0.485000          0.753027E-04
      0.490000          0.747992E-04
      0.495000          0.743080E-04
      0.500000          0.738352E-04
