 I_abs(s)[cm^-1]/c[mg/ml]
       0.00000          0.144842E-01
      0.500000E-02      0.144496E-01
      0.100000E-01      0.143461E-01
      0.150000E-01      0.141753E-01
      0.200000E-01      0.139394E-01
      0.250000E-01      0.136414E-01
      0.300000E-01      0.132853E-01
      0.350000E-01      0.128757E-01
      0.400000E-01      0.124179E-01
      0.450000E-01      0.119174E-01
      0.500000E-01      0.113805E-01
      0.550000E-01      0.108135E-01
      0.600000E-01      0.102230E-01
      0.650000E-01      0.961560E-02
      0.700000E-01      0.899779E-02
      0.750000E-01      0.837593E-02
      0.800000E-01      0.775609E-02
      0.850000E-01      0.714396E-02
      0.900000E-01      0.654478E-02
      0.950000E-01      0.596327E-02
      0.100000          0.540360E-02
      0.105000          0.486932E-02
      0.110000          0.436337E-02
      0.115000          0.388806E-02
      0.120000          0.344508E-02
      0.125000          0.303551E-02
      0.130000          0.265986E-02
      0.135000          0.231811E-02
      0.140000          0.200978E-02
      0.145000          0.173392E-02
      0.150000          0.148926E-02
      0.155000          0.127418E-02
      0.160000          0.108685E-02
      0.165000          0.925244E-03
      0.170000          0.787214E-03
      0.175000          0.670548E-03
      0.180000          0.573018E-03
      0.185000          0.492423E-03
      0.190000          0.426633E-03
      0.195000          0.373619E-03
      0.200000          0.331478E-03
      0.205000          0.298455E-03
      0.210000          0.272957E-03
      0.215000          0.253558E-03
      0.220000          0.239001E-03
      0.225000          0.228201E-03
      0.230000          0.220232E-03
      0.235000          0.214323E-03
      0.240000          0.209843E-03
      0.245000          0.206289E-03
      0.250000          0.203270E-03
      0.255000          0.200494E-03
      0.260000          0.197751E-03
      0.265000          0.194900E-03
      0.270000          0.191855E-03
      0.275000          0.188574E-03
      0.280000          0.185045E-03
      0.285000          0.181279E-03
      0.290000          0.177303E-03
      0.295000          0.173151E-03
      0.300000          0.168860E-03
      0.305000          0.164468E-03
      0.310000          0.160011E-03
      0.315000          0.155518E-03
      0.320000          0.151015E-03
      0.325000          0.146525E-03
      0.330000          0.142062E-03
      0.335000          0.137640E-03
      0.340000          0.133268E-03
      0.345000          0.128954E-03
      0.350000          0.124706E-03
      0.355000          0.120530E-03
      0.360000          0.116432E-03
      0.365000          0.112420E-03
      0.370000          0.108503E-03
      0.375000          0.104690E-03
      0.380000          0.100993E-03
      0.385000          0.974215E-04
      0.390000          0.939878E-04
      0.395000          0.907027E-04
      0.400000          0.875769E-04
      0.405000          0.846195E-04
      0.410000          0.818382E-04
      0.415000          0.792387E-04
      0.420000          0.768243E-04
      0.425000          0.745959E-04
      0.430000          0.725518E-04
      0.435000          0.706877E-04
      0.440000          0.689970E-04
      0.445000          0.674708E-04
      0.450000          0.660984E-04
      0.455000          0.648677E-04
      0.460000          0.637655E-04
      0.465000          0.627778E-04
      0.470000          0.618909E-04
      0.475000          0.610912E-04
      0.480000          0.603658E-04
      0.485000          0.597031E-04
      0.490000          0.590928E-04
      0.495000          0.585265E-04
      0.500000          0.579976E-04
