 I_abs(s)[cm^-1]/c[mg/ml]
       0.00000          0.146350E-01
      0.500000E-02      0.145985E-01
      0.100000E-01      0.144896E-01
      0.150000E-01      0.143097E-01
      0.200000E-01      0.140615E-01
      0.250000E-01      0.137484E-01
      0.300000E-01      0.133747E-01
      0.350000E-01      0.129455E-01
      0.400000E-01      0.124665E-01
      0.450000E-01      0.119439E-01
      0.500000E-01      0.113845E-01
      0.550000E-01      0.107953E-01
      0.600000E-01      0.101832E-01
      0.650000E-01      0.955538E-02
      0.700000E-01      0.891879E-02
      0.750000E-01      0.828014E-02
      0.800000E-01      0.764576E-02
      0.850000E-01      0.702157E-02
      0.900000E-01      0.641291E-02
      0.950000E-01      0.582455E-02
      0.100000          0.526060E-02
      0.105000          0.472452E-02
      0.110000          0.421904E-02
      0.115000          0.374625E-02
      0.120000          0.330755E-02
      0.125000          0.290371E-02
      0.130000          0.253493E-02
      0.135000          0.220085E-02
      0.140000          0.190066E-02
      0.145000          0.163314E-02
      0.150000          0.139671E-02
      0.155000          0.118955E-02
      0.160000          0.100962E-02
      0.165000          0.854748E-03
      0.170000          0.722694E-03
      0.175000          0.611188E-03
      0.180000          0.517991E-03
      0.185000          0.440932E-03
      0.190000          0.377943E-03
      0.195000          0.327082E-03
      0.200000          0.286556E-03
      0.205000          0.254733E-03
      0.210000          0.230145E-03
      0.215000          0.211492E-03
      0.220000          0.197638E-03
      0.225000          0.187601E-03
      0.230000          0.180548E-03
      0.235000          0.175775E-03
      0.240000          0.172702E-03
      0.245000          0.170854E-03
      0.250000          0.169845E-03
      0.255000          0.169372E-03
      0.260000          0.169196E-03
      0.265000          0.169131E-03
      0.270000          0.169038E-03
      0.275000          0.168814E-03
      0.280000          0.168381E-03
      0.285000          0.167689E-03
      0.290000          0.166702E-03
      0.295000          0.165401E-03
      0.300000          0.163778E-03
      0.305000          0.161833E-03
      0.310000          0.159575E-03
      0.315000          0.157021E-03
      0.320000          0.154193E-03
      0.325000          0.151118E-03
      0.330000          0.147826E-03
      0.335000          0.144352E-03
      0.340000          0.140733E-03
      0.345000          0.137007E-03
      0.350000          0.133214E-03
      0.355000          0.129390E-03
      0.360000          0.125575E-03
      0.365000          0.121802E-03
      0.370000          0.118103E-03
      0.375000          0.114506E-03
      0.380000          0.111036E-03
      0.385000          0.107712E-03
      0.390000          0.104549E-03
      0.395000          0.101557E-03
      0.400000          0.987426E-04
      0.405000          0.961090E-04
      0.410000          0.936554E-04
      0.415000          0.913783E-04
      0.420000          0.892724E-04
      0.425000          0.873309E-04
      0.430000          0.855462E-04
      0.435000          0.839105E-04
      0.440000          0.824159E-04
      0.445000          0.810554E-04
      0.450000          0.798223E-04
      0.455000          0.787110E-04
      0.460000          0.777166E-04
      0.465000          0.768352E-04
      0.470000          0.760629E-04
      0.475000          0.753965E-04
      0.480000          0.748328E-04
      0.485000          0.743679E-04
      0.490000          0.739977E-04
      0.495000          0.737171E-04
      0.500000          0.735200E-04
