 I_abs(s)[cm^-1]/c[mg/ml]
       0.00000          0.145952E-01
      0.500000E-02      0.145538E-01
      0.100000E-01      0.144302E-01
      0.150000E-01      0.142266E-01
      0.200000E-01      0.139466E-01
      0.250000E-01      0.135948E-01
      0.300000E-01      0.131772E-01
      0.350000E-01      0.127006E-01
      0.400000E-01      0.121727E-01
      0.450000E-01      0.116017E-01
      0.500000E-01      0.109963E-01
      0.550000E-01      0.103652E-01
      0.600000E-01      0.971709E-02
      0.650000E-01      0.906049E-02
      0.700000E-01      0.840345E-02
      0.750000E-01      0.775344E-02
      0.800000E-01      0.711723E-02
      0.850000E-01      0.650078E-02
      0.900000E-01      0.590915E-02
      0.950000E-01      0.534651E-02
      0.100000          0.481609E-02
      0.105000          0.432021E-02
      0.110000          0.386031E-02
      0.115000          0.343703E-02
      0.120000          0.305030E-02
      0.125000          0.269940E-02
      0.130000          0.238310E-02
      0.135000          0.209971E-02
      0.140000          0.184724E-02
      0.145000          0.162348E-02
      0.150000          0.142606E-02
      0.155000          0.125260E-02
      0.160000          0.110070E-02
      0.165000          0.968058E-03
      0.170000          0.852497E-03
      0.175000          0.751991E-03
      0.180000          0.664696E-03
      0.185000          0.588955E-03
      0.190000          0.523300E-03
      0.195000          0.466449E-03
      0.200000          0.417292E-03
      0.205000          0.374871E-03
      0.210000          0.338370E-03
      0.215000          0.307084E-03
      0.220000          0.280412E-03
      0.225000          0.257826E-03
      0.230000          0.238863E-03
      0.235000          0.223111E-03
      0.240000          0.210190E-03
      0.245000          0.199752E-03
      0.250000          0.191471E-03
      0.255000          0.185040E-03
      0.260000          0.180169E-03
      0.265000          0.176584E-03
      0.270000          0.174032E-03
      0.275000          0.172276E-03
      0.280000          0.171102E-03
      0.285000          0.170320E-03
      0.290000          0.169764E-03
      0.295000          0.169292E-03
      0.300000          0.168789E-03
      0.305000          0.168165E-03
      0.310000          0.167353E-03
      0.315000          0.166309E-03
      0.320000          0.165007E-03
      0.325000          0.163441E-03
      0.330000          0.161614E-03
      0.335000          0.159545E-03
      0.340000          0.157258E-03
      0.345000          0.154781E-03
      0.350000          0.152148E-03
      0.355000          0.149390E-03
      0.360000          0.146538E-03
      0.365000          0.143621E-03
      0.370000          0.140662E-03
      0.375000          0.137683E-03
      0.380000          0.134698E-03
      0.385000          0.131720E-03
      0.390000          0.128756E-03
      0.395000          0.125811E-03
      0.400000          0.122887E-03
      0.405000          0.119984E-03
      0.410000          0.117102E-03
      0.415000          0.114239E-03
      0.420000          0.111395E-03
      0.425000          0.108570E-03
      0.430000          0.105765E-03
      0.435000          0.102984E-03
      0.440000          0.100231E-03
      0.445000          0.975136E-04
      0.450000          0.948407E-04
      0.455000          0.922224E-04
      0.460000          0.896710E-04
      0.465000          0.871996E-04
      0.470000          0.848222E-04
      0.475000          0.825533E-04
      0.480000          0.804075E-04
      0.485000          0.783988E-04
      0.490000          0.765402E-04
      0.495000          0.748435E-04
      0.500000          0.733187E-04
