 I_abs(s)[cm^-1]/c[mg/ml]
       0.00000          0.144604E-01
      0.500000E-02      0.144243E-01
      0.100000E-01      0.143164E-01
      0.150000E-01      0.141381E-01
      0.200000E-01      0.138919E-01
      0.250000E-01      0.135811E-01
      0.300000E-01      0.132099E-01
      0.350000E-01      0.127831E-01
      0.400000E-01      0.123063E-01
      0.450000E-01      0.117856E-01
      0.500000E-01      0.112274E-01
      0.550000E-01      0.106386E-01
      0.600000E-01      0.100262E-01
      0.650000E-01      0.939714E-02
      0.700000E-01      0.875840E-02
      0.750000E-01      0.811674E-02
      0.800000E-01      0.747861E-02
      0.850000E-01      0.685006E-02
      0.900000E-01      0.623664E-02
      0.950000E-01      0.564335E-02
      0.100000          0.507458E-02
      0.105000          0.453405E-02
      0.110000          0.402481E-02
      0.115000          0.354921E-02
      0.120000          0.310891E-02
      0.125000          0.270492E-02
      0.130000          0.233761E-02
      0.135000          0.200677E-02
      0.140000          0.171166E-02
      0.145000          0.145104E-02
      0.150000          0.122331E-02
      0.155000          0.102650E-02
      0.160000          0.858404E-03
      0.165000          0.716614E-03
      0.170000          0.598602E-03
      0.175000          0.501786E-03
      0.180000          0.423589E-03
      0.185000          0.361491E-03
      0.190000          0.313079E-03
      0.195000          0.276084E-03
      0.200000          0.248413E-03
      0.205000          0.228169E-03
      0.210000          0.213672E-03
      0.215000          0.203463E-03
      0.220000          0.196304E-03
      0.225000          0.191176E-03
      0.230000          0.187266E-03
      0.235000          0.183954E-03
      0.240000          0.180792E-03
      0.245000          0.177488E-03
      0.250000          0.173876E-03
      0.255000          0.169902E-03
      0.260000          0.165594E-03
      0.265000          0.161044E-03
      0.270000          0.156386E-03
      0.275000          0.151778E-03
      0.280000          0.147384E-03
      0.285000          0.143364E-03
      0.290000          0.139857E-03
      0.295000          0.136980E-03
      0.300000          0.134816E-03
      0.305000          0.133415E-03
      0.310000          0.132788E-03
      0.315000          0.132916E-03
      0.320000          0.133743E-03
      0.325000          0.135188E-03
      0.330000          0.137145E-03
      0.335000          0.139491E-03
      0.340000          0.142091E-03
      0.345000          0.144805E-03
      0.350000          0.147492E-03
      0.355000          0.150017E-03
      0.360000          0.152254E-03
      0.365000          0.154092E-03
      0.370000          0.155437E-03
      0.375000          0.156216E-03
      0.380000          0.156374E-03
      0.385000          0.155880E-03
      0.390000          0.154725E-03
      0.395000          0.152917E-03
      0.400000          0.150486E-03
      0.405000          0.147477E-03
      0.410000          0.143952E-03
      0.415000          0.139982E-03
      0.420000          0.135647E-03
      0.425000          0.131034E-03
      0.430000          0.126231E-03
      0.435000          0.121327E-03
      0.440000          0.116409E-03
      0.445000          0.111558E-03
      0.450000          0.106849E-03
      0.455000          0.102348E-03
      0.460000          0.981119E-04
      0.465000          0.941867E-04
      0.470000          0.906075E-04
      0.475000          0.873985E-04
      0.480000          0.845730E-04
      0.485000          0.821339E-04
      0.490000          0.800744E-04
      0.495000          0.783796E-04
      0.500000          0.770265E-04
