 I_abs(s)[cm^-1]/c[mg/ml]
       0.00000          0.145238E-01
      0.500000E-02      0.144877E-01
      0.100000E-01      0.143798E-01
      0.150000E-01      0.142018E-01
      0.200000E-01      0.139561E-01
      0.250000E-01      0.136463E-01
      0.300000E-01      0.132766E-01
      0.350000E-01      0.128523E-01
      0.400000E-01      0.123790E-01
      0.450000E-01      0.118631E-01
      0.500000E-01      0.113112E-01
      0.550000E-01      0.107303E-01
      0.600000E-01      0.101274E-01
      0.650000E-01      0.950967E-02
      0.700000E-01      0.888391E-02
      0.750000E-01      0.825678E-02
      0.800000E-01      0.763454E-02
      0.850000E-01      0.702299E-02
      0.900000E-01      0.642733E-02
      0.950000E-01      0.585220E-02
      0.100000          0.530155E-02
      0.105000          0.477865E-02
      0.110000          0.428606E-02
      0.115000          0.382568E-02
      0.120000          0.339874E-02
      0.125000          0.300583E-02
      0.130000          0.264698E-02
      0.135000          0.232169E-02
      0.140000          0.202901E-02
      0.145000          0.176760E-02
      0.150000          0.153582E-02
      0.155000          0.133176E-02
      0.160000          0.115338E-02
      0.165000          0.998498E-03
      0.170000          0.864893E-03
      0.175000          0.750357E-03
      0.180000          0.652731E-03
      0.185000          0.569950E-03
      0.190000          0.500072E-03
      0.195000          0.441302E-03
      0.200000          0.392003E-03
      0.205000          0.350712E-03
      0.210000          0.316134E-03
      0.215000          0.287145E-03
      0.220000          0.262783E-03
      0.225000          0.242234E-03
      0.230000          0.224822E-03
      0.235000          0.209991E-03
      0.240000          0.197292E-03
      0.245000          0.186363E-03
      0.250000          0.176919E-03
      0.255000          0.168731E-03
      0.260000          0.161620E-03
      0.265000          0.155438E-03
      0.270000          0.150068E-03
      0.275000          0.145407E-03
      0.280000          0.141366E-03
      0.285000          0.137865E-03
      0.290000          0.134829E-03
      0.295000          0.132186E-03
      0.300000          0.129867E-03
      0.305000          0.127809E-03
      0.310000          0.125949E-03
      0.315000          0.124233E-03
      0.320000          0.122610E-03
      0.325000          0.121037E-03
      0.330000          0.119476E-03
      0.335000          0.117901E-03
      0.340000          0.116290E-03
      0.345000          0.114630E-03
      0.350000          0.112916E-03
      0.355000          0.111149E-03
      0.360000          0.109334E-03
      0.365000          0.107483E-03
      0.370000          0.105608E-03
      0.375000          0.103727E-03
      0.380000          0.101854E-03
      0.385000          0.100007E-03
      0.390000          0.982007E-04
      0.395000          0.964485E-04
      0.400000          0.947613E-04
      0.405000          0.931473E-04
      0.410000          0.916118E-04
      0.415000          0.901572E-04
      0.420000          0.887833E-04
      0.425000          0.874874E-04
      0.430000          0.862646E-04
      0.435000          0.851088E-04
      0.440000          0.840125E-04
      0.445000          0.829678E-04
      0.450000          0.819664E-04
      0.455000          0.810003E-04
      0.460000          0.800624E-04
      0.465000          0.791460E-04
      0.470000          0.782457E-04
      0.475000          0.773573E-04
      0.480000          0.764777E-04
      0.485000          0.756051E-04
      0.490000          0.747386E-04
      0.495000          0.738784E-04
      0.500000          0.730254E-04
