 I_abs(s)[cm^-1]/c[mg/ml]
       0.00000          0.144604E-01
      0.500000E-02      0.144231E-01
      0.100000E-01      0.143117E-01
      0.150000E-01      0.141279E-01
      0.200000E-01      0.138743E-01
      0.250000E-01      0.135545E-01
      0.300000E-01      0.131732E-01
      0.350000E-01      0.127358E-01
      0.400000E-01      0.122482E-01
      0.450000E-01      0.117172E-01
      0.500000E-01      0.111497E-01
      0.550000E-01      0.105530E-01
      0.600000E-01      0.993470E-02
      0.650000E-01      0.930208E-02
      0.700000E-01      0.866243E-02
      0.750000E-01      0.802272E-02
      0.800000E-01      0.738953E-02
      0.850000E-01      0.676892E-02
      0.900000E-01      0.616634E-02
      0.950000E-01      0.558659E-02
      0.100000          0.503377E-02
      0.105000          0.451122E-02
      0.110000          0.402153E-02
      0.115000          0.356655E-02
      0.120000          0.314742E-02
      0.125000          0.276458E-02
      0.130000          0.241787E-02
      0.135000          0.210653E-02
      0.140000          0.182934E-02
      0.145000          0.158465E-02
      0.150000          0.137048E-02
      0.155000          0.118461E-02
      0.160000          0.102463E-02
      0.165000          0.888017E-03
      0.170000          0.772250E-03
      0.175000          0.674820E-03
      0.180000          0.593307E-03
      0.185000          0.525421E-03
      0.190000          0.469039E-03
      0.195000          0.422230E-03
      0.200000          0.383269E-03
      0.205000          0.350653E-03
      0.210000          0.323093E-03
      0.215000          0.299515E-03
      0.220000          0.279042E-03
      0.225000          0.260983E-03
      0.230000          0.244810E-03
      0.235000          0.230138E-03
      0.240000          0.216699E-03
      0.245000          0.204323E-03
      0.250000          0.192912E-03
      0.255000          0.182421E-03
      0.260000          0.172841E-03
      0.265000          0.164180E-03
      0.270000          0.156448E-03
      0.275000          0.149655E-03
      0.280000          0.143795E-03
      0.285000          0.138843E-03
      0.290000          0.134758E-03
      0.295000          0.131475E-03
      0.300000          0.128914E-03
      0.305000          0.126980E-03
      0.310000          0.125564E-03
      0.315000          0.124553E-03
      0.320000          0.123833E-03
      0.325000          0.123292E-03
      0.330000          0.122827E-03
      0.335000          0.122346E-03
      0.340000          0.121771E-03
      0.345000          0.121042E-03
      0.350000          0.120114E-03
      0.355000          0.118962E-03
      0.360000          0.117578E-03
      0.365000          0.115970E-03
      0.370000          0.114159E-03
      0.375000          0.112179E-03
      0.380000          0.110072E-03
      0.385000          0.107885E-03
      0.390000          0.105670E-03
      0.395000          0.103477E-03
      0.400000          0.101354E-03
      0.405000          0.993459E-04
      0.410000          0.974880E-04
      0.415000          0.958093E-04
      0.420000          0.943291E-04
      0.425000          0.930576E-04
      0.430000          0.919951E-04
      0.435000          0.911331E-04
      0.440000          0.904546E-04
      0.445000          0.899355E-04
      0.450000          0.895460E-04
      0.455000          0.892517E-04
      0.460000          0.890155E-04
      0.465000          0.887993E-04
      0.470000          0.885652E-04
      0.475000          0.882773E-04
      0.480000          0.879028E-04
      0.485000          0.874130E-04
      0.490000          0.867847E-04
      0.495000          0.860002E-04
      0.500000          0.850480E-04
