 I_abs(s)[cm^-1]/c[mg/ml]
       0.00000          0.145952E-01
      0.500000E-02      0.145600E-01
      0.100000E-01      0.144547E-01
      0.150000E-01      0.142809E-01
      0.200000E-01      0.140409E-01
      0.250000E-01      0.137378E-01
      0.300000E-01      0.133757E-01
      0.350000E-01      0.129592E-01
      0.400000E-01      0.124939E-01
      0.450000E-01      0.119854E-01
      0.500000E-01      0.114401E-01
      0.550000E-01      0.108645E-01
      0.600000E-01      0.102654E-01
      0.650000E-01      0.964941E-02
      0.700000E-01      0.902330E-02
      0.750000E-01      0.839351E-02
      0.800000E-01      0.776623E-02
      0.850000E-01      0.714725E-02
      0.900000E-01      0.654189E-02
      0.950000E-01      0.595494E-02
      0.100000          0.539060E-02
      0.105000          0.485246E-02
      0.110000          0.434347E-02
      0.115000          0.386592E-02
      0.120000          0.342146E-02
      0.125000          0.301114E-02
      0.130000          0.263541E-02
      0.135000          0.229419E-02
      0.140000          0.198691E-02
      0.145000          0.171256E-02
      0.150000          0.146976E-02
      0.155000          0.125684E-02
      0.160000          0.107188E-02
      0.165000          0.912766E-03
      0.170000          0.777289E-03
      0.175000          0.663172E-03
      0.180000          0.568130E-03
      0.185000          0.489915E-03
      0.190000          0.426358E-03
      0.195000          0.375400E-03
      0.200000          0.335120E-03
      0.205000          0.303749E-03
      0.210000          0.279689E-03
      0.215000          0.261517E-03
      0.220000          0.247984E-03
      0.225000          0.238018E-03
      0.230000          0.230708E-03
      0.235000          0.225303E-03
      0.240000          0.221191E-03
      0.245000          0.217891E-03
      0.250000          0.215032E-03
      0.255000          0.212341E-03
      0.260000          0.209628E-03
      0.265000          0.206766E-03
      0.270000          0.203684E-03
      0.275000          0.200350E-03
      0.280000          0.196762E-03
      0.285000          0.192937E-03
      0.290000          0.188905E-03
      0.295000          0.184704E-03
      0.300000          0.180371E-03
      0.305000          0.175945E-03
      0.310000          0.171457E-03
      0.315000          0.166937E-03
      0.320000          0.162407E-03
      0.325000          0.157888E-03
      0.330000          0.153392E-03
      0.335000          0.148932E-03
      0.340000          0.144515E-03
      0.345000          0.140150E-03
      0.350000          0.135844E-03
      0.355000          0.131604E-03
      0.360000          0.127438E-03
      0.365000          0.123356E-03
      0.370000          0.119369E-03
      0.375000          0.115488E-03
      0.380000          0.111728E-03
      0.385000          0.108100E-03
      0.390000          0.104618E-03
      0.395000          0.101294E-03
      0.400000          0.981389E-04
      0.405000          0.951623E-04
      0.410000          0.923707E-04
      0.415000          0.897682E-04
      0.420000          0.873559E-04
      0.425000          0.851316E-04
      0.430000          0.830903E-04
      0.435000          0.812239E-04
      0.440000          0.795217E-04
      0.445000          0.779708E-04
      0.450000          0.765562E-04
      0.455000          0.752621E-04
      0.460000          0.740717E-04
      0.465000          0.729682E-04
      0.470000          0.719354E-04
      0.475000          0.709580E-04
      0.480000          0.700224E-04
      0.485000          0.691169E-04
      0.490000          0.682319E-04
      0.495000          0.673606E-04
      0.500000          0.664985E-04
