 I_abs(s)[cm^-1]/c[mg/ml]
       0.00000          0.144446E-01
      0.500000E-02      0.144088E-01
      0.100000E-01      0.143019E-01
      0.150000E-01      0.141253E-01
      0.200000E-01      0.138816E-01
      0.250000E-01      0.135739E-01
      0.300000E-01      0.132067E-01
      0.350000E-01      0.127846E-01
      0.400000E-01      0.123134E-01
      0.450000E-01      0.117991E-01
      0.500000E-01      0.112483E-01
      0.550000E-01      0.106677E-01
      0.600000E-01      0.100643E-01
      0.650000E-01      0.944496E-02
      0.700000E-01      0.881666E-02
      0.750000E-01      0.818601E-02
      0.800000E-01      0.755932E-02
      0.850000E-01      0.694248E-02
      0.900000E-01      0.634087E-02
      0.950000E-01      0.575930E-02
      0.100000          0.520193E-02
      0.105000          0.467230E-02
      0.110000          0.417322E-02
      0.115000          0.370686E-02
      0.120000          0.327469E-02
      0.125000          0.287756E-02
      0.130000          0.251569E-02
      0.135000          0.218877E-02
      0.140000          0.189598E-02
      0.145000          0.163607E-02
      0.150000          0.140742E-02
      0.155000          0.120811E-02
      0.160000          0.103603E-02
      0.165000          0.888870E-03
      0.170000          0.764260E-03
      0.175000          0.659787E-03
      0.180000          0.573066E-03
      0.185000          0.501783E-03
      0.190000          0.443735E-03
      0.195000          0.396861E-03
      0.200000          0.359271E-03
      0.205000          0.329257E-03
      0.210000          0.305306E-03
      0.215000          0.286102E-03
      0.220000          0.270524E-03
      0.225000          0.257637E-03
      0.230000          0.246681E-03
      0.235000          0.237056E-03
      0.240000          0.228305E-03
      0.245000          0.220095E-03
      0.250000          0.212198E-03
      0.255000          0.204472E-03
      0.260000          0.196844E-03
      0.265000          0.189291E-03
      0.270000          0.181828E-03
      0.275000          0.174492E-03
      0.280000          0.167332E-03
      0.285000          0.160401E-03
      0.290000          0.153749E-03
      0.295000          0.147416E-03
      0.300000          0.141432E-03
      0.305000          0.135814E-03
      0.310000          0.130569E-03
      0.315000          0.125689E-03
      0.320000          0.121158E-03
      0.325000          0.116955E-03
      0.330000          0.113051E-03
      0.335000          0.109417E-03
      0.340000          0.106023E-03
      0.345000          0.102844E-03
      0.350000          0.998564E-04
      0.355000          0.970442E-04
      0.360000          0.943967E-04
      0.365000          0.919100E-04
      0.370000          0.895863E-04
      0.375000          0.874332E-04
      0.380000          0.854628E-04
      0.385000          0.836902E-04
      0.390000          0.821322E-04
      0.395000          0.808053E-04
      0.400000          0.797245E-04
      0.405000          0.789019E-04
      0.410000          0.783448E-04
      0.415000          0.780552E-04
      0.420000          0.780288E-04
      0.425000          0.782545E-04
      0.430000          0.787142E-04
      0.435000          0.793831E-04
      0.440000          0.802299E-04
      0.445000          0.812179E-04
      0.450000          0.823059E-04
      0.455000          0.834492E-04
      0.460000          0.846014E-04
      0.465000          0.857153E-04
      0.470000          0.867450E-04
      0.475000          0.876469E-04
      0.480000          0.883811E-04
      0.485000          0.889131E-04
      0.490000          0.892143E-04
      0.495000          0.892634E-04
      0.500000          0.890464E-04
