 I_abs(s)[cm^-1]/c[mg/ml]
       0.00000          0.145079E-01
      0.500000E-02      0.144731E-01
      0.100000E-01      0.143690E-01
      0.150000E-01      0.141970E-01
      0.200000E-01      0.139596E-01
      0.250000E-01      0.136597E-01
      0.300000E-01      0.133015E-01
      0.350000E-01      0.128895E-01
      0.400000E-01      0.124291E-01
      0.450000E-01      0.119261E-01
      0.500000E-01      0.113866E-01
      0.550000E-01      0.108171E-01
      0.600000E-01      0.102243E-01
      0.650000E-01      0.961491E-02
      0.700000E-01      0.899544E-02
      0.750000E-01      0.837232E-02
      0.800000E-01      0.775167E-02
      0.850000E-01      0.713922E-02
      0.900000E-01      0.654023E-02
      0.950000E-01      0.595944E-02
      0.100000          0.540099E-02
      0.105000          0.486841E-02
      0.110000          0.436459E-02
      0.115000          0.389177E-02
      0.120000          0.345157E-02
      0.125000          0.304497E-02
      0.130000          0.267240E-02
      0.135000          0.233371E-02
      0.140000          0.202831E-02
      0.145000          0.175514E-02
      0.150000          0.151280E-02
      0.155000          0.129959E-02
      0.160000          0.111357E-02
      0.165000          0.952632E-03
      0.170000          0.814556E-03
      0.175000          0.697080E-03
      0.180000          0.597943E-03
      0.185000          0.514937E-03
      0.190000          0.445940E-03
      0.195000          0.388957E-03
      0.200000          0.342138E-03
      0.205000          0.303803E-03
      0.210000          0.272447E-03
      0.215000          0.246751E-03
      0.220000          0.225577E-03
      0.225000          0.207964E-03
      0.230000          0.193121E-03
      0.235000          0.180408E-03
      0.240000          0.169327E-03
      0.245000          0.159498E-03
      0.250000          0.150650E-03
      0.255000          0.142595E-03
      0.260000          0.135213E-03
      0.265000          0.128439E-03
      0.270000          0.122243E-03
      0.275000          0.116621E-03
      0.280000          0.111581E-03
      0.285000          0.107136E-03
      0.290000          0.103296E-03
      0.295000          0.100062E-03
      0.300000          0.974253E-04
      0.305000          0.953632E-04
      0.310000          0.938407E-04
      0.315000          0.928109E-04
      0.320000          0.922168E-04
      0.325000          0.919935E-04
      0.330000          0.920715E-04
      0.335000          0.923792E-04
      0.340000          0.928457E-04
      0.345000          0.934038E-04
      0.350000          0.939917E-04
      0.355000          0.945554E-04
      0.360000          0.950494E-04
      0.365000          0.954376E-04
      0.370000          0.956939E-04
      0.375000          0.958015E-04
      0.380000          0.957529E-04
      0.385000          0.955482E-04
      0.390000          0.951945E-04
      0.395000          0.947044E-04
      0.400000          0.940944E-04
      0.405000          0.933836E-04
      0.410000          0.925922E-04
      0.415000          0.917404E-04
      0.420000          0.908474E-04
      0.425000          0.899301E-04
      0.430000          0.890031E-04
      0.435000          0.880779E-04
      0.440000          0.871627E-04
      0.445000          0.862627E-04
      0.450000          0.853801E-04
      0.455000          0.845147E-04
      0.460000          0.836643E-04
      0.465000          0.828251E-04
      0.470000          0.819929E-04
      0.475000          0.811630E-04
      0.480000          0.803314E-04
      0.485000          0.794950E-04
      0.490000          0.786520E-04
      0.495000          0.778027E-04
      0.500000          0.769491E-04
