 I_abs(s)[cm^-1]/c[mg/ml]
       0.00000          0.138087E-01
      0.500000E-02      0.137331E-01
      0.100000E-01      0.135095E-01
      0.150000E-01      0.131463E-01
      0.200000E-01      0.126572E-01
      0.250000E-01      0.120602E-01
      0.300000E-01      0.113763E-01
      0.350000E-01      0.106288E-01
      0.400000E-01      0.984131E-02
      0.450000E-01      0.903716E-02
      0.500000E-01      0.823783E-02
      0.550000E-01      0.746219E-02
      0.600000E-01      0.672572E-02
      0.650000E-01      0.604017E-02
      0.700000E-01      0.541336E-02
      0.750000E-01      0.484936E-02
      0.800000E-01      0.434882E-02
      0.850000E-01      0.390952E-02
      0.900000E-01      0.352700E-02
      0.950000E-01      0.319527E-02
      0.100000          0.290749E-02
      0.105000          0.265661E-02
      0.110000          0.243586E-02
      0.115000          0.223914E-02
      0.120000          0.206132E-02
      0.125000          0.189832E-02
      0.130000          0.174715E-02
      0.135000          0.160579E-02
      0.140000          0.147306E-02
      0.145000          0.134843E-02
      0.150000          0.123177E-02
      0.155000          0.112323E-02
      0.160000          0.102303E-02
      0.165000          0.931334E-03
      0.170000          0.848187E-03
      0.175000          0.773454E-03
      0.180000          0.706820E-03
      0.185000          0.647807E-03
      0.190000          0.595805E-03
      0.195000          0.550122E-03
      0.200000          0.510031E-03
      0.205000          0.474806E-03
      0.210000          0.443763E-03
      0.215000          0.416280E-03
      0.220000          0.391815E-03
      0.225000          0.369911E-03
      0.230000          0.350197E-03
      0.235000          0.332379E-03
      0.240000          0.316233E-03
      0.245000          0.301594E-03
      0.250000          0.288343E-03
      0.255000          0.276393E-03
      0.260000          0.265679E-03
      0.265000          0.256146E-03
      0.270000          0.247736E-03
      0.275000          0.240384E-03
      0.280000          0.234007E-03
      0.285000          0.228504E-03
      0.290000          0.223751E-03
      0.295000          0.219608E-03
      0.300000          0.215920E-03
      0.305000          0.212530E-03
      0.310000          0.209283E-03
      0.315000          0.206042E-03
      0.320000          0.202691E-03
      0.325000          0.199148E-03
      0.330000          0.195368E-03
      0.335000          0.191343E-03
      0.340000          0.187099E-03
      0.345000          0.182692E-03
      0.350000          0.178198E-03
      0.355000          0.173702E-03
      0.360000          0.169290E-03
      0.365000          0.165034E-03
      0.370000          0.160987E-03
      0.375000          0.157179E-03
      0.380000          0.153612E-03
      0.385000          0.150265E-03
      0.390000          0.147098E-03
      0.395000          0.144056E-03
      0.400000          0.141083E-03
      0.405000          0.138125E-03
      0.410000          0.135140E-03
      0.415000          0.132104E-03
      0.420000          0.129012E-03
      0.425000          0.125882E-03
      0.430000          0.122749E-03
      0.435000          0.119663E-03
      0.440000          0.116680E-03
      0.445000          0.113863E-03
      0.450000          0.111265E-03
      0.455000          0.108933E-03
      0.460000          0.106896E-03
      0.465000          0.105171E-03
      0.470000          0.103753E-03
      0.475000          0.102627E-03
      0.480000          0.101762E-03
      0.485000          0.101120E-03
      0.490000          0.100656E-03
      0.495000          0.100326E-03
      0.500000          0.100089E-03
