 I_abs(s)[cm^-1]/c[mg/ml]
       0.00000          0.146240E-01
      0.500000E-02      0.145886E-01
      0.100000E-01      0.144828E-01
      0.150000E-01      0.143082E-01
      0.200000E-01      0.140671E-01
      0.250000E-01      0.137629E-01
      0.300000E-01      0.133996E-01
      0.350000E-01      0.129823E-01
      0.400000E-01      0.125163E-01
      0.450000E-01      0.120076E-01
      0.500000E-01      0.114627E-01
      0.550000E-01      0.108882E-01
      0.600000E-01      0.102908E-01
      0.650000E-01      0.967733E-02
      0.700000E-01      0.905445E-02
      0.750000E-01      0.842855E-02
      0.800000E-01      0.780573E-02
      0.850000E-01      0.719164E-02
      0.900000E-01      0.659143E-02
      0.950000E-01      0.600970E-02
      0.100000          0.545045E-02
      0.105000          0.491706E-02
      0.110000          0.441227E-02
      0.115000          0.393817E-02
      0.120000          0.349626E-02
      0.125000          0.308745E-02
      0.130000          0.271209E-02
      0.135000          0.237005E-02
      0.140000          0.206075E-02
      0.145000          0.178321E-02
      0.150000          0.153614E-02
      0.155000          0.131799E-02
      0.160000          0.112698E-02
      0.165000          0.961200E-03
      0.170000          0.818628E-03
      0.175000          0.697199E-03
      0.180000          0.594843E-03
      0.185000          0.509516E-03
      0.190000          0.439239E-03
      0.195000          0.382119E-03
      0.200000          0.336372E-03
      0.205000          0.300335E-03
      0.210000          0.272481E-03
      0.215000          0.251417E-03
      0.220000          0.235894E-03
      0.225000          0.224802E-03
      0.230000          0.217166E-03
      0.235000          0.212141E-03
      0.240000          0.209006E-03
      0.245000          0.207153E-03
      0.250000          0.206078E-03
      0.255000          0.205375E-03
      0.260000          0.204722E-03
      0.265000          0.203871E-03
      0.270000          0.202644E-03
      0.275000          0.200918E-03
      0.280000          0.198620E-03
      0.285000          0.195718E-03
      0.290000          0.192214E-03
      0.295000          0.188136E-03
      0.300000          0.183535E-03
      0.305000          0.178476E-03
      0.310000          0.173037E-03
      0.315000          0.167301E-03
      0.320000          0.161354E-03
      0.325000          0.155284E-03
      0.330000          0.149174E-03
      0.335000          0.143103E-03
      0.340000          0.137146E-03
      0.345000          0.131367E-03
      0.350000          0.125824E-03
      0.355000          0.120565E-03
      0.360000          0.115628E-03
      0.365000          0.111045E-03
      0.370000          0.106835E-03
      0.375000          0.103011E-03
      0.380000          0.995784E-04
      0.385000          0.965333E-04
      0.390000          0.938672E-04
      0.395000          0.915653E-04
      0.400000          0.896084E-04
      0.405000          0.879735E-04
      0.410000          0.866345E-04
      0.415000          0.855633E-04
      0.420000          0.847304E-04
      0.425000          0.841058E-04
      0.430000          0.836593E-04
      0.435000          0.833613E-04
      0.440000          0.831832E-04
      0.445000          0.830979E-04
      0.450000          0.830796E-04
      0.455000          0.831048E-04
      0.460000          0.831518E-04
      0.465000          0.832012E-04
      0.470000          0.832356E-04
      0.475000          0.832399E-04
      0.480000          0.832012E-04
      0.485000          0.831084E-04
      0.490000          0.829528E-04
      0.495000          0.827274E-04
      0.500000          0.824272E-04
