 I_abs(s)[cm^-1]/c[mg/ml]
       0.00000          0.142056E-01
      0.500000E-02      0.141662E-01
      0.100000E-01      0.140486E-01
      0.150000E-01      0.138547E-01
      0.200000E-01      0.135876E-01
      0.250000E-01      0.132517E-01
      0.300000E-01      0.128520E-01
      0.350000E-01      0.123950E-01
      0.400000E-01      0.118873E-01
      0.450000E-01      0.113367E-01
      0.500000E-01      0.107510E-01
      0.550000E-01      0.101383E-01
      0.600000E-01      0.950695E-02
      0.650000E-01      0.886496E-02
      0.700000E-01      0.822017E-02
      0.750000E-01      0.757996E-02
      0.800000E-01      0.695115E-02
      0.850000E-01      0.633989E-02
      0.900000E-01      0.575158E-02
      0.950000E-01      0.519083E-02
      0.100000          0.466135E-02
      0.105000          0.416605E-02
      0.110000          0.370694E-02
      0.115000          0.328525E-02
      0.120000          0.290141E-02
      0.125000          0.255518E-02
      0.130000          0.224568E-02
      0.135000          0.197149E-02
      0.140000          0.173076E-02
      0.145000          0.152127E-02
      0.150000          0.134057E-02
      0.155000          0.118601E-02
      0.160000          0.105488E-02
      0.165000          0.944444E-03
      0.170000          0.852026E-03
      0.175000          0.775065E-03
      0.180000          0.711156E-03
      0.185000          0.658080E-03
      0.190000          0.613838E-03
      0.195000          0.576654E-03
      0.200000          0.544988E-03
      0.205000          0.517527E-03
      0.210000          0.493180E-03
      0.215000          0.471064E-03
      0.220000          0.450480E-03
      0.225000          0.430900E-03
      0.230000          0.411940E-03
      0.235000          0.393337E-03
      0.240000          0.374931E-03
      0.245000          0.356643E-03
      0.250000          0.338452E-03
      0.255000          0.320385E-03
      0.260000          0.302500E-03
      0.265000          0.284870E-03
      0.270000          0.267581E-03
      0.275000          0.250721E-03
      0.280000          0.234372E-03
      0.285000          0.218613E-03
      0.290000          0.203512E-03
      0.295000          0.189127E-03
      0.300000          0.175508E-03
      0.305000          0.162694E-03
      0.310000          0.150716E-03
      0.315000          0.139596E-03
      0.320000          0.129349E-03
      0.325000          0.119983E-03
      0.330000          0.111500E-03
      0.335000          0.103897E-03
      0.340000          0.971632E-04
      0.345000          0.912833E-04
      0.350000          0.862355E-04
      0.355000          0.819918E-04
      0.360000          0.785179E-04
      0.365000          0.757735E-04
      0.370000          0.737116E-04
      0.375000          0.722798E-04
      0.380000          0.714202E-04
      0.385000          0.710704E-04
      0.390000          0.711642E-04
      0.395000          0.716332E-04
      0.400000          0.724073E-04
      0.405000          0.734168E-04
      0.410000          0.745934E-04
      0.415000          0.758717E-04
      0.420000          0.771903E-04
      0.425000          0.784932E-04
      0.430000          0.797310E-04
      0.435000          0.808611E-04
      0.440000          0.818490E-04
      0.445000          0.826681E-04
      0.450000          0.833003E-04
      0.455000          0.837354E-04
      0.460000          0.839709E-04
      0.465000          0.840116E-04
      0.470000          0.838686E-04
      0.475000          0.835586E-04
      0.480000          0.831027E-04
      0.485000          0.825254E-04
      0.490000          0.818537E-04
      0.495000          0.811159E-04
      0.500000          0.803404E-04
