 I_abs(s)[cm^-1]/c[mg/ml]
       0.00000          0.144022E-01
      0.500000E-02      0.143567E-01
      0.100000E-01      0.142210E-01
      0.150000E-01      0.139979E-01
      0.200000E-01      0.136916E-01
      0.250000E-01      0.133080E-01
      0.300000E-01      0.128544E-01
      0.350000E-01      0.123391E-01
      0.400000E-01      0.117714E-01
      0.450000E-01      0.111611E-01
      0.500000E-01      0.105186E-01
      0.550000E-01      0.985393E-02
      0.600000E-01      0.917728E-02
      0.650000E-01      0.849820E-02
      0.700000E-01      0.782560E-02
      0.750000E-01      0.716755E-02
      0.800000E-01      0.653110E-02
      0.850000E-01      0.592222E-02
      0.900000E-01      0.534571E-02
      0.950000E-01      0.480523E-02
      0.100000          0.430327E-02
      0.105000          0.384126E-02
      0.110000          0.341964E-02
      0.115000          0.303796E-02
      0.120000          0.269503E-02
      0.125000          0.238905E-02
      0.130000          0.211774E-02
      0.135000          0.187849E-02
      0.140000          0.166848E-02
      0.145000          0.148482E-02
      0.150000          0.132460E-02
      0.155000          0.118504E-02
      0.160000          0.106351E-02
      0.165000          0.957573E-03
      0.170000          0.865056E-03
      0.175000          0.784027E-03
      0.180000          0.712813E-03
      0.185000          0.649984E-03
      0.190000          0.594339E-03
      0.195000          0.544879E-03
      0.200000          0.500783E-03
      0.205000          0.461378E-03
      0.210000          0.426111E-03
      0.215000          0.394527E-03
      0.220000          0.366241E-03
      0.225000          0.340928E-03
      0.230000          0.318298E-03
      0.235000          0.298093E-03
      0.240000          0.280077E-03
      0.245000          0.264028E-03
      0.250000          0.249738E-03
      0.255000          0.237012E-03
      0.260000          0.225669E-03
      0.265000          0.215538E-03
      0.270000          0.206464E-03
      0.275000          0.198306E-03
      0.280000          0.190936E-03
      0.285000          0.184242E-03
      0.290000          0.178122E-03
      0.295000          0.172489E-03
      0.300000          0.167265E-03
      0.305000          0.162382E-03
      0.310000          0.157779E-03
      0.315000          0.153402E-03
      0.320000          0.149202E-03
      0.325000          0.145137E-03
      0.330000          0.141169E-03
      0.335000          0.137265E-03
      0.340000          0.133398E-03
      0.345000          0.129547E-03
      0.350000          0.125699E-03
      0.355000          0.121845E-03
      0.360000          0.117986E-03
      0.365000          0.114132E-03
      0.370000          0.110298E-03
      0.375000          0.106506E-03
      0.380000          0.102786E-03
      0.385000          0.991716E-04
      0.390000          0.956996E-04
      0.395000          0.924089E-04
      0.400000          0.893382E-04
      0.405000          0.865242E-04
      0.410000          0.840001E-04
      0.415000          0.817941E-04
      0.420000          0.799278E-04
      0.425000          0.784156E-04
      0.430000          0.772637E-04
      0.435000          0.764701E-04
      0.440000          0.760248E-04
      0.445000          0.759096E-04
      0.450000          0.760997E-04
      0.455000          0.765638E-04
      0.460000          0.772662E-04
      0.465000          0.781671E-04
      0.470000          0.792249E-04
      0.475000          0.803970E-04
      0.480000          0.816411E-04
      0.485000          0.829167E-04
      0.490000          0.841860E-04
      0.495000          0.854148E-04
      0.500000          0.865731E-04
