 I_abs(s)[cm^-1]/c[mg/ml]
       0.00000          0.144259E-01
      0.500000E-02      0.143695E-01
      0.100000E-01      0.142020E-01
      0.150000E-01      0.139276E-01
      0.200000E-01      0.135536E-01
      0.250000E-01      0.130894E-01
      0.300000E-01      0.125466E-01
      0.350000E-01      0.119384E-01
      0.400000E-01      0.112786E-01
      0.450000E-01      0.105820E-01
      0.500000E-01      0.986301E-02
      0.550000E-01      0.913545E-02
      0.600000E-01      0.841218E-02
      0.650000E-01      0.770463E-02
      0.700000E-01      0.702253E-02
      0.750000E-01      0.637378E-02
      0.800000E-01      0.576430E-02
      0.850000E-01      0.519812E-02
      0.900000E-01      0.467744E-02
      0.950000E-01      0.420282E-02
      0.100000          0.377344E-02
      0.105000          0.338733E-02
      0.110000          0.304169E-02
      0.115000          0.273316E-02
      0.120000          0.245810E-02
      0.125000          0.221279E-02
      0.130000          0.199368E-02
      0.135000          0.179749E-02
      0.140000          0.162133E-02
      0.145000          0.146274E-02
      0.150000          0.131970E-02
      0.155000          0.119060E-02
      0.160000          0.107419E-02
      0.165000          0.969491E-03
      0.170000          0.875733E-03
      0.175000          0.792260E-03
      0.180000          0.718470E-03
      0.185000          0.653751E-03
      0.190000          0.597444E-03
      0.195000          0.548816E-03
      0.200000          0.507064E-03
      0.205000          0.471321E-03
      0.210000          0.440679E-03
      0.215000          0.414229E-03
      0.220000          0.391089E-03
      0.225000          0.370445E-03
      0.230000          0.351579E-03
      0.235000          0.333899E-03
      0.240000          0.316946E-03
      0.245000          0.300405E-03
      0.250000          0.284098E-03
      0.255000          0.267969E-03
      0.260000          0.252065E-03
      0.265000          0.236509E-03
      0.270000          0.221472E-03
      0.275000          0.207145E-03
      0.280000          0.193713E-03
      0.285000          0.181335E-03
      0.290000          0.170127E-03
      0.295000          0.160154E-03
      0.300000          0.151425E-03
      0.305000          0.143898E-03
      0.310000          0.137484E-03
      0.315000          0.132062E-03
      0.320000          0.127488E-03
      0.325000          0.123613E-03
      0.330000          0.120291E-03
      0.335000          0.117394E-03
      0.340000          0.114818E-03
      0.345000          0.112489E-03
      0.350000          0.110364E-03
      0.355000          0.108429E-03
      0.360000          0.106695E-03
      0.365000          0.105192E-03
      0.370000          0.103958E-03
      0.375000          0.103035E-03
      0.380000          0.102459E-03
      0.385000          0.102251E-03
      0.390000          0.102418E-03
      0.395000          0.102943E-03
      0.400000          0.103791E-03
      0.405000          0.104905E-03
      0.410000          0.106212E-03
      0.415000          0.107628E-03
      0.420000          0.109062E-03
      0.425000          0.110424E-03
      0.430000          0.111631E-03
      0.435000          0.112611E-03
      0.440000          0.113309E-03
      0.445000          0.113689E-03
      0.450000          0.113736E-03
      0.455000          0.113456E-03
      0.460000          0.112874E-03
      0.465000          0.112032E-03
      0.470000          0.110983E-03
      0.475000          0.109789E-03
      0.480000          0.108516E-03
      0.485000          0.107224E-03
      0.490000          0.105972E-03
      0.495000          0.104806E-03
      0.500000          0.103761E-03
