 I_abs(s)[cm^-1]/c[mg/ml]
       0.00000          0.145367E-01
      0.500000E-02      0.145000E-01
      0.100000E-01      0.143907E-01
      0.150000E-01      0.142102E-01
      0.200000E-01      0.139612E-01
      0.250000E-01      0.136474E-01
      0.300000E-01      0.132732E-01
      0.350000E-01      0.128440E-01
      0.400000E-01      0.123657E-01
      0.450000E-01      0.118448E-01
      0.500000E-01      0.112881E-01
      0.550000E-01      0.107027E-01
      0.600000E-01      0.100960E-01
      0.650000E-01      0.947495E-02
      0.700000E-01      0.884662E-02
      0.750000E-01      0.821767E-02
      0.800000E-01      0.759436E-02
      0.850000E-01      0.698245E-02
      0.900000E-01      0.638709E-02
      0.950000E-01      0.581281E-02
      0.100000          0.526346E-02
      0.105000          0.474219E-02
      0.110000          0.425145E-02
      0.115000          0.379301E-02
      0.120000          0.336799E-02
      0.125000          0.297689E-02
      0.130000          0.261969E-02
      0.135000          0.229584E-02
      0.140000          0.200438E-02
      0.145000          0.174401E-02
      0.150000          0.151312E-02
      0.155000          0.130989E-02
      0.160000          0.113236E-02
      0.165000          0.978449E-03
      0.170000          0.846056E-03
      0.175000          0.733081E-03
      0.180000          0.637467E-03
      0.185000          0.557236E-03
      0.190000          0.490511E-03
      0.195000          0.435534E-03
      0.200000          0.390679E-03
      0.205000          0.354459E-03
      0.210000          0.325526E-03
      0.215000          0.302670E-03
      0.220000          0.284814E-03
      0.225000          0.271009E-03
      0.230000          0.260423E-03
      0.235000          0.252335E-03
      0.240000          0.246122E-03
      0.245000          0.241256E-03
      0.250000          0.237289E-03
      0.255000          0.233850E-03
      0.260000          0.230636E-03
      0.265000          0.227404E-03
      0.270000          0.223968E-03
      0.275000          0.220191E-03
      0.280000          0.215981E-03
      0.285000          0.211286E-03
      0.290000          0.206090E-03
      0.295000          0.200405E-03
      0.300000          0.194271E-03
      0.305000          0.187748E-03
      0.310000          0.180915E-03
      0.315000          0.173858E-03
      0.320000          0.166674E-03
      0.325000          0.159460E-03
      0.330000          0.152315E-03
      0.335000          0.145330E-03
      0.340000          0.138588E-03
      0.345000          0.132163E-03
      0.350000          0.126114E-03
      0.355000          0.120488E-03
      0.360000          0.115315E-03
      0.365000          0.110612E-03
      0.370000          0.106381E-03
      0.375000          0.102612E-03
      0.380000          0.992828E-04
      0.385000          0.963628E-04
      0.390000          0.938139E-04
      0.395000          0.915935E-04
      0.400000          0.896565E-04
      0.405000          0.879577E-04
      0.410000          0.864536E-04
      0.415000          0.851041E-04
      0.420000          0.838743E-04
      0.425000          0.827345E-04
      0.430000          0.816618E-04
      0.435000          0.806396E-04
      0.440000          0.796577E-04
      0.445000          0.787117E-04
      0.450000          0.778022E-04
      0.455000          0.769339E-04
      0.460000          0.761148E-04
      0.465000          0.753542E-04
      0.470000          0.746626E-04
      0.475000          0.740499E-04
      0.480000          0.735245E-04
      0.485000          0.730930E-04
      0.490000          0.727590E-04
      0.495000          0.725231E-04
      0.500000          0.723827E-04
