 I_abs(s)[cm^-1]/c[mg/ml]
       0.00000          0.146161E-01
      0.500000E-02      0.145794E-01
      0.100000E-01      0.144699E-01
      0.150000E-01      0.142893E-01
      0.200000E-01      0.140400E-01
      0.250000E-01      0.137256E-01
      0.300000E-01      0.133506E-01
      0.350000E-01      0.129202E-01
      0.400000E-01      0.124402E-01
      0.450000E-01      0.119171E-01
      0.500000E-01      0.113575E-01
      0.550000E-01      0.107686E-01
      0.600000E-01      0.101575E-01
      0.650000E-01      0.953123E-02
      0.700000E-01      0.889682E-02
      0.750000E-01      0.826090E-02
      0.800000E-01      0.762976E-02
      0.850000E-01      0.700919E-02
      0.900000E-01      0.640444E-02
      0.950000E-01      0.582013E-02
      0.100000          0.526023E-02
      0.105000          0.472804E-02
      0.110000          0.422618E-02
      0.115000          0.375659E-02
      0.120000          0.332059E-02
      0.125000          0.291889E-02
      0.130000          0.255162E-02
      0.135000          0.221843E-02
      0.140000          0.191852E-02
      0.145000          0.165074E-02
      0.150000          0.141358E-02
      0.155000          0.120533E-02
      0.160000          0.102407E-02
      0.165000          0.867751E-03
      0.170000          0.734260E-03
      0.175000          0.621456E-03
      0.180000          0.527210E-03
      0.185000          0.449444E-03
      0.190000          0.386161E-03
      0.195000          0.335466E-03
      0.200000          0.295583E-03
      0.205000          0.264867E-03
      0.210000          0.241814E-03
      0.215000          0.225062E-03
      0.220000          0.213391E-03
      0.225000          0.205724E-03
      0.230000          0.201116E-03
      0.235000          0.198754E-03
      0.240000          0.197944E-03
      0.245000          0.198107E-03
      0.250000          0.198766E-03
      0.255000          0.199539E-03
      0.260000          0.200127E-03
      0.265000          0.200308E-03
      0.270000          0.199926E-03
      0.275000          0.198881E-03
      0.280000          0.197125E-03
      0.285000          0.194646E-03
      0.290000          0.191471E-03
      0.295000          0.187648E-03
      0.300000          0.183248E-03
      0.305000          0.178357E-03
      0.310000          0.173067E-03
      0.315000          0.167476E-03
      0.320000          0.161681E-03
      0.325000          0.155779E-03
      0.330000          0.149857E-03
      0.335000          0.143998E-03
      0.340000          0.138272E-03
      0.345000          0.132742E-03
      0.350000          0.127457E-03
      0.355000          0.122458E-03
      0.360000          0.117774E-03
      0.365000          0.113423E-03
      0.370000          0.109416E-03
      0.375000          0.105754E-03
      0.380000          0.102432E-03
      0.385000          0.994387E-04
      0.390000          0.967592E-04
      0.395000          0.943742E-04
      0.400000          0.922623E-04
      0.405000          0.904008E-04
      0.410000          0.887665E-04
      0.415000          0.873366E-04
      0.420000          0.860888E-04
      0.425000          0.850024E-04
      0.430000          0.840583E-04
      0.435000          0.832391E-04
      0.440000          0.825294E-04
      0.445000          0.819159E-04
      0.450000          0.813871E-04
      0.455000          0.809330E-04
      0.460000          0.805456E-04
      0.465000          0.802178E-04
      0.470000          0.799440E-04
      0.475000          0.797189E-04
      0.480000          0.795382E-04
      0.485000          0.793977E-04
      0.490000          0.792935E-04
      0.495000          0.792214E-04
      0.500000          0.791773E-04
