 I_abs(s)[cm^-1]/c[mg/ml]
       0.00000          0.141977E-01
      0.500000E-02      0.141575E-01
      0.100000E-01      0.140376E-01
      0.150000E-01      0.138399E-01
      0.200000E-01      0.135680E-01
      0.250000E-01      0.132263E-01
      0.300000E-01      0.128207E-01
      0.350000E-01      0.123576E-01
      0.400000E-01      0.118444E-01
      0.450000E-01      0.112891E-01
      0.500000E-01      0.107000E-01
      0.550000E-01      0.100854E-01
      0.600000E-01      0.945389E-02
      0.650000E-01      0.881349E-02
      0.700000E-01      0.817203E-02
      0.750000E-01      0.753673E-02
      0.800000E-01      0.691417E-02
      0.850000E-01      0.631017E-02
      0.900000E-01      0.572974E-02
      0.950000E-01      0.517702E-02
      0.100000          0.465530E-02
      0.105000          0.416704E-02
      0.110000          0.371386E-02
      0.115000          0.329667E-02
      0.120000          0.291565E-02
      0.125000          0.257043E-02
      0.130000          0.226007E-02
      0.135000          0.198325E-02
      0.140000          0.173828E-02
      0.145000          0.152320E-02
      0.150000          0.133589E-02
      0.155000          0.117410E-02
      0.160000          0.103552E-02
      0.165000          0.917845E-03
      0.170000          0.818800E-03
      0.175000          0.736182E-03
      0.180000          0.667884E-03
      0.185000          0.611916E-03
      0.190000          0.566416E-03
      0.195000          0.529662E-03
      0.200000          0.500078E-03
      0.205000          0.476236E-03
      0.210000          0.456856E-03
      0.215000          0.440808E-03
      0.220000          0.427109E-03
      0.225000          0.414921E-03
      0.230000          0.403545E-03
      0.235000          0.392419E-03
      0.240000          0.381107E-03
      0.245000          0.369297E-03
      0.250000          0.356786E-03
      0.255000          0.343474E-03
      0.260000          0.329348E-03
      0.265000          0.314472E-03
      0.270000          0.298969E-03
      0.275000          0.283012E-03
      0.280000          0.266805E-03
      0.285000          0.250569E-03
      0.290000          0.234530E-03
      0.295000          0.218909E-03
      0.300000          0.203907E-03
      0.305000          0.189700E-03
      0.310000          0.176431E-03
      0.315000          0.164207E-03
      0.320000          0.153099E-03
      0.325000          0.143139E-03
      0.330000          0.134323E-03
      0.335000          0.126617E-03
      0.340000          0.119960E-03
      0.345000          0.114270E-03
      0.350000          0.109450E-03
      0.355000          0.105394E-03
      0.360000          0.101994E-03
      0.365000          0.991449E-04
      0.370000          0.967457E-04
      0.375000          0.947070E-04
      0.380000          0.929509E-04
      0.385000          0.914131E-04
      0.390000          0.900427E-04
      0.395000          0.888018E-04
      0.400000          0.876645E-04
      0.405000          0.866145E-04
      0.410000          0.856437E-04
      0.415000          0.847496E-04
      0.420000          0.839329E-04
      0.425000          0.831962E-04
      0.430000          0.825417E-04
      0.435000          0.819700E-04
      0.440000          0.814792E-04
      0.445000          0.810648E-04
      0.450000          0.807187E-04
      0.455000          0.804305E-04
      0.460000          0.801872E-04
      0.465000          0.799743E-04
      0.470000          0.797766E-04
      0.475000          0.795789E-04
      0.480000          0.793672E-04
      0.485000          0.791292E-04
      0.490000          0.788548E-04
      0.495000          0.785371E-04
      0.500000          0.781719E-04
