 I_abs(s)[cm^-1]/c[mg/ml]
       0.00000          0.146798E-01
      0.500000E-02      0.146402E-01
      0.100000E-01      0.145222E-01
      0.150000E-01      0.143275E-01
      0.200000E-01      0.140593E-01
      0.250000E-01      0.137217E-01
      0.300000E-01      0.133197E-01
      0.350000E-01      0.128596E-01
      0.400000E-01      0.123479E-01
      0.450000E-01      0.117922E-01
      0.500000E-01      0.112000E-01
      0.550000E-01      0.105794E-01
      0.600000E-01      0.993843E-02
      0.650000E-01      0.928499E-02
      0.700000E-01      0.862673E-02
      0.750000E-01      0.797090E-02
      0.800000E-01      0.732423E-02
      0.850000E-01      0.669281E-02
      0.900000E-01      0.608205E-02
      0.950000E-01      0.549656E-02
      0.100000          0.494019E-02
      0.105000          0.441598E-02
      0.110000          0.392618E-02
      0.115000          0.347229E-02
      0.120000          0.305507E-02
      0.125000          0.267466E-02
      0.130000          0.233059E-02
      0.135000          0.202192E-02
      0.140000          0.174725E-02
      0.145000          0.150486E-02
      0.150000          0.129274E-02
      0.155000          0.110873E-02
      0.160000          0.950530E-03
      0.165000          0.815778E-03
      0.170000          0.702129E-03
      0.175000          0.607279E-03
      0.180000          0.529006E-03
      0.185000          0.465207E-03
      0.190000          0.413908E-03
      0.195000          0.373289E-03
      0.200000          0.341682E-03
      0.205000          0.317582E-03
      0.210000          0.299638E-03
      0.215000          0.286654E-03
      0.220000          0.277575E-03
      0.225000          0.271483E-03
      0.230000          0.267588E-03
      0.235000          0.265210E-03
      0.240000          0.263779E-03
      0.245000          0.262817E-03
      0.250000          0.261935E-03
      0.255000          0.260819E-03
      0.260000          0.259227E-03
      0.265000          0.256981E-03
      0.270000          0.253958E-03
      0.275000          0.250085E-03
      0.280000          0.245335E-03
      0.285000          0.239719E-03
      0.290000          0.233281E-03
      0.295000          0.226093E-03
      0.300000          0.218249E-03
      0.305000          0.209860E-03
      0.310000          0.201049E-03
      0.315000          0.191947E-03
      0.320000          0.182685E-03
      0.325000          0.173393E-03
      0.330000          0.164197E-03
      0.335000          0.155211E-03
      0.340000          0.146539E-03
      0.345000          0.138270E-03
      0.350000          0.130479E-03
      0.355000          0.123226E-03
      0.360000          0.116551E-03
      0.365000          0.110483E-03
      0.370000          0.105034E-03
      0.375000          0.100201E-03
      0.380000          0.959713E-04
      0.385000          0.923218E-04
      0.390000          0.892202E-04
      0.395000          0.866287E-04
      0.400000          0.845046E-04
      0.405000          0.828028E-04
      0.410000          0.814771E-04
      0.415000          0.804817E-04
      0.420000          0.797720E-04
      0.425000          0.793061E-04
      0.430000          0.790447E-04
      0.435000          0.789522E-04
      0.440000          0.789961E-04
      0.445000          0.791480E-04
      0.450000          0.793825E-04
      0.455000          0.796776E-04
      0.460000          0.800143E-04
      0.465000          0.803758E-04
      0.470000          0.807480E-04
      0.475000          0.811182E-04
      0.480000          0.814759E-04
      0.485000          0.818113E-04
      0.490000          0.821164E-04
      0.495000          0.823840E-04
      0.500000          0.826078E-04
