 I_abs(s)[cm^-1]/c[mg/ml]
       0.00000          0.140337E-01
      0.500000E-02      0.139937E-01
      0.100000E-01      0.138744E-01
      0.150000E-01      0.136778E-01
      0.200000E-01      0.134072E-01
      0.250000E-01      0.130670E-01
      0.300000E-01      0.126628E-01
      0.350000E-01      0.122009E-01
      0.400000E-01      0.116886E-01
      0.450000E-01      0.111337E-01
      0.500000E-01      0.105445E-01
      0.550000E-01      0.992934E-02
      0.600000E-01      0.929674E-02
      0.650000E-01      0.865499E-02
      0.700000E-01      0.801205E-02
      0.750000E-01      0.737543E-02
      0.800000E-01      0.675198E-02
      0.850000E-01      0.614785E-02
      0.900000E-01      0.556837E-02
      0.950000E-01      0.501799E-02
      0.100000          0.450028E-02
      0.105000          0.401788E-02
      0.110000          0.357256E-02
      0.115000          0.316526E-02
      0.120000          0.279611E-02
      0.125000          0.246455E-02
      0.130000          0.216940E-02
      0.135000          0.190898E-02
      0.140000          0.168116E-02
      0.145000          0.148352E-02
      0.150000          0.131342E-02
      0.155000          0.116808E-02
      0.160000          0.104470E-02
      0.165000          0.940522E-03
      0.170000          0.852878E-03
      0.175000          0.779264E-03
      0.180000          0.717373E-03
      0.185000          0.665123E-03
      0.190000          0.620672E-03
      0.195000          0.582427E-03
      0.200000          0.549041E-03
      0.205000          0.519398E-03
      0.210000          0.492604E-03
      0.215000          0.467960E-03
      0.220000          0.444939E-03
      0.225000          0.423160E-03
      0.230000          0.402366E-03
      0.235000          0.382392E-03
      0.240000          0.363148E-03
      0.245000          0.344596E-03
      0.250000          0.326731E-03
      0.255000          0.309567E-03
      0.260000          0.293128E-03
      0.265000          0.277436E-03
      0.270000          0.262507E-03
      0.275000          0.248347E-03
      0.280000          0.234953E-03
      0.285000          0.222312E-03
      0.290000          0.210402E-03
      0.295000          0.199195E-03
      0.300000          0.188660E-03
      0.305000          0.178766E-03
      0.310000          0.169482E-03
      0.315000          0.160781E-03
      0.320000          0.152642E-03
      0.325000          0.145048E-03
      0.330000          0.137985E-03
      0.335000          0.131447E-03
      0.340000          0.125428E-03
      0.345000          0.119927E-03
      0.350000          0.114939E-03
      0.355000          0.110460E-03
      0.360000          0.106482E-03
      0.365000          0.102992E-03
      0.370000          0.999713E-04
      0.375000          0.973957E-04
      0.380000          0.952336E-04
      0.385000          0.934474E-04
      0.390000          0.919944E-04
      0.395000          0.908274E-04
      0.400000          0.898966E-04
      0.405000          0.891507E-04
      0.410000          0.885394E-04
      0.415000          0.880147E-04
      0.420000          0.875326E-04
      0.425000          0.870550E-04
      0.430000          0.865503E-04
      0.435000          0.859947E-04
      0.440000          0.853727E-04
      0.445000          0.846770E-04
      0.450000          0.839082E-04
      0.455000          0.830744E-04
      0.460000          0.821896E-04
      0.465000          0.812732E-04
      0.470000          0.803480E-04
      0.475000          0.794387E-04
      0.480000          0.785705E-04
      0.485000          0.777675E-04
      0.490000          0.770512E-04
      0.495000          0.764395E-04
      0.500000          0.759458E-04
