 I_abs(s)[cm^-1]/c[mg/ml]
       0.00000          0.145446E-01
      0.500000E-02      0.145061E-01
      0.100000E-01      0.143912E-01
      0.150000E-01      0.142015E-01
      0.200000E-01      0.139398E-01
      0.250000E-01      0.136098E-01
      0.300000E-01      0.132163E-01
      0.350000E-01      0.127646E-01
      0.400000E-01      0.122611E-01
      0.450000E-01      0.117126E-01
      0.500000E-01      0.111263E-01
      0.550000E-01      0.105097E-01
      0.600000E-01      0.987058E-02
      0.650000E-01      0.921665E-02
      0.700000E-01      0.855546E-02
      0.750000E-01      0.789431E-02
      0.800000E-01      0.724011E-02
      0.850000E-01      0.659926E-02
      0.900000E-01      0.597757E-02
      0.950000E-01      0.538018E-02
      0.100000          0.481151E-02
      0.105000          0.427522E-02
      0.110000          0.377417E-02
      0.115000          0.331048E-02
      0.120000          0.288548E-02
      0.125000          0.249979E-02
      0.130000          0.215334E-02
      0.135000          0.184544E-02
      0.140000          0.157486E-02
      0.145000          0.133989E-02
      0.150000          0.113842E-02
      0.155000          0.968022E-03
      0.160000          0.826047E-03
      0.165000          0.709688E-03
      0.170000          0.616061E-03
      0.175000          0.542275E-03
      0.180000          0.485494E-03
      0.185000          0.442992E-03
      0.190000          0.412195E-03
      0.195000          0.390726E-03
      0.200000          0.376423E-03
      0.205000          0.367366E-03
      0.210000          0.361885E-03
      0.215000          0.358559E-03
      0.220000          0.356219E-03
      0.225000          0.353932E-03
      0.230000          0.350990E-03
      0.235000          0.346890E-03
      0.240000          0.341311E-03
      0.245000          0.334092E-03
      0.250000          0.325208E-03
      0.255000          0.314742E-03
      0.260000          0.302864E-03
      0.265000          0.289805E-03
      0.270000          0.275841E-03
      0.275000          0.261267E-03
      0.280000          0.246385E-03
      0.285000          0.231489E-03
      0.290000          0.216851E-03
      0.295000          0.202717E-03
      0.300000          0.189296E-03
      0.305000          0.176756E-03
      0.310000          0.165226E-03
      0.315000          0.154791E-03
      0.320000          0.145498E-03
      0.325000          0.137355E-03
      0.330000          0.130337E-03
      0.335000          0.124390E-03
      0.340000          0.119435E-03
      0.345000          0.115376E-03
      0.350000          0.112103E-03
      0.355000          0.109498E-03
      0.360000          0.107438E-03
      0.365000          0.105805E-03
      0.370000          0.104482E-03
      0.375000          0.103364E-03
      0.380000          0.102354E-03
      0.385000          0.101372E-03
      0.390000          0.100348E-03
      0.395000          0.992300E-04
      0.400000          0.979814E-04
      0.405000          0.965796E-04
      0.410000          0.950165E-04
      0.415000          0.932966E-04
      0.420000          0.914358E-04
      0.425000          0.894594E-04
      0.430000          0.874003E-04
      0.435000          0.852965E-04
      0.440000          0.831897E-04
      0.445000          0.811229E-04
      0.450000          0.791388E-04
      0.455000          0.772779E-04
      0.460000          0.755772E-04
      0.465000          0.740689E-04
      0.470000          0.727798E-04
      0.475000          0.717299E-04
      0.480000          0.709328E-04
      0.485000          0.703950E-04
      0.490000          0.701163E-04
      0.495000          0.700901E-04
      0.500000          0.703035E-04
