 I_abs(s)[cm^-1]/c[mg/ml]
       0.00000          0.142213E-01
      0.500000E-02      0.141721E-01
      0.100000E-01      0.140256E-01
      0.150000E-01      0.137850E-01
      0.200000E-01      0.134554E-01
      0.250000E-01      0.130438E-01
      0.300000E-01      0.125586E-01
      0.350000E-01      0.120097E-01
      0.400000E-01      0.114078E-01
      0.450000E-01      0.107644E-01
      0.500000E-01      0.100910E-01
      0.550000E-01      0.939918E-02
      0.600000E-01      0.870023E-02
      0.650000E-01      0.800461E-02
      0.700000E-01      0.732188E-02
      0.750000E-01      0.666045E-02
      0.800000E-01      0.602747E-02
      0.850000E-01      0.542872E-02
      0.900000E-01      0.486857E-02
      0.950000E-01      0.435001E-02
      0.100000          0.387474E-02
      0.105000          0.344323E-02
      0.110000          0.305492E-02
      0.115000          0.270832E-02
      0.120000          0.240125E-02
      0.125000          0.213096E-02
      0.130000          0.189433E-02
      0.135000          0.168806E-02
      0.140000          0.150877E-02
      0.145000          0.135316E-02
      0.150000          0.121808E-02
      0.155000          0.110062E-02
      0.160000          0.998191E-03
      0.165000          0.908490E-03
      0.170000          0.829556E-03
      0.175000          0.759741E-03
      0.180000          0.697690E-03
      0.185000          0.642306E-03
      0.190000          0.592716E-03
      0.195000          0.548226E-03
      0.200000          0.508282E-03
      0.205000          0.472436E-03
      0.210000          0.440310E-03
      0.215000          0.411572E-03
      0.220000          0.385916E-03
      0.225000          0.363051E-03
      0.230000          0.342687E-03
      0.235000          0.324539E-03
      0.240000          0.308324E-03
      0.245000          0.293767E-03
      0.250000          0.280605E-03
      0.255000          0.268594E-03
      0.260000          0.257514E-03
      0.265000          0.247177E-03
      0.270000          0.237424E-03
      0.275000          0.228133E-03
      0.280000          0.219215E-03
      0.285000          0.210614E-03
      0.290000          0.202302E-03
      0.295000          0.194275E-03
      0.300000          0.186549E-03
      0.305000          0.179152E-03
      0.310000          0.172120E-03
      0.315000          0.165491E-03
      0.320000          0.159298E-03
      0.325000          0.153570E-03
      0.330000          0.148323E-03
      0.335000          0.143563E-03
      0.340000          0.139282E-03
      0.345000          0.135457E-03
      0.350000          0.132057E-03
      0.355000          0.129036E-03
      0.360000          0.126345E-03
      0.365000          0.123926E-03
      0.370000          0.121719E-03
      0.375000          0.119667E-03
      0.380000          0.117716E-03
      0.385000          0.115817E-03
      0.390000          0.113931E-03
      0.395000          0.112029E-03
      0.400000          0.110091E-03
      0.405000          0.108112E-03
      0.410000          0.106097E-03
      0.415000          0.104059E-03
      0.420000          0.102022E-03
      0.425000          0.100018E-03
      0.430000          0.980817E-04
      0.435000          0.962500E-04
      0.440000          0.945602E-04
      0.445000          0.930464E-04
      0.450000          0.917376E-04
      0.455000          0.906559E-04
      0.460000          0.898150E-04
      0.465000          0.892192E-04
      0.470000          0.888632E-04
      0.475000          0.887323E-04
      0.480000          0.888030E-04
      0.485000          0.890445E-04
      0.490000          0.894201E-04
      0.495000          0.898892E-04
      0.500000          0.904093E-04
