 I_abs(s)[cm^-1]/c[mg/ml]
       0.00000          0.143785E-01
      0.500000E-02      0.143119E-01
      0.100000E-01      0.141140E-01
      0.150000E-01      0.137916E-01
      0.200000E-01      0.133549E-01
      0.250000E-01      0.128179E-01
      0.300000E-01      0.121969E-01
      0.350000E-01      0.115101E-01
      0.400000E-01      0.107767E-01
      0.450000E-01      0.100156E-01
      0.500000E-01      0.924480E-02
      0.550000E-01      0.848091E-02
      0.600000E-01      0.773810E-02
      0.650000E-01      0.702801E-02
      0.700000E-01      0.635946E-02
      0.750000E-01      0.573841E-02
      0.800000E-01      0.516816E-02
      0.850000E-01      0.464962E-02
      0.900000E-01      0.418170E-02
      0.950000E-01      0.376178E-02
      0.100000          0.338618E-02
      0.105000          0.305063E-02
      0.110000          0.275065E-02
      0.115000          0.248192E-02
      0.120000          0.224050E-02
      0.125000          0.202299E-02
      0.130000          0.182659E-02
      0.135000          0.164907E-02
      0.140000          0.148874E-02
      0.145000          0.134428E-02
      0.150000          0.121467E-02
      0.155000          0.109902E-02
      0.160000          0.996466E-03
      0.165000          0.906122E-03
      0.170000          0.826992E-03
      0.175000          0.757978E-03
      0.180000          0.697894E-03
      0.185000          0.645509E-03
      0.190000          0.599597E-03
      0.195000          0.559007E-03
      0.200000          0.522709E-03
      0.205000          0.489842E-03
      0.210000          0.459737E-03
      0.215000          0.431922E-03
      0.220000          0.406108E-03
      0.225000          0.382157E-03
      0.230000          0.360044E-03
      0.235000          0.339803E-03
      0.240000          0.321486E-03
      0.245000          0.305119E-03
      0.250000          0.290672E-03
      0.255000          0.278042E-03
      0.260000          0.267048E-03
      0.265000          0.257442E-03
      0.270000          0.248928E-03
      0.275000          0.241186E-03
      0.280000          0.233904E-03
      0.285000          0.226805E-03
      0.290000          0.219670E-03
      0.295000          0.212353E-03
      0.300000          0.204792E-03
      0.305000          0.197001E-03
      0.310000          0.189066E-03
      0.315000          0.181121E-03
      0.320000          0.173336E-03
      0.325000          0.165886E-03
      0.330000          0.158933E-03
      0.335000          0.152611E-03
      0.340000          0.147009E-03
      0.345000          0.142166E-03
      0.350000          0.138074E-03
      0.355000          0.134678E-03
      0.360000          0.131887E-03
      0.365000          0.129589E-03
      0.370000          0.127665E-03
      0.375000          0.125995E-03
      0.380000          0.124479E-03
      0.385000          0.123038E-03
      0.390000          0.121618E-03
      0.395000          0.120194E-03
      0.400000          0.118768E-03
      0.405000          0.117356E-03
      0.410000          0.115989E-03
      0.415000          0.114703E-03
      0.420000          0.113528E-03
      0.425000          0.112488E-03
      0.430000          0.111590E-03
      0.435000          0.110831E-03
      0.440000          0.110190E-03
      0.445000          0.109634E-03
      0.450000          0.109124E-03
      0.455000          0.108616E-03
      0.460000          0.108068E-03
      0.465000          0.107444E-03
      0.470000          0.106718E-03
      0.475000          0.105876E-03
      0.480000          0.104918E-03
      0.485000          0.103855E-03
      0.490000          0.102709E-03
      0.495000          0.101510E-03
      0.500000          0.100290E-03
