 I_abs(s)[cm^-1]/c[mg/ml]
       0.00000          0.147515E-01
      0.500000E-02      0.147124E-01
      0.100000E-01      0.145957E-01
      0.150000E-01      0.144030E-01
      0.200000E-01      0.141375E-01
      0.250000E-01      0.138032E-01
      0.300000E-01      0.134050E-01
      0.350000E-01      0.129489E-01
      0.400000E-01      0.124414E-01
      0.450000E-01      0.118898E-01
      0.500000E-01      0.113014E-01
      0.550000E-01      0.106842E-01
      0.600000E-01      0.100460E-01
      0.650000E-01      0.939444E-02
      0.700000E-01      0.873715E-02
      0.750000E-01      0.808121E-02
      0.800000E-01      0.743327E-02
      0.850000E-01      0.679934E-02
      0.900000E-01      0.618479E-02
      0.950000E-01      0.559425E-02
      0.100000          0.503162E-02
      0.105000          0.450000E-02
      0.110000          0.400176E-02
      0.115000          0.353852E-02
      0.120000          0.311121E-02
      0.125000          0.272016E-02
      0.130000          0.236510E-02
      0.135000          0.204528E-02
      0.140000          0.175951E-02
      0.145000          0.150627E-02
      0.150000          0.128376E-02
      0.155000          0.108997E-02
      0.160000          0.922769E-03
      0.165000          0.779928E-03
      0.170000          0.659198E-03
      0.175000          0.558345E-03
      0.180000          0.475188E-03
      0.185000          0.407628E-03
      0.190000          0.353669E-03
      0.195000          0.311437E-03
      0.200000          0.279192E-03
      0.205000          0.255329E-03
      0.210000          0.238387E-03
      0.215000          0.227046E-03
      0.220000          0.220126E-03
      0.225000          0.216582E-03
      0.230000          0.215501E-03
      0.235000          0.216094E-03
      0.240000          0.217691E-03
      0.245000          0.219736E-03
      0.250000          0.221776E-03
      0.255000          0.223458E-03
      0.260000          0.224518E-03
      0.265000          0.224774E-03
      0.270000          0.224121E-03
      0.275000          0.222513E-03
      0.280000          0.219965E-03
      0.285000          0.216536E-03
      0.290000          0.212322E-03
      0.295000          0.207446E-03
      0.300000          0.202049E-03
      0.305000          0.196281E-03
      0.310000          0.190294E-03
      0.315000          0.184233E-03
      0.320000          0.178231E-03
      0.325000          0.172404E-03
      0.330000          0.166846E-03
      0.335000          0.161629E-03
      0.340000          0.156801E-03
      0.345000          0.152384E-03
      0.350000          0.148379E-03
      0.355000          0.144768E-03
      0.360000          0.141514E-03
      0.365000          0.138568E-03
      0.370000          0.135872E-03
      0.375000          0.133363E-03
      0.380000          0.130978E-03
      0.385000          0.128656E-03
      0.390000          0.126342E-03
      0.395000          0.123993E-03
      0.400000          0.121575E-03
      0.405000          0.119066E-03
      0.410000          0.116457E-03
      0.415000          0.113753E-03
      0.420000          0.110970E-03
      0.425000          0.108131E-03
      0.430000          0.105272E-03
      0.435000          0.102432E-03
      0.440000          0.996526E-04
      0.445000          0.969787E-04
      0.450000          0.944520E-04
      0.455000          0.921107E-04
      0.460000          0.899873E-04
      0.465000          0.881072E-04
      0.470000          0.864871E-04
      0.475000          0.851351E-04
      0.480000          0.840498E-04
      0.485000          0.832210E-04
      0.490000          0.826303E-04
      0.495000          0.822520E-04
      0.500000          0.820547E-04
