 I_abs(s)[cm^-1]/c[mg/ml]
       0.00000          0.147515E-01
      0.500000E-02      0.147116E-01
      0.100000E-01      0.145922E-01
      0.150000E-01      0.143956E-01
      0.200000E-01      0.141250E-01
      0.250000E-01      0.137849E-01
      0.300000E-01      0.133808E-01
      0.350000E-01      0.129191E-01
      0.400000E-01      0.124069E-01
      0.450000E-01      0.118520E-01
      0.500000E-01      0.112623E-01
      0.550000E-01      0.106459E-01
      0.600000E-01      0.100110E-01
      0.650000E-01      0.936528E-02
      0.700000E-01      0.871629E-02
      0.750000E-01      0.807092E-02
      0.800000E-01      0.743548E-02
      0.850000E-01      0.681556E-02
      0.900000E-01      0.621598E-02
      0.950000E-01      0.564083E-02
      0.100000          0.509336E-02
      0.105000          0.457612E-02
      0.110000          0.409091E-02
      0.115000          0.363890E-02
      0.120000          0.322064E-02
      0.125000          0.283619E-02
      0.130000          0.248512E-02
      0.135000          0.216667E-02
      0.140000          0.187973E-02
      0.145000          0.162298E-02
      0.150000          0.139489E-02
      0.155000          0.119380E-02
      0.160000          0.101795E-02
      0.165000          0.865540E-03
      0.170000          0.734709E-03
      0.175000          0.623605E-03
      0.180000          0.530383E-03
      0.185000          0.453230E-03
      0.190000          0.390372E-03
      0.195000          0.340093E-03
      0.200000          0.300743E-03
      0.205000          0.270751E-03
      0.210000          0.248639E-03
      0.215000          0.233026E-03
      0.220000          0.222641E-03
      0.225000          0.216332E-03
      0.230000          0.213071E-03
      0.235000          0.211957E-03
      0.240000          0.212218E-03
      0.245000          0.213211E-03
      0.250000          0.214420E-03
      0.255000          0.215444E-03
      0.260000          0.215992E-03
      0.265000          0.215873E-03
      0.270000          0.214981E-03
      0.275000          0.213281E-03
      0.280000          0.210797E-03
      0.285000          0.207598E-03
      0.290000          0.203782E-03
      0.295000          0.199468E-03
      0.300000          0.194780E-03
      0.305000          0.189844E-03
      0.310000          0.184775E-03
      0.315000          0.179678E-03
      0.320000          0.174640E-03
      0.325000          0.169729E-03
      0.330000          0.164996E-03
      0.335000          0.160475E-03
      0.340000          0.156181E-03
      0.345000          0.152121E-03
      0.350000          0.148286E-03
      0.355000          0.144662E-03
      0.360000          0.141228E-03
      0.365000          0.137962E-03
      0.370000          0.134837E-03
      0.375000          0.131830E-03
      0.380000          0.128917E-03
      0.385000          0.126078E-03
      0.390000          0.123293E-03
      0.395000          0.120549E-03
      0.400000          0.117834E-03
      0.405000          0.115139E-03
      0.410000          0.112459E-03
      0.415000          0.109793E-03
      0.420000          0.107142E-03
      0.425000          0.104511E-03
      0.430000          0.101906E-03
      0.435000          0.993380E-04
      0.440000          0.968199E-04
      0.445000          0.943666E-04
      0.450000          0.919949E-04
      0.455000          0.897229E-04
      0.460000          0.875696E-04
      0.465000          0.855538E-04
      0.470000          0.836936E-04
      0.475000          0.820055E-04
      0.480000          0.805036E-04
      0.485000          0.791989E-04
      0.490000          0.780985E-04
      0.495000          0.772054E-04
      0.500000          0.765175E-04
