 I_abs(s)[cm^-1]/c[mg/ml]
       0.00000          0.142526E-01
      0.500000E-02      0.142144E-01
      0.100000E-01      0.141001E-01
      0.150000E-01      0.139117E-01
      0.200000E-01      0.136520E-01
      0.250000E-01      0.133249E-01
      0.300000E-01      0.129355E-01
      0.350000E-01      0.124895E-01
      0.400000E-01      0.119934E-01
      0.450000E-01      0.114542E-01
      0.500000E-01      0.108795E-01
      0.550000E-01      0.102770E-01
      0.600000E-01      0.965450E-02
      0.650000E-01      0.901970E-02
      0.700000E-01      0.838013E-02
      0.750000E-01      0.774292E-02
      0.800000E-01      0.711474E-02
      0.850000E-01      0.650165E-02
      0.900000E-01      0.590903E-02
      0.950000E-01      0.534154E-02
      0.100000          0.480305E-02
      0.105000          0.429666E-02
      0.110000          0.382466E-02
      0.115000          0.338858E-02
      0.120000          0.298922E-02
      0.125000          0.262669E-02
      0.130000          0.230050E-02
      0.135000          0.200965E-02
      0.140000          0.175263E-02
      0.145000          0.152760E-02
      0.150000          0.133242E-02
      0.155000          0.116472E-02
      0.160000          0.102203E-02
      0.165000          0.901791E-03
      0.170000          0.801463E-03
      0.175000          0.718556E-03
      0.180000          0.650680E-03
      0.185000          0.595588E-03
      0.190000          0.551195E-03
      0.195000          0.515601E-03
      0.200000          0.487103E-03
      0.205000          0.464196E-03
      0.210000          0.445571E-03
      0.215000          0.430113E-03
      0.220000          0.416882E-03
      0.225000          0.405109E-03
      0.230000          0.394171E-03
      0.235000          0.383584E-03
      0.240000          0.372979E-03
      0.245000          0.362090E-03
      0.250000          0.350739E-03
      0.255000          0.338821E-03
      0.260000          0.326290E-03
      0.265000          0.313150E-03
      0.270000          0.299444E-03
      0.275000          0.285248E-03
      0.280000          0.270660E-03
      0.285000          0.255795E-03
      0.290000          0.240781E-03
      0.295000          0.225756E-03
      0.300000          0.210858E-03
      0.305000          0.196227E-03
      0.310000          0.181999E-03
      0.315000          0.168305E-03
      0.320000          0.155266E-03
      0.325000          0.142990E-03
      0.330000          0.131573E-03
      0.335000          0.121095E-03
      0.340000          0.111618E-03
      0.345000          0.103186E-03
      0.350000          0.958230E-04
      0.355000          0.895348E-04
      0.360000          0.843071E-04
      0.365000          0.801076E-04
      0.370000          0.768870E-04
      0.375000          0.745807E-04
      0.380000          0.731107E-04
      0.385000          0.723888E-04
      0.390000          0.723181E-04
      0.395000          0.727967E-04
      0.400000          0.737201E-04
      0.405000          0.749840E-04
      0.410000          0.764869E-04
      0.415000          0.781324E-04
      0.420000          0.798315E-04
      0.425000          0.815039E-04
      0.430000          0.830797E-04
      0.435000          0.845004E-04
      0.440000          0.857191E-04
      0.445000          0.867008E-04
      0.450000          0.874225E-04
      0.455000          0.878721E-04
      0.460000          0.880482E-04
      0.465000          0.879588E-04
      0.470000          0.876197E-04
      0.475000          0.870540E-04
      0.480000          0.862899E-04
      0.485000          0.853600E-04
      0.490000          0.842991E-04
      0.495000          0.831436E-04
      0.500000          0.819299E-04
