 I_abs(s)[cm^-1]/c[mg/ml]
       0.00000          0.141351E-01
      0.500000E-02      0.140948E-01
      0.100000E-01      0.139745E-01
      0.150000E-01      0.137763E-01
      0.200000E-01      0.135036E-01
      0.250000E-01      0.131609E-01
      0.300000E-01      0.127539E-01
      0.350000E-01      0.122893E-01
      0.400000E-01      0.117744E-01
      0.450000E-01      0.112172E-01
      0.500000E-01      0.106261E-01
      0.550000E-01      0.100095E-01
      0.600000E-01      0.937592E-02
      0.650000E-01      0.873366E-02
      0.700000E-01      0.809060E-02
      0.750000E-01      0.745410E-02
      0.800000E-01      0.683086E-02
      0.850000E-01      0.622684E-02
      0.900000E-01      0.564714E-02
      0.950000E-01      0.509601E-02
      0.100000          0.457679E-02
      0.105000          0.409198E-02
      0.110000          0.364319E-02
      0.115000          0.323128E-02
      0.120000          0.285635E-02
      0.125000          0.251791E-02
      0.130000          0.221486E-02
      0.135000          0.194569E-02
      0.140000          0.170852E-02
      0.145000          0.150117E-02
      0.150000          0.132131E-02
      0.155000          0.116650E-02
      0.160000          0.103423E-02
      0.165000          0.922063E-03
      0.170000          0.827596E-03
      0.175000          0.748554E-03
      0.180000          0.682798E-03
      0.185000          0.628351E-03
      0.190000          0.583406E-03
      0.195000          0.546337E-03
      0.200000          0.515691E-03
      0.205000          0.490192E-03
      0.210000          0.468725E-03
      0.215000          0.450333E-03
      0.220000          0.434204E-03
      0.225000          0.419658E-03
      0.230000          0.406135E-03
      0.235000          0.393188E-03
      0.240000          0.380466E-03
      0.245000          0.367708E-03
      0.250000          0.354732E-03
      0.255000          0.341425E-03
      0.260000          0.327733E-03
      0.265000          0.313658E-03
      0.270000          0.299241E-03
      0.275000          0.284560E-03
      0.280000          0.269721E-03
      0.285000          0.254848E-03
      0.290000          0.240078E-03
      0.295000          0.225553E-03
      0.300000          0.211413E-03
      0.305000          0.197792E-03
      0.310000          0.184810E-03
      0.315000          0.172573E-03
      0.320000          0.161167E-03
      0.325000          0.150655E-03
      0.330000          0.141080E-03
      0.335000          0.132461E-03
      0.340000          0.124795E-03
      0.345000          0.118061E-03
      0.350000          0.112217E-03
      0.355000          0.107208E-03
      0.360000          0.102966E-03
      0.365000          0.994151E-04
      0.370000          0.964737E-04
      0.375000          0.940572E-04
      0.380000          0.920823E-04
      0.385000          0.904686E-04
      0.390000          0.891412E-04
      0.395000          0.880322E-04
      0.400000          0.870819E-04
      0.405000          0.862398E-04
      0.410000          0.854646E-04
      0.415000          0.847242E-04
      0.420000          0.839953E-04
      0.425000          0.832627E-04
      0.430000          0.825181E-04
      0.435000          0.817593E-04
      0.440000          0.809887E-04
      0.445000          0.802126E-04
      0.450000          0.794394E-04
      0.455000          0.786790E-04
      0.460000          0.779419E-04
      0.465000          0.772378E-04
      0.470000          0.765756E-04
      0.475000          0.759625E-04
      0.480000          0.754038E-04
      0.485000          0.749025E-04
      0.490000          0.744596E-04
      0.495000          0.740739E-04
      0.500000          0.737423E-04
