 I_abs(s)[cm^-1]/c[mg/ml]
       0.00000          0.143313E-01
      0.500000E-02      0.142897E-01
      0.100000E-01      0.141657E-01
      0.150000E-01      0.139614E-01
      0.200000E-01      0.136801E-01
      0.250000E-01      0.133265E-01
      0.300000E-01      0.129062E-01
      0.350000E-01      0.124261E-01
      0.400000E-01      0.118935E-01
      0.450000E-01      0.113167E-01
      0.500000E-01      0.107042E-01
      0.550000E-01      0.100649E-01
      0.600000E-01      0.940747E-02
      0.650000E-01      0.874076E-02
      0.700000E-01      0.807307E-02
      0.750000E-01      0.741228E-02
      0.800000E-01      0.676560E-02
      0.850000E-01      0.613951E-02
      0.900000E-01      0.553962E-02
      0.950000E-01      0.497064E-02
      0.100000          0.443633E-02
      0.105000          0.393948E-02
      0.110000          0.348197E-02
      0.115000          0.306475E-02
      0.120000          0.268795E-02
      0.125000          0.235093E-02
      0.130000          0.205238E-02
      0.135000          0.179046E-02
      0.140000          0.156283E-02
      0.145000          0.136684E-02
      0.150000          0.119959E-02
      0.155000          0.105804E-02
      0.160000          0.939142E-03
      0.165000          0.839861E-03
      0.170000          0.757303E-03
      0.175000          0.688751E-03
      0.180000          0.631716E-03
      0.185000          0.583972E-03
      0.190000          0.543570E-03
      0.195000          0.508853E-03
      0.200000          0.478448E-03
      0.205000          0.451253E-03
      0.210000          0.426420E-03
      0.215000          0.403325E-03
      0.220000          0.381542E-03
      0.225000          0.360805E-03
      0.230000          0.340982E-03
      0.235000          0.322037E-03
      0.240000          0.304001E-03
      0.245000          0.286948E-03
      0.250000          0.270968E-03
      0.255000          0.256150E-03
      0.260000          0.242567E-03
      0.265000          0.230264E-03
      0.270000          0.219252E-03
      0.275000          0.209509E-03
      0.280000          0.200975E-03
      0.285000          0.193559E-03
      0.290000          0.187143E-03
      0.295000          0.181590E-03
      0.300000          0.176750E-03
      0.305000          0.172468E-03
      0.310000          0.168592E-03
      0.315000          0.164979E-03
      0.320000          0.161500E-03
      0.325000          0.158047E-03
      0.330000          0.154534E-03
      0.335000          0.150897E-03
      0.340000          0.147097E-03
      0.345000          0.143120E-03
      0.350000          0.138971E-03
      0.355000          0.134675E-03
      0.360000          0.130269E-03
      0.365000          0.125804E-03
      0.370000          0.121336E-03
      0.375000          0.116926E-03
      0.380000          0.112633E-03
      0.385000          0.108511E-03
      0.390000          0.104610E-03
      0.395000          0.100971E-03
      0.400000          0.976220E-04
      0.405000          0.945840E-04
      0.410000          0.918650E-04
      0.415000          0.894632E-04
      0.420000          0.873673E-04
      0.425000          0.855579E-04
      0.430000          0.840093E-04
      0.435000          0.826912E-04
      0.440000          0.815704E-04
      0.445000          0.806133E-04
      0.450000          0.797868E-04
      0.455000          0.790606E-04
      0.460000          0.784076E-04
      0.465000          0.778058E-04
      0.470000          0.772380E-04
      0.475000          0.766926E-04
      0.480000          0.761636E-04
      0.485000          0.756498E-04
      0.490000          0.751547E-04
      0.495000          0.746855E-04
      0.500000          0.742519E-04
