 I_abs(s)[cm^-1]/c[mg/ml]
       0.00000          0.144259E-01
      0.500000E-02      0.143711E-01
      0.100000E-01      0.142080E-01
      0.150000E-01      0.139408E-01
      0.200000E-01      0.135760E-01
      0.250000E-01      0.131226E-01
      0.300000E-01      0.125914E-01
      0.350000E-01      0.119947E-01
      0.400000E-01      0.113458E-01
      0.450000E-01      0.106588E-01
      0.500000E-01      0.994750E-02
      0.550000E-01      0.922553E-02
      0.600000E-01      0.850559E-02
      0.650000E-01      0.779917E-02
      0.700000E-01      0.711628E-02
      0.750000E-01      0.646521E-02
      0.800000E-01      0.585241E-02
      0.850000E-01      0.528248E-02
      0.900000E-01      0.475819E-02
      0.950000E-01      0.428066E-02
      0.100000          0.384948E-02
      0.105000          0.346297E-02
      0.110000          0.311845E-02
      0.115000          0.281251E-02
      0.120000          0.254127E-02
      0.125000          0.230065E-02
      0.130000          0.208660E-02
      0.135000          0.189526E-02
      0.140000          0.172314E-02
      0.145000          0.156723E-02
      0.150000          0.142500E-02
      0.155000          0.129447E-02
      0.160000          0.117416E-02
      0.165000          0.106303E-02
      0.170000          0.960446E-03
      0.175000          0.866027E-03
      0.180000          0.779603E-03
      0.185000          0.701111E-03
      0.190000          0.630509E-03
      0.195000          0.567716E-03
      0.200000          0.512561E-03
      0.205000          0.464751E-03
      0.210000          0.423860E-03
      0.215000          0.389332E-03
      0.220000          0.360501E-03
      0.225000          0.336620E-03
      0.230000          0.316895E-03
      0.235000          0.300525E-03
      0.240000          0.286741E-03
      0.245000          0.274836E-03
      0.250000          0.264195E-03
      0.255000          0.254315E-03
      0.260000          0.244812E-03
      0.265000          0.235424E-03
      0.270000          0.226003E-03
      0.275000          0.216503E-03
      0.280000          0.206961E-03
      0.285000          0.197471E-03
      0.290000          0.188168E-03
      0.295000          0.179198E-03
      0.300000          0.170707E-03
      0.305000          0.162816E-03
      0.310000          0.155617E-03
      0.315000          0.149159E-03
      0.320000          0.143453E-03
      0.325000          0.138468E-03
      0.330000          0.134141E-03
      0.335000          0.130383E-03
      0.340000          0.127090E-03
      0.345000          0.124149E-03
      0.350000          0.121455E-03
      0.355000          0.118914E-03
      0.360000          0.116449E-03
      0.365000          0.114008E-03
      0.370000          0.111562E-03
      0.375000          0.109105E-03
      0.380000          0.106654E-03
      0.385000          0.104240E-03
      0.390000          0.101906E-03
      0.395000          0.997015E-04
      0.400000          0.976727E-04
      0.405000          0.958614E-04
      0.410000          0.942990E-04
      0.415000          0.930034E-04
      0.420000          0.919779E-04
      0.425000          0.912107E-04
      0.430000          0.906764E-04
      0.435000          0.903382E-04
      0.440000          0.901512E-04
      0.445000          0.900657E-04
      0.450000          0.900317E-04
      0.455000          0.900021E-04
      0.460000          0.899358E-04
      0.465000          0.898010E-04
      0.470000          0.895760E-04
      0.475000          0.892507E-04
      0.480000          0.888261E-04
      0.485000          0.883135E-04
      0.490000          0.877328E-04
      0.495000          0.871106E-04
      0.500000          0.864771E-04
