 I_abs(s)[cm^-1]/c[mg/ml]
       0.00000          0.142369E-01
      0.500000E-02      0.141781E-01
      0.100000E-01      0.140031E-01
      0.150000E-01      0.137173E-01
      0.200000E-01      0.133287E-01
      0.250000E-01      0.128485E-01
      0.300000E-01      0.122897E-01
      0.350000E-01      0.116671E-01
      0.400000E-01      0.109964E-01
      0.450000E-01      0.102936E-01
      0.500000E-01      0.957420E-02
      0.550000E-01      0.885277E-02
      0.600000E-01      0.814237E-02
      0.650000E-01      0.745422E-02
      0.700000E-01      0.679739E-02
      0.750000E-01      0.617875E-02
      0.800000E-01      0.560292E-02
      0.850000E-01      0.507241E-02
      0.900000E-01      0.458789E-02
      0.950000E-01      0.414841E-02
      0.100000          0.375176E-02
      0.105000          0.339486E-02
      0.110000          0.307408E-02
      0.115000          0.278553E-02
      0.120000          0.252540E-02
      0.125000          0.229011E-02
      0.130000          0.207650E-02
      0.135000          0.188189E-02
      0.140000          0.170413E-02
      0.145000          0.154156E-02
      0.150000          0.139297E-02
      0.155000          0.125749E-02
      0.160000          0.113448E-02
      0.165000          0.102349E-02
      0.170000          0.924088E-03
      0.175000          0.835825E-03
      0.180000          0.758182E-03
      0.185000          0.690523E-03
      0.190000          0.632097E-03
      0.195000          0.582037E-03
      0.200000          0.539397E-03
      0.205000          0.503180E-03
      0.210000          0.472381E-03
      0.215000          0.446032E-03
      0.220000          0.423231E-03
      0.225000          0.403180E-03
      0.230000          0.385197E-03
      0.235000          0.368730E-03
      0.240000          0.353356E-03
      0.245000          0.338769E-03
      0.250000          0.324770E-03
      0.255000          0.311243E-03
      0.260000          0.298136E-03
      0.265000          0.285439E-03
      0.270000          0.273169E-03
      0.275000          0.261346E-03
      0.280000          0.249992E-03
      0.285000          0.239116E-03
      0.290000          0.228714E-03
      0.295000          0.218770E-03
      0.300000          0.209258E-03
      0.305000          0.200146E-03
      0.310000          0.191399E-03
      0.315000          0.182990E-03
      0.320000          0.174895E-03
      0.325000          0.167103E-03
      0.330000          0.159614E-03
      0.335000          0.152439E-03
      0.340000          0.145597E-03
      0.345000          0.139115E-03
      0.350000          0.133024E-03
      0.355000          0.127352E-03
      0.360000          0.122128E-03
      0.365000          0.117371E-03
      0.370000          0.113094E-03
      0.375000          0.109298E-03
      0.380000          0.105977E-03
      0.385000          0.103110E-03
      0.390000          0.100669E-03
      0.395000          0.986170E-04
      0.400000          0.969116E-04
      0.405000          0.955051E-04
      0.410000          0.943477E-04
      0.415000          0.933900E-04
      0.420000          0.925842E-04
      0.425000          0.918864E-04
      0.430000          0.912574E-04
      0.435000          0.906644E-04
      0.440000          0.900807E-04
      0.445000          0.894870E-04
      0.450000          0.888704E-04
      0.455000          0.882247E-04
      0.460000          0.875491E-04
      0.465000          0.868482E-04
      0.470000          0.861300E-04
      0.475000          0.854056E-04
      0.480000          0.846881E-04
      0.485000          0.839909E-04
      0.490000          0.833275E-04
      0.495000          0.827103E-04
      0.500000          0.821499E-04
