 I_abs(s)[cm^-1]/c[mg/ml]
       0.00000          0.146002E-01
      0.500000E-02      0.145567E-01
      0.100000E-01      0.144269E-01
      0.150000E-01      0.142131E-01
      0.200000E-01      0.139190E-01
      0.250000E-01      0.135495E-01
      0.300000E-01      0.131108E-01
      0.350000E-01      0.126103E-01
      0.400000E-01      0.120560E-01
      0.450000E-01      0.114565E-01
      0.500000E-01      0.108211E-01
      0.550000E-01      0.101592E-01
      0.600000E-01      0.948004E-02
      0.650000E-01      0.879281E-02
      0.700000E-01      0.810625E-02
      0.750000E-01      0.742850E-02
      0.800000E-01      0.676698E-02
      0.850000E-01      0.612827E-02
      0.900000E-01      0.551802E-02
      0.950000E-01      0.494087E-02
      0.100000          0.440048E-02
      0.105000          0.389947E-02
      0.110000          0.343948E-02
      0.115000          0.302124E-02
      0.120000          0.264464E-02
      0.125000          0.230879E-02
      0.130000          0.201216E-02
      0.135000          0.175268E-02
      0.140000          0.152786E-02
      0.145000          0.133489E-02
      0.150000          0.117077E-02
      0.155000          0.103239E-02
      0.160000          0.916634E-03
      0.165000          0.820463E-03
      0.170000          0.740975E-03
      0.175000          0.675460E-03
      0.180000          0.621439E-03
      0.185000          0.576693E-03
      0.190000          0.539276E-03
      0.195000          0.507517E-03
      0.200000          0.480017E-03
      0.205000          0.455633E-03
      0.210000          0.433460E-03
      0.215000          0.412807E-03
      0.220000          0.393170E-03
      0.225000          0.374206E-03
      0.230000          0.355703E-03
      0.235000          0.337556E-03
      0.240000          0.319740E-03
      0.245000          0.302288E-03
      0.250000          0.285272E-03
      0.255000          0.268787E-03
      0.260000          0.252937E-03
      0.265000          0.237823E-03
      0.270000          0.223536E-03
      0.275000          0.210152E-03
      0.280000          0.197729E-03
      0.285000          0.186302E-03
      0.290000          0.175887E-03
      0.295000          0.166479E-03
      0.300000          0.158056E-03
      0.305000          0.150578E-03
      0.310000          0.143994E-03
      0.315000          0.138239E-03
      0.320000          0.133243E-03
      0.325000          0.128929E-03
      0.330000          0.125219E-03
      0.335000          0.122033E-03
      0.340000          0.119293E-03
      0.345000          0.116927E-03
      0.350000          0.114865E-03
      0.355000          0.113045E-03
      0.360000          0.111412E-03
      0.365000          0.109918E-03
      0.370000          0.108523E-03
      0.375000          0.107196E-03
      0.380000          0.105913E-03
      0.385000          0.104658E-03
      0.390000          0.103420E-03
      0.395000          0.102195E-03
      0.400000          0.100985E-03
      0.405000          0.997923E-04
      0.410000          0.986256E-04
      0.415000          0.974932E-04
      0.420000          0.964049E-04
      0.425000          0.953701E-04
      0.430000          0.943973E-04
      0.435000          0.934933E-04
      0.440000          0.926629E-04
      0.445000          0.919085E-04
      0.450000          0.912296E-04
      0.455000          0.906232E-04
      0.460000          0.900838E-04
      0.465000          0.896035E-04
      0.470000          0.891725E-04
      0.475000          0.887794E-04
      0.480000          0.884118E-04
      0.485000          0.880568E-04
      0.490000          0.877015E-04
      0.495000          0.873334E-04
      0.500000          0.869410E-04
