 I_abs(s)[cm^-1]/c[mg/ml]
       0.00000          0.143785E-01
      0.500000E-02      0.143382E-01
      0.100000E-01      0.142180E-01
      0.150000E-01      0.140196E-01
      0.200000E-01      0.137465E-01
      0.250000E-01      0.134027E-01
      0.300000E-01      0.129939E-01
      0.350000E-01      0.125261E-01
      0.400000E-01      0.120065E-01
      0.450000E-01      0.114427E-01
      0.500000E-01      0.108428E-01
      0.550000E-01      0.102151E-01
      0.600000E-01      0.956802E-02
      0.650000E-01      0.890968E-02
      0.700000E-01      0.824810E-02
      0.750000E-01      0.759080E-02
      0.800000E-01      0.694473E-02
      0.850000E-01      0.631618E-02
      0.900000E-01      0.571067E-02
      0.950000E-01      0.513292E-02
      0.100000          0.458677E-02
      0.105000          0.407523E-02
      0.110000          0.360044E-02
      0.115000          0.316371E-02
      0.120000          0.276559E-02
      0.125000          0.240593E-02
      0.130000          0.208396E-02
      0.135000          0.179836E-02
      0.140000          0.154735E-02
      0.145000          0.132883E-02
      0.150000          0.114040E-02
      0.155000          0.979504E-03
      0.160000          0.843484E-03
      0.165000          0.729659E-03
      0.170000          0.635392E-03
      0.175000          0.558142E-03
      0.180000          0.495507E-03
      0.185000          0.445257E-03
      0.190000          0.405355E-03
      0.195000          0.373975E-03
      0.200000          0.349503E-03
      0.205000          0.330538E-03
      0.210000          0.315881E-03
      0.215000          0.304524E-03
      0.220000          0.295636E-03
      0.225000          0.288540E-03
      0.230000          0.282697E-03
      0.235000          0.277687E-03
      0.240000          0.273189E-03
      0.245000          0.268963E-03
      0.250000          0.264833E-03
      0.255000          0.260676E-03
      0.260000          0.256409E-03
      0.265000          0.251977E-03
      0.270000          0.247348E-03
      0.275000          0.242506E-03
      0.280000          0.237445E-03
      0.285000          0.232168E-03
      0.290000          0.226685E-03
      0.295000          0.221011E-03
      0.300000          0.215164E-03
      0.305000          0.209166E-03
      0.310000          0.203045E-03
      0.315000          0.196830E-03
      0.320000          0.190555E-03
      0.325000          0.184253E-03
      0.330000          0.177963E-03
      0.335000          0.171723E-03
      0.340000          0.165570E-03
      0.345000          0.159543E-03
      0.350000          0.153677E-03
      0.355000          0.148004E-03
      0.360000          0.142552E-03
      0.365000          0.137346E-03
      0.370000          0.132406E-03
      0.375000          0.127743E-03
      0.380000          0.123367E-03
      0.385000          0.119280E-03
      0.390000          0.115481E-03
      0.395000          0.111963E-03
      0.400000          0.108716E-03
      0.405000          0.105726E-03
      0.410000          0.102980E-03
      0.415000          0.100459E-03
      0.420000          0.981485E-04
      0.425000          0.960304E-04
      0.430000          0.940891E-04
      0.435000          0.923100E-04
      0.440000          0.906800E-04
      0.445000          0.891880E-04
      0.450000          0.878243E-04
      0.455000          0.865814E-04
      0.460000          0.854528E-04
      0.465000          0.844335E-04
      0.470000          0.835192E-04
      0.475000          0.827063E-04
      0.480000          0.819909E-04
      0.485000          0.813691E-04
      0.490000          0.808364E-04
      0.495000          0.803875E-04
      0.500000          0.800160E-04
