 I_abs(s)[cm^-1]/c[mg/ml]
       0.00000          0.148636E-01
      0.500000E-02      0.148259E-01
      0.100000E-01      0.147133E-01
      0.150000E-01      0.145275E-01
      0.200000E-01      0.142709E-01
      0.250000E-01      0.139473E-01
      0.300000E-01      0.135611E-01
      0.350000E-01      0.131175E-01
      0.400000E-01      0.126224E-01
      0.450000E-01      0.120824E-01
      0.500000E-01      0.115043E-01
      0.550000E-01      0.108954E-01
      0.600000E-01      0.102630E-01
      0.650000E-01      0.961453E-02
      0.700000E-01      0.895710E-02
      0.750000E-01      0.829775E-02
      0.800000E-01      0.764309E-02
      0.850000E-01      0.699927E-02
      0.900000E-01      0.637188E-02
      0.950000E-01      0.576592E-02
      0.100000          0.518569E-02
      0.105000          0.463481E-02
      0.110000          0.411619E-02
      0.115000          0.363200E-02
      0.120000          0.318374E-02
      0.125000          0.277224E-02
      0.130000          0.239770E-02
      0.135000          0.205977E-02
      0.140000          0.175759E-02
      0.145000          0.148987E-02
      0.150000          0.125494E-02
      0.155000          0.105085E-02
      0.160000          0.875432E-03
      0.165000          0.726362E-03
      0.170000          0.601228E-03
      0.175000          0.497589E-03
      0.180000          0.413028E-03
      0.185000          0.345196E-03
      0.190000          0.291848E-03
      0.195000          0.250878E-03
      0.200000          0.220334E-03
      0.205000          0.198437E-03
      0.210000          0.183590E-03
      0.215000          0.174379E-03
      0.220000          0.169568E-03
      0.225000          0.168097E-03
      0.230000          0.169068E-03
      0.235000          0.171733E-03
      0.240000          0.175480E-03
      0.245000          0.179819E-03
      0.250000          0.184361E-03
      0.255000          0.188811E-03
      0.260000          0.192945E-03
      0.265000          0.196604E-03
      0.270000          0.199677E-03
      0.275000          0.202092E-03
      0.280000          0.203809E-03
      0.285000          0.204810E-03
      0.290000          0.205094E-03
      0.295000          0.204673E-03
      0.300000          0.203570E-03
      0.305000          0.201815E-03
      0.310000          0.199440E-03
      0.315000          0.196487E-03
      0.320000          0.192998E-03
      0.325000          0.189019E-03
      0.330000          0.184602E-03
      0.335000          0.179799E-03
      0.340000          0.174666E-03
      0.345000          0.169262E-03
      0.350000          0.163647E-03
      0.355000          0.157882E-03
      0.360000          0.152030E-03
      0.365000          0.146151E-03
      0.370000          0.140305E-03
      0.375000          0.134547E-03
      0.380000          0.128932E-03
      0.385000          0.123508E-03
      0.390000          0.118319E-03
      0.395000          0.113401E-03
      0.400000          0.108786E-03
      0.405000          0.104499E-03
      0.410000          0.100556E-03
      0.415000          0.969685E-04
      0.420000          0.937417E-04
      0.425000          0.908738E-04
      0.430000          0.883580E-04
      0.435000          0.861823E-04
      0.440000          0.843310E-04
      0.445000          0.827848E-04
      0.450000          0.815220E-04
      0.455000          0.805188E-04
      0.460000          0.797505E-04
      0.465000          0.791918E-04
      0.470000          0.788177E-04
      0.475000          0.786037E-04
      0.480000          0.785264E-04
      0.485000          0.785638E-04
      0.490000          0.786957E-04
      0.495000          0.789033E-04
      0.500000          0.791698E-04
