 I_abs(s)[cm^-1]/c[mg/ml]
       0.00000          0.145367E-01
      0.500000E-02      0.145017E-01
      0.100000E-01      0.143971E-01
      0.150000E-01      0.142243E-01
      0.200000E-01      0.139858E-01
      0.250000E-01      0.136846E-01
      0.300000E-01      0.133249E-01
      0.350000E-01      0.129113E-01
      0.400000E-01      0.124492E-01
      0.450000E-01      0.119444E-01
      0.500000E-01      0.114031E-01
      0.550000E-01      0.108318E-01
      0.600000E-01      0.102373E-01
      0.650000E-01      0.962609E-02
      0.700000E-01      0.900482E-02
      0.750000E-01      0.837986E-02
      0.800000E-01      0.775725E-02
      0.850000E-01      0.714268E-02
      0.900000E-01      0.654134E-02
      0.950000E-01      0.595790E-02
      0.100000          0.539644E-02
      0.105000          0.486044E-02
      0.110000          0.435276E-02
      0.115000          0.387563E-02
      0.120000          0.343067E-02
      0.125000          0.301890E-02
      0.130000          0.264081E-02
      0.135000          0.229636E-02
      0.140000          0.198506E-02
      0.145000          0.170602E-02
      0.150000          0.145800E-02
      0.155000          0.123949E-02
      0.160000          0.104872E-02
      0.165000          0.883791E-03
      0.170000          0.742675E-03
      0.175000          0.623281E-03
      0.180000          0.523501E-03
      0.185000          0.441249E-03
      0.190000          0.374496E-03
      0.195000          0.321296E-03
      0.200000          0.279807E-03
      0.205000          0.248312E-03
      0.210000          0.225225E-03
      0.215000          0.209103E-03
      0.220000          0.198643E-03
      0.225000          0.192686E-03
      0.230000          0.190210E-03
      0.235000          0.190327E-03
      0.240000          0.192273E-03
      0.245000          0.195400E-03
      0.250000          0.199167E-03
      0.255000          0.203129E-03
      0.260000          0.206930E-03
      0.265000          0.210290E-03
      0.270000          0.212998E-03
      0.275000          0.214903E-03
      0.280000          0.215906E-03
      0.285000          0.215952E-03
      0.290000          0.215024E-03
      0.295000          0.213138E-03
      0.300000          0.210335E-03
      0.305000          0.206678E-03
      0.310000          0.202245E-03
      0.315000          0.197128E-03
      0.320000          0.191427E-03
      0.325000          0.185249E-03
      0.330000          0.178701E-03
      0.335000          0.171890E-03
      0.340000          0.164921E-03
      0.345000          0.157894E-03
      0.350000          0.150901E-03
      0.355000          0.144028E-03
      0.360000          0.137349E-03
      0.365000          0.130929E-03
      0.370000          0.124825E-03
      0.375000          0.119079E-03
      0.380000          0.113726E-03
      0.385000          0.108788E-03
      0.390000          0.104279E-03
      0.395000          0.100204E-03
      0.400000          0.965603E-04
      0.405000          0.933375E-04
      0.410000          0.905200E-04
      0.415000          0.880873E-04
      0.420000          0.860155E-04
      0.425000          0.842780E-04
      0.430000          0.828468E-04
      0.435000          0.816931E-04
      0.440000          0.807884E-04
      0.445000          0.801046E-04
      0.450000          0.796150E-04
      0.455000          0.792946E-04
      0.460000          0.791200E-04
      0.465000          0.790699E-04
      0.470000          0.791250E-04
      0.475000          0.792679E-04
      0.480000          0.794832E-04
      0.485000          0.797569E-04
      0.490000          0.800768E-04
      0.495000          0.804318E-04
      0.500000          0.808119E-04
