 I_abs(s)[cm^-1]/c[mg/ml]
       0.00000          0.143391E-01
      0.500000E-02      0.142994E-01
      0.100000E-01      0.141809E-01
      0.150000E-01      0.139855E-01
      0.200000E-01      0.137165E-01
      0.250000E-01      0.133781E-01
      0.300000E-01      0.129757E-01
      0.350000E-01      0.125156E-01
      0.400000E-01      0.120047E-01
      0.450000E-01      0.114508E-01
      0.500000E-01      0.108618E-01
      0.550000E-01      0.102459E-01
      0.600000E-01      0.961143E-02
      0.650000E-01      0.896640E-02
      0.700000E-01      0.831866E-02
      0.750000E-01      0.767551E-02
      0.800000E-01      0.704373E-02
      0.850000E-01      0.642936E-02
      0.900000E-01      0.583770E-02
      0.950000E-01      0.527321E-02
      0.100000          0.473951E-02
      0.105000          0.423934E-02
      0.110000          0.377464E-02
      0.115000          0.334653E-02
      0.120000          0.295537E-02
      0.125000          0.260090E-02
      0.130000          0.228224E-02
      0.135000          0.199801E-02
      0.140000          0.174646E-02
      0.145000          0.152549E-02
      0.150000          0.133281E-02
      0.155000          0.116597E-02
      0.160000          0.102249E-02
      0.165000          0.899873E-03
      0.170000          0.795701E-03
      0.175000          0.707664E-03
      0.180000          0.633604E-03
      0.185000          0.571533E-03
      0.190000          0.519651E-03
      0.195000          0.476355E-03
      0.200000          0.440232E-03
      0.205000          0.410057E-03
      0.210000          0.384779E-03
      0.215000          0.363506E-03
      0.220000          0.345488E-03
      0.225000          0.330098E-03
      0.230000          0.316818E-03
      0.235000          0.305216E-03
      0.240000          0.294938E-03
      0.245000          0.285689E-03
      0.250000          0.277224E-03
      0.255000          0.269342E-03
      0.260000          0.261874E-03
      0.265000          0.254679E-03
      0.270000          0.247646E-03
      0.275000          0.240682E-03
      0.280000          0.233719E-03
      0.285000          0.226709E-03
      0.290000          0.219621E-03
      0.295000          0.212445E-03
      0.300000          0.205185E-03
      0.305000          0.197862E-03
      0.310000          0.190508E-03
      0.315000          0.183168E-03
      0.320000          0.175893E-03
      0.325000          0.168737E-03
      0.330000          0.161759E-03
      0.335000          0.155013E-03
      0.340000          0.148553E-03
      0.345000          0.142422E-03
      0.350000          0.136657E-03
      0.355000          0.131286E-03
      0.360000          0.126324E-03
      0.365000          0.121778E-03
      0.370000          0.117642E-03
      0.375000          0.113903E-03
      0.380000          0.110539E-03
      0.385000          0.107520E-03
      0.390000          0.104814E-03
      0.395000          0.102385E-03
      0.400000          0.100197E-03
      0.405000          0.982141E-04
      0.410000          0.964036E-04
      0.415000          0.947365E-04
      0.420000          0.931884E-04
      0.425000          0.917400E-04
      0.430000          0.903777E-04
      0.435000          0.890927E-04
      0.440000          0.878811E-04
      0.445000          0.867427E-04
      0.450000          0.856807E-04
      0.455000          0.846997E-04
      0.460000          0.838056E-04
      0.465000          0.830039E-04
      0.470000          0.822991E-04
      0.475000          0.816936E-04
      0.480000          0.811875E-04
      0.485000          0.807778E-04
      0.490000          0.804585E-04
      0.495000          0.802205E-04
      0.500000          0.800522E-04
