 I_abs(s)[cm^-1]/c[mg/ml]
       0.00000          0.145129E-01
      0.500000E-02      0.144666E-01
      0.100000E-01      0.143285E-01
      0.150000E-01      0.141015E-01
      0.200000E-01      0.137900E-01
      0.250000E-01      0.134004E-01
      0.300000E-01      0.129401E-01
      0.350000E-01      0.124179E-01
      0.400000E-01      0.118435E-01
      0.450000E-01      0.112270E-01
      0.500000E-01      0.105790E-01
      0.550000E-01      0.991006E-02
      0.600000E-01      0.923045E-02
      0.650000E-01      0.854988E-02
      0.700000E-01      0.787730E-02
      0.750000E-01      0.722074E-02
      0.800000E-01      0.658710E-02
      0.850000E-01      0.598216E-02
      0.900000E-01      0.541045E-02
      0.950000E-01      0.487529E-02
      0.100000          0.437884E-02
      0.105000          0.392216E-02
      0.110000          0.350533E-02
      0.115000          0.312759E-02
      0.120000          0.278748E-02
      0.125000          0.248296E-02
      0.130000          0.221161E-02
      0.135000          0.197075E-02
      0.140000          0.175755E-02
      0.145000          0.156919E-02
      0.150000          0.140291E-02
      0.155000          0.125611E-02
      0.160000          0.112641E-02
      0.165000          0.101166E-02
      0.170000          0.909954E-03
      0.175000          0.819662E-03
      0.180000          0.739386E-03
      0.185000          0.667953E-03
      0.190000          0.604380E-03
      0.195000          0.547844E-03
      0.200000          0.497653E-03
      0.205000          0.453210E-03
      0.210000          0.413991E-03
      0.215000          0.379519E-03
      0.220000          0.349349E-03
      0.225000          0.323054E-03
      0.230000          0.300223E-03
      0.235000          0.280451E-03
      0.240000          0.263345E-03
      0.245000          0.248528E-03
      0.250000          0.235641E-03
      0.255000          0.224351E-03
      0.260000          0.214357E-03
      0.265000          0.205390E-03
      0.270000          0.197225E-03
      0.275000          0.189672E-03
      0.280000          0.182584E-03
      0.285000          0.175852E-03
      0.290000          0.169401E-03
      0.295000          0.163186E-03
      0.300000          0.157186E-03
      0.305000          0.151402E-03
      0.310000          0.145844E-03
      0.315000          0.140532E-03
      0.320000          0.135488E-03
      0.325000          0.130735E-03
      0.330000          0.126288E-03
      0.335000          0.122158E-03
      0.340000          0.118348E-03
      0.345000          0.114853E-03
      0.350000          0.111660E-03
      0.355000          0.108750E-03
      0.360000          0.106100E-03
      0.365000          0.103682E-03
      0.370000          0.101468E-03
      0.375000          0.994309E-04
      0.380000          0.975434E-04
      0.385000          0.957826E-04
      0.390000          0.941294E-04
      0.395000          0.925691E-04
      0.400000          0.910919E-04
      0.405000          0.896928E-04
      0.410000          0.883711E-04
      0.415000          0.871299E-04
      0.420000          0.859755E-04
      0.425000          0.849162E-04
      0.430000          0.839620E-04
      0.435000          0.831229E-04
      0.440000          0.824088E-04
      0.445000          0.818284E-04
      0.450000          0.813885E-04
      0.455000          0.810936E-04
      0.460000          0.809457E-04
      0.465000          0.809436E-04
      0.470000          0.810834E-04
      0.475000          0.813579E-04
      0.480000          0.817572E-04
      0.485000          0.822687E-04
      0.490000          0.828776E-04
      0.495000          0.835671E-04
      0.500000          0.843191E-04
