 I_abs(s)[cm^-1]/c[mg/ml]
       0.00000          0.145525E-01
      0.500000E-02      0.145141E-01
      0.100000E-01      0.143995E-01
      0.150000E-01      0.142105E-01
      0.200000E-01      0.139501E-01
      0.250000E-01      0.136226E-01
      0.300000E-01      0.132329E-01
      0.350000E-01      0.127871E-01
      0.400000E-01      0.122918E-01
      0.450000E-01      0.117542E-01
      0.500000E-01      0.111818E-01
      0.550000E-01      0.105824E-01
      0.600000E-01      0.996359E-02
      0.650000E-01      0.933299E-02
      0.700000E-01      0.869784E-02
      0.750000E-01      0.806495E-02
      0.800000E-01      0.744056E-02
      0.850000E-01      0.683029E-02
      0.900000E-01      0.623906E-02
      0.950000E-01      0.567107E-02
      0.100000          0.512974E-02
      0.105000          0.461777E-02
      0.110000          0.413713E-02
      0.115000          0.368914E-02
      0.120000          0.327447E-02
      0.125000          0.289326E-02
      0.130000          0.254515E-02
      0.135000          0.222936E-02
      0.140000          0.194478E-02
      0.145000          0.169003E-02
      0.150000          0.146352E-02
      0.155000          0.126351E-02
      0.160000          0.108816E-02
      0.165000          0.935593E-03
      0.170000          0.803902E-03
      0.175000          0.691208E-03
      0.180000          0.595668E-03
      0.185000          0.515499E-03
      0.190000          0.448992E-03
      0.195000          0.394516E-03
      0.200000          0.350535E-03
      0.205000          0.315603E-03
      0.210000          0.288373E-03
      0.215000          0.267598E-03
      0.220000          0.252132E-03
      0.225000          0.240934E-03
      0.230000          0.233064E-03
      0.235000          0.227689E-03
      0.240000          0.224079E-03
      0.245000          0.221605E-03
      0.250000          0.219742E-03
      0.255000          0.218059E-03
      0.260000          0.216221E-03
      0.265000          0.213977E-03
      0.270000          0.211157E-03
      0.275000          0.207662E-03
      0.280000          0.203455E-03
      0.285000          0.198552E-03
      0.290000          0.193010E-03
      0.295000          0.186919E-03
      0.300000          0.180390E-03
      0.305000          0.173546E-03
      0.310000          0.166516E-03
      0.315000          0.159425E-03
      0.320000          0.152388E-03
      0.325000          0.145508E-03
      0.330000          0.138869E-03
      0.335000          0.132540E-03
      0.340000          0.126568E-03
      0.345000          0.120983E-03
      0.350000          0.115799E-03
      0.355000          0.111013E-03
      0.360000          0.106613E-03
      0.365000          0.102577E-03
      0.370000          0.988775E-04
      0.375000          0.954856E-04
      0.380000          0.923708E-04
      0.385000          0.895053E-04
      0.390000          0.868647E-04
      0.395000          0.844297E-04
      0.400000          0.821864E-04
      0.405000          0.801264E-04
      0.410000          0.782462E-04
      0.415000          0.765470E-04
      0.420000          0.750330E-04
      0.425000          0.737108E-04
      0.430000          0.725881E-04
      0.435000          0.716720E-04
      0.440000          0.709683E-04
      0.445000          0.704807E-04
      0.450000          0.702094E-04
      0.455000          0.701512E-04
      0.460000          0.702990E-04
      0.465000          0.706418E-04
      0.470000          0.711648E-04
      0.475000          0.718499E-04
      0.480000          0.726763E-04
      0.485000          0.736208E-04
      0.490000          0.746589E-04
      0.495000          0.757651E-04
      0.500000          0.769140E-04
