 I_abs(s)[cm^-1]/c[mg/ml]
       0.00000          0.141664E-01
      0.500000E-02      0.141264E-01
      0.100000E-01      0.140070E-01
      0.150000E-01      0.138103E-01
      0.200000E-01      0.135394E-01
      0.250000E-01      0.131988E-01
      0.300000E-01      0.127939E-01
      0.350000E-01      0.123313E-01
      0.400000E-01      0.118179E-01
      0.450000E-01      0.112618E-01
      0.500000E-01      0.106709E-01
      0.550000E-01      0.100536E-01
      0.600000E-01      0.941853E-02
      0.650000E-01      0.877379E-02
      0.700000E-01      0.812734E-02
      0.750000E-01      0.748665E-02
      0.800000E-01      0.685858E-02
      0.850000E-01      0.624926E-02
      0.900000E-01      0.566404E-02
      0.950000E-01      0.510740E-02
      0.100000          0.458294E-02
      0.105000          0.409337E-02
      0.110000          0.364054E-02
      0.115000          0.322547E-02
      0.120000          0.284841E-02
      0.125000          0.250891E-02
      0.130000          0.220591E-02
      0.135000          0.193785E-02
      0.140000          0.170273E-02
      0.145000          0.149826E-02
      0.150000          0.132189E-02
      0.155000          0.117096E-02
      0.160000          0.104276E-02
      0.165000          0.934566E-03
      0.170000          0.843776E-03
      0.175000          0.767899E-03
      0.180000          0.704621E-03
      0.185000          0.651828E-03
      0.190000          0.607624E-03
      0.195000          0.570340E-03
      0.200000          0.538531E-03
      0.205000          0.510975E-03
      0.210000          0.486653E-03
      0.215000          0.464737E-03
      0.220000          0.444571E-03
      0.225000          0.425646E-03
      0.230000          0.407583E-03
      0.235000          0.390109E-03
      0.240000          0.373039E-03
      0.245000          0.356258E-03
      0.250000          0.339704E-03
      0.255000          0.323359E-03
      0.260000          0.307230E-03
      0.265000          0.291345E-03
      0.270000          0.275749E-03
      0.275000          0.260490E-03
      0.280000          0.245623E-03
      0.285000          0.231203E-03
      0.290000          0.217285E-03
      0.295000          0.203921E-03
      0.300000          0.191161E-03
      0.305000          0.179051E-03
      0.310000          0.167632E-03
      0.315000          0.156941E-03
      0.320000          0.147009E-03
      0.325000          0.137860E-03
      0.330000          0.129509E-03
      0.335000          0.121967E-03
      0.340000          0.115233E-03
      0.345000          0.109297E-03
      0.350000          0.104142E-03
      0.355000          0.997404E-04
      0.360000          0.960549E-04
      0.365000          0.930409E-04
      0.370000          0.906461E-04
      0.375000          0.888121E-04
      0.380000          0.874757E-04
      0.385000          0.865704E-04
      0.390000          0.860280E-04
      0.395000          0.857805E-04
      0.400000          0.857615E-04
      0.405000          0.859080E-04
      0.410000          0.861613E-04
      0.415000          0.864687E-04
      0.420000          0.867838E-04
      0.425000          0.870679E-04
      0.430000          0.872897E-04
      0.435000          0.874255E-04
      0.440000          0.874596E-04
      0.445000          0.873832E-04
      0.450000          0.871942E-04
      0.455000          0.868963E-04
      0.460000          0.864984E-04
      0.465000          0.860132E-04
      0.470000          0.854567E-04
      0.475000          0.848468E-04
      0.480000          0.842027E-04
      0.485000          0.835438E-04
      0.490000          0.828890E-04
      0.495000          0.822561E-04
      0.500000          0.816609E-04
