 I_abs(s)[cm^-1]/c[mg/ml]
       0.00000          0.146002E-01
      0.500000E-02      0.145628E-01
      0.100000E-01      0.144511E-01
      0.150000E-01      0.142669E-01
      0.200000E-01      0.140129E-01
      0.250000E-01      0.136931E-01
      0.300000E-01      0.133121E-01
      0.350000E-01      0.128755E-01
      0.400000E-01      0.123895E-01
      0.450000E-01      0.118610E-01
      0.500000E-01      0.112970E-01
      0.550000E-01      0.107049E-01
      0.600000E-01      0.100922E-01
      0.650000E-01      0.946608E-02
      0.700000E-01      0.883366E-02
      0.750000E-01      0.820167E-02
      0.800000E-01      0.757635E-02
      0.850000E-01      0.696338E-02
      0.900000E-01      0.636780E-02
      0.950000E-01      0.579398E-02
      0.100000          0.524559E-02
      0.105000          0.472558E-02
      0.110000          0.423620E-02
      0.115000          0.377900E-02
      0.120000          0.335495E-02
      0.125000          0.296439E-02
      0.130000          0.260716E-02
      0.135000          0.228267E-02
      0.140000          0.198991E-02
      0.145000          0.172758E-02
      0.150000          0.149412E-02
      0.155000          0.128781E-02
      0.160000          0.110679E-02
      0.165000          0.949116E-03
      0.170000          0.812843E-03
      0.175000          0.696020E-03
      0.180000          0.596739E-03
      0.185000          0.513160E-03
      0.190000          0.443524E-03
      0.195000          0.386171E-03
      0.200000          0.339543E-03
      0.205000          0.302193E-03
      0.210000          0.272784E-03
      0.215000          0.250090E-03
      0.220000          0.232994E-03
      0.225000          0.220486E-03
      0.230000          0.211658E-03
      0.235000          0.205704E-03
      0.240000          0.201910E-03
      0.245000          0.199658E-03
      0.250000          0.198417E-03
      0.255000          0.197739E-03
      0.260000          0.197257E-03
      0.265000          0.196679E-03
      0.270000          0.195784E-03
      0.275000          0.194413E-03
      0.280000          0.192467E-03
      0.285000          0.189896E-03
      0.290000          0.186697E-03
      0.295000          0.182900E-03
      0.300000          0.178568E-03
      0.305000          0.173783E-03
      0.310000          0.168642E-03
      0.315000          0.163252E-03
      0.320000          0.157719E-03
      0.325000          0.152147E-03
      0.330000          0.146633E-03
      0.335000          0.141262E-03
      0.340000          0.136105E-03
      0.345000          0.131220E-03
      0.350000          0.126648E-03
      0.355000          0.122416E-03
      0.360000          0.118538E-03
      0.365000          0.115015E-03
      0.370000          0.111836E-03
      0.375000          0.108986E-03
      0.380000          0.106441E-03
      0.385000          0.104175E-03
      0.390000          0.102161E-03
      0.395000          0.100371E-03
      0.400000          0.987798E-04
      0.405000          0.973649E-04
      0.410000          0.961071E-04
      0.415000          0.949910E-04
      0.420000          0.940046E-04
      0.425000          0.931395E-04
      0.430000          0.923895E-04
      0.435000          0.917508E-04
      0.440000          0.912201E-04
      0.445000          0.907949E-04
      0.450000          0.904716E-04
      0.455000          0.902457E-04
      0.460000          0.901109E-04
      0.465000          0.900587E-04
      0.470000          0.900782E-04
      0.475000          0.901564E-04
      0.480000          0.902783E-04
      0.485000          0.904270E-04
      0.490000          0.905844E-04
      0.495000          0.907318E-04
      0.500000          0.908504E-04
