 I_abs(s)[cm^-1]/c[mg/ml]
       0.00000          0.144654E-01
      0.500000E-02      0.144288E-01
      0.100000E-01      0.143196E-01
      0.150000E-01      0.141392E-01
      0.200000E-01      0.138902E-01
      0.250000E-01      0.135761E-01
      0.300000E-01      0.132011E-01
      0.350000E-01      0.127705E-01
      0.400000E-01      0.122899E-01
      0.450000E-01      0.117656E-01
      0.500000E-01      0.112044E-01
      0.550000E-01      0.106134E-01
      0.600000E-01      0.999961E-02
      0.650000E-01      0.937032E-02
      0.700000E-01      0.873260E-02
      0.750000E-01      0.809329E-02
      0.800000E-01      0.745890E-02
      0.850000E-01      0.683550E-02
      0.900000E-01      0.622861E-02
      0.950000E-01      0.564316E-02
      0.100000          0.508342E-02
      0.105000          0.455298E-02
      0.110000          0.405470E-02
      0.115000          0.359074E-02
      0.120000          0.316256E-02
      0.125000          0.277095E-02
      0.130000          0.241605E-02
      0.135000          0.209744E-02
      0.140000          0.181417E-02
      0.145000          0.156485E-02
      0.150000          0.134768E-02
      0.155000          0.116058E-02
      0.160000          0.100122E-02
      0.165000          0.867115E-03
      0.170000          0.755689E-03
      0.175000          0.664331E-03
      0.180000          0.590459E-03
      0.185000          0.531574E-03
      0.190000          0.485296E-03
      0.195000          0.449407E-03
      0.200000          0.421870E-03
      0.205000          0.400856E-03
      0.210000          0.384749E-03
      0.215000          0.372155E-03
      0.220000          0.361899E-03
      0.225000          0.353017E-03
      0.230000          0.344744E-03
      0.235000          0.336501E-03
      0.240000          0.327875E-03
      0.245000          0.318598E-03
      0.250000          0.308528E-03
      0.255000          0.297627E-03
      0.260000          0.285937E-03
      0.265000          0.273566E-03
      0.270000          0.260665E-03
      0.275000          0.247414E-03
      0.280000          0.234006E-03
      0.285000          0.220635E-03
      0.290000          0.207486E-03
      0.295000          0.194729E-03
      0.300000          0.182511E-03
      0.305000          0.170954E-03
      0.310000          0.160153E-03
      0.315000          0.150173E-03
      0.320000          0.141056E-03
      0.325000          0.132817E-03
      0.330000          0.125449E-03
      0.335000          0.118928E-03
      0.340000          0.113212E-03
      0.345000          0.108251E-03
      0.350000          0.103983E-03
      0.355000          0.100346E-03
      0.360000          0.972703E-04
      0.365000          0.946919E-04
      0.370000          0.925472E-04
      0.375000          0.907773E-04
      0.380000          0.893290E-04
      0.385000          0.881550E-04
      0.390000          0.872147E-04
      0.395000          0.864736E-04
      0.400000          0.859032E-04
      0.405000          0.854802E-04
      0.410000          0.851861E-04
      0.415000          0.850057E-04
      0.420000          0.849268E-04
      0.425000          0.849388E-04
      0.430000          0.850323E-04
      0.435000          0.851980E-04
      0.440000          0.854263E-04
      0.445000          0.857070E-04
      0.450000          0.860286E-04
      0.455000          0.863786E-04
      0.460000          0.867431E-04
      0.465000          0.871075E-04
      0.470000          0.874563E-04
      0.475000          0.877738E-04
      0.480000          0.880441E-04
      0.485000          0.882522E-04
      0.490000          0.883840E-04
      0.495000          0.884272E-04
      0.500000          0.883713E-04
