 I_abs(s)[cm^-1]/c[mg/ml]
       0.00000          0.140493E-01
      0.500000E-02      0.140107E-01
      0.100000E-01      0.138957E-01
      0.150000E-01      0.137061E-01
      0.200000E-01      0.134448E-01
      0.250000E-01      0.131160E-01
      0.300000E-01      0.127247E-01
      0.350000E-01      0.122768E-01
      0.400000E-01      0.117791E-01
      0.450000E-01      0.112388E-01
      0.500000E-01      0.106635E-01
      0.550000E-01      0.100612E-01
      0.600000E-01      0.943990E-02
      0.650000E-01      0.880747E-02
      0.700000E-01      0.817154E-02
      0.750000E-01      0.753938E-02
      0.800000E-01      0.691772E-02
      0.850000E-01      0.631265E-02
      0.900000E-01      0.572956E-02
      0.950000E-01      0.517306E-02
      0.100000          0.464694E-02
      0.105000          0.415415E-02
      0.110000          0.369682E-02
      0.115000          0.327627E-02
      0.120000          0.289304E-02
      0.125000          0.254702E-02
      0.130000          0.223742E-02
      0.135000          0.196293E-02
      0.140000          0.172179E-02
      0.145000          0.151185E-02
      0.150000          0.133072E-02
      0.155000          0.117581E-02
      0.160000          0.104442E-02
      0.165000          0.933849E-03
      0.170000          0.841433E-03
      0.175000          0.764614E-03
      0.180000          0.700985E-03
      0.185000          0.648328E-03
      0.190000          0.604640E-03
      0.195000          0.568148E-03
      0.200000          0.537314E-03
      0.205000          0.510836E-03
      0.210000          0.487632E-03
      0.215000          0.466834E-03
      0.220000          0.447758E-03
      0.225000          0.429892E-03
      0.230000          0.412865E-03
      0.235000          0.396423E-03
      0.240000          0.380409E-03
      0.245000          0.364737E-03
      0.250000          0.349374E-03
      0.255000          0.334321E-03
      0.260000          0.319599E-03
      0.265000          0.305237E-03
      0.270000          0.291264E-03
      0.275000          0.277703E-03
      0.280000          0.264568E-03
      0.285000          0.251863E-03
      0.290000          0.239580E-03
      0.295000          0.227705E-03
      0.300000          0.216219E-03
      0.305000          0.205099E-03
      0.310000          0.194324E-03
      0.315000          0.183878E-03
      0.320000          0.173750E-03
      0.325000          0.163938E-03
      0.330000          0.154449E-03
      0.335000          0.145301E-03
      0.340000          0.136520E-03
      0.345000          0.128138E-03
      0.350000          0.120198E-03
      0.355000          0.112741E-03
      0.360000          0.105814E-03
      0.365000          0.994589E-04
      0.370000          0.937162E-04
      0.375000          0.886185E-04
      0.380000          0.841898E-04
      0.385000          0.804438E-04
      0.390000          0.773826E-04
      0.395000          0.749961E-04
      0.400000          0.732615E-04
      0.405000          0.721444E-04
      0.410000          0.715991E-04
      0.415000          0.715702E-04
      0.420000          0.719943E-04
      0.425000          0.728020E-04
      0.430000          0.739200E-04
      0.435000          0.752732E-04
      0.440000          0.767871E-04
      0.445000          0.783894E-04
      0.450000          0.800123E-04
      0.455000          0.815938E-04
      0.460000          0.830791E-04
      0.465000          0.844217E-04
      0.470000          0.855835E-04
      0.475000          0.865359E-04
      0.480000          0.872588E-04
      0.485000          0.877410E-04
      0.490000          0.879794E-04
      0.495000          0.879782E-04
      0.500000          0.877478E-04
