 I_abs(s)[cm^-1]/c[mg/ml]
       0.00000          0.143313E-01
      0.500000E-02      0.142865E-01
      0.100000E-01      0.141529E-01
      0.150000E-01      0.139331E-01
      0.200000E-01      0.136312E-01
      0.250000E-01      0.132528E-01
      0.300000E-01      0.128048E-01
      0.350000E-01      0.122953E-01
      0.400000E-01      0.117331E-01
      0.450000E-01      0.111278E-01
      0.500000E-01      0.104893E-01
      0.550000E-01      0.982778E-02
      0.600000E-01      0.915300E-02
      0.650000E-01      0.847453E-02
      0.700000E-01      0.780131E-02
      0.750000E-01      0.714152E-02
      0.800000E-01      0.650240E-02
      0.850000E-01      0.589017E-02
      0.900000E-01      0.530993E-02
      0.950000E-01      0.476567E-02
      0.100000          0.426021E-02
      0.105000          0.379530E-02
      0.110000          0.337166E-02
      0.115000          0.298907E-02
      0.120000          0.264652E-02
      0.125000          0.234229E-02
      0.130000          0.207412E-02
      0.135000          0.183934E-02
      0.140000          0.163501E-02
      0.145000          0.145802E-02
      0.150000          0.130524E-02
      0.155000          0.117360E-02
      0.160000          0.106018E-02
      0.165000          0.962265E-03
      0.170000          0.877390E-03
      0.175000          0.803383E-03
      0.180000          0.738364E-03
      0.185000          0.680749E-03
      0.190000          0.629233E-03
      0.195000          0.582773E-03
      0.200000          0.540552E-03
      0.205000          0.501950E-03
      0.210000          0.466509E-03
      0.215000          0.433894E-03
      0.220000          0.403867E-03
      0.225000          0.376251E-03
      0.230000          0.350911E-03
      0.235000          0.327730E-03
      0.240000          0.306597E-03
      0.245000          0.287395E-03
      0.250000          0.269997E-03
      0.255000          0.254263E-03
      0.260000          0.240039E-03
      0.265000          0.227168E-03
      0.270000          0.215485E-03
      0.275000          0.204830E-03
      0.280000          0.195051E-03
      0.285000          0.186009E-03
      0.290000          0.177581E-03
      0.295000          0.169667E-03
      0.300000          0.162185E-03
      0.305000          0.155078E-03
      0.310000          0.148310E-03
      0.315000          0.141860E-03
      0.320000          0.135727E-03
      0.325000          0.129920E-03
      0.330000          0.124457E-03
      0.335000          0.119359E-03
      0.340000          0.114648E-03
      0.345000          0.110344E-03
      0.350000          0.106461E-03
      0.355000          0.103005E-03
      0.360000          0.999723E-04
      0.365000          0.973514E-04
      0.370000          0.951199E-04
      0.375000          0.932471E-04
      0.380000          0.916949E-04
      0.385000          0.904188E-04
      0.390000          0.893709E-04
      0.395000          0.885011E-04
      0.400000          0.877596E-04
      0.405000          0.870987E-04
      0.410000          0.864749E-04
      0.415000          0.858500E-04
      0.420000          0.851927E-04
      0.425000          0.844790E-04
      0.430000          0.836930E-04
      0.435000          0.828267E-04
      0.440000          0.818798E-04
      0.445000          0.808590E-04
      0.450000          0.797770E-04
      0.455000          0.786514E-04
      0.460000          0.775035E-04
      0.465000          0.763568E-04
      0.470000          0.752357E-04
      0.475000          0.741640E-04
      0.480000          0.731639E-04
      0.485000          0.722549E-04
      0.490000          0.714528E-04
      0.495000          0.707692E-04
      0.500000          0.702111E-04
