 I_abs(s)[cm^-1]/c[mg/ml]
       0.00000          0.148876E-01
      0.500000E-02      0.148491E-01
      0.100000E-01      0.147339E-01
      0.150000E-01      0.145440E-01
      0.200000E-01      0.142823E-01
      0.250000E-01      0.139527E-01
      0.300000E-01      0.135603E-01
      0.350000E-01      0.131107E-01
      0.400000E-01      0.126106E-01
      0.450000E-01      0.120669E-01
      0.500000E-01      0.114871E-01
      0.550000E-01      0.108788E-01
      0.600000E-01      0.102495E-01
      0.650000E-01      0.960697E-02
      0.700000E-01      0.895835E-02
      0.750000E-01      0.831055E-02
      0.800000E-01      0.766996E-02
      0.850000E-01      0.704238E-02
      0.900000E-01      0.643292E-02
      0.950000E-01      0.584601E-02
      0.100000          0.528535E-02
      0.105000          0.475390E-02
      0.110000          0.425390E-02
      0.115000          0.378691E-02
      0.120000          0.335385E-02
      0.125000          0.295505E-02
      0.130000          0.259035E-02
      0.135000          0.225911E-02
      0.140000          0.196032E-02
      0.145000          0.169266E-02
      0.150000          0.145457E-02
      0.155000          0.124430E-02
      0.160000          0.105999E-02
      0.165000          0.899704E-03
      0.170000          0.761459E-03
      0.175000          0.643293E-03
      0.180000          0.543272E-03
      0.185000          0.459523E-03
      0.190000          0.390249E-03
      0.195000          0.333742E-03
      0.200000          0.288394E-03
      0.205000          0.252698E-03
      0.210000          0.225260E-03
      0.215000          0.204793E-03
      0.220000          0.190120E-03
      0.225000          0.180174E-03
      0.230000          0.173997E-03
      0.235000          0.170736E-03
      0.240000          0.169640E-03
      0.245000          0.170059E-03
      0.250000          0.171440E-03
      0.255000          0.173320E-03
      0.260000          0.175323E-03
      0.265000          0.177155E-03
      0.270000          0.178595E-03
      0.275000          0.179487E-03
      0.280000          0.179737E-03
      0.285000          0.179299E-03
      0.290000          0.178171E-03
      0.295000          0.176384E-03
      0.300000          0.173994E-03
      0.305000          0.171077E-03
      0.310000          0.167716E-03
      0.315000          0.164003E-03
      0.320000          0.160024E-03
      0.325000          0.155864E-03
      0.330000          0.151596E-03
      0.335000          0.147287E-03
      0.340000          0.142988E-03
      0.345000          0.138740E-03
      0.350000          0.134574E-03
      0.355000          0.130509E-03
      0.360000          0.126557E-03
      0.365000          0.122726E-03
      0.370000          0.119016E-03
      0.375000          0.115429E-03
      0.380000          0.111965E-03
      0.385000          0.108626E-03
      0.390000          0.105417E-03
      0.395000          0.102346E-03
      0.400000          0.994266E-04
      0.405000          0.966737E-04
      0.410000          0.941068E-04
      0.415000          0.917470E-04
      0.420000          0.896167E-04
      0.425000          0.877378E-04
      0.430000          0.861305E-04
      0.435000          0.848118E-04
      0.440000          0.837944E-04
      0.445000          0.830852E-04
      0.450000          0.826847E-04
      0.455000          0.825865E-04
      0.460000          0.827767E-04
      0.465000          0.832343E-04
      0.470000          0.839313E-04
      0.475000          0.848337E-04
      0.480000          0.859023E-04
      0.485000          0.870939E-04
      0.490000          0.883627E-04
      0.495000          0.896620E-04
      0.500000          0.909452E-04
