 I_abs(s)[cm^-1]/c[mg/ml]
       0.00000          0.144496E-01
      0.500000E-02      0.144064E-01
      0.100000E-01      0.142774E-01
      0.150000E-01      0.140650E-01
      0.200000E-01      0.137730E-01
      0.250000E-01      0.134063E-01
      0.300000E-01      0.129714E-01
      0.350000E-01      0.124756E-01
      0.400000E-01      0.119270E-01
      0.450000E-01      0.113345E-01
      0.500000E-01      0.107073E-01
      0.550000E-01      0.100548E-01
      0.600000E-01      0.938631E-02
      0.650000E-01      0.871099E-02
      0.700000E-01      0.803745E-02
      0.750000E-01      0.737369E-02
      0.800000E-01      0.672694E-02
      0.850000E-01      0.610355E-02
      0.900000E-01      0.550891E-02
      0.950000E-01      0.494738E-02
      0.100000          0.442230E-02
      0.105000          0.393600E-02
      0.110000          0.348982E-02
      0.115000          0.308422E-02
      0.120000          0.271883E-02
      0.125000          0.239255E-02
      0.130000          0.210372E-02
      0.135000          0.185014E-02
      0.140000          0.162928E-02
      0.145000          0.143834E-02
      0.150000          0.127438E-02
      0.155000          0.113442E-02
      0.160000          0.101551E-02
      0.165000          0.914801E-03
      0.170000          0.829630E-03
      0.175000          0.757536E-03
      0.180000          0.696301E-03
      0.185000          0.643965E-03
      0.190000          0.598827E-03
      0.195000          0.559446E-03
      0.200000          0.524622E-03
      0.205000          0.493380E-03
      0.210000          0.464948E-03
      0.215000          0.438726E-03
      0.220000          0.414268E-03
      0.225000          0.391247E-03
      0.230000          0.369436E-03
      0.235000          0.348685E-03
      0.240000          0.328901E-03
      0.245000          0.310031E-03
      0.250000          0.292049E-03
      0.255000          0.274946E-03
      0.260000          0.258722E-03
      0.265000          0.243382E-03
      0.270000          0.228929E-03
      0.275000          0.215365E-03
      0.280000          0.202687E-03
      0.285000          0.190890E-03
      0.290000          0.179964E-03
      0.295000          0.169897E-03
      0.300000          0.160671E-03
      0.305000          0.152265E-03
      0.310000          0.144657E-03
      0.315000          0.137819E-03
      0.320000          0.131720E-03
      0.325000          0.126325E-03
      0.330000          0.121598E-03
      0.335000          0.117494E-03
      0.340000          0.113970E-03
      0.345000          0.110977E-03
      0.350000          0.108464E-03
      0.355000          0.106379E-03
      0.360000          0.104670E-03
      0.365000          0.103284E-03
      0.370000          0.102171E-03
      0.375000          0.101284E-03
      0.380000          0.100576E-03
      0.385000          0.100009E-03
      0.390000          0.995463E-04
      0.395000          0.991570E-04
      0.400000          0.988158E-04
      0.405000          0.985020E-04
      0.410000          0.981995E-04
      0.415000          0.978966E-04
      0.420000          0.975850E-04
      0.425000          0.972591E-04
      0.430000          0.969160E-04
      0.435000          0.965538E-04
      0.440000          0.961719E-04
      0.445000          0.957701E-04
      0.450000          0.953481E-04
      0.455000          0.949058E-04
      0.460000          0.944422E-04
      0.465000          0.939566E-04
      0.470000          0.934474E-04
      0.475000          0.929133E-04
      0.480000          0.923528E-04
      0.485000          0.917648E-04
      0.490000          0.911485E-04
      0.495000          0.905039E-04
      0.500000          0.898316E-04
