 I_abs(s)[cm^-1]/c[mg/ml]
       0.00000          0.142841E-01
      0.500000E-02      0.142345E-01
      0.100000E-01      0.140870E-01
      0.150000E-01      0.138448E-01
      0.200000E-01      0.135133E-01
      0.250000E-01      0.130997E-01
      0.300000E-01      0.126129E-01
      0.350000E-01      0.120631E-01
      0.400000E-01      0.114614E-01
      0.450000E-01      0.108194E-01
      0.500000E-01      0.101492E-01
      0.550000E-01      0.946248E-02
      0.600000E-01      0.877049E-02
      0.650000E-01      0.808374E-02
      0.700000E-01      0.741164E-02
      0.750000E-01      0.676238E-02
      0.800000E-01      0.614275E-02
      0.850000E-01      0.555811E-02
      0.900000E-01      0.501235E-02
      0.950000E-01      0.450794E-02
      0.100000          0.404604E-02
      0.105000          0.362664E-02
      0.110000          0.324869E-02
      0.115000          0.291034E-02
      0.120000          0.260907E-02
      0.125000          0.234195E-02
      0.130000          0.210577E-02
      0.135000          0.189723E-02
      0.140000          0.171309E-02
      0.145000          0.155023E-02
      0.150000          0.140583E-02
      0.155000          0.127732E-02
      0.160000          0.116249E-02
      0.165000          0.105945E-02
      0.170000          0.966661E-03
      0.175000          0.882839E-03
      0.180000          0.806978E-03
      0.185000          0.738270E-03
      0.190000          0.676072E-03
      0.195000          0.619853E-03
      0.200000          0.569161E-03
      0.205000          0.523586E-03
      0.210000          0.482735E-03
      0.215000          0.446221E-03
      0.220000          0.413650E-03
      0.225000          0.384621E-03
      0.230000          0.358732E-03
      0.235000          0.335586E-03
      0.240000          0.314803E-03
      0.245000          0.296032E-03
      0.250000          0.278957E-03
      0.255000          0.263307E-03
      0.260000          0.248863E-03
      0.265000          0.235454E-03
      0.270000          0.222962E-03
      0.275000          0.211315E-03
      0.280000          0.200475E-03
      0.285000          0.190438E-03
      0.290000          0.181216E-03
      0.295000          0.172833E-03
      0.300000          0.165312E-03
      0.305000          0.158667E-03
      0.310000          0.152900E-03
      0.315000          0.147992E-03
      0.320000          0.143903E-03
      0.325000          0.140571E-03
      0.330000          0.137916E-03
      0.335000          0.135841E-03
      0.340000          0.134237E-03
      0.345000          0.132988E-03
      0.350000          0.131976E-03
      0.355000          0.131089E-03
      0.360000          0.130223E-03
      0.365000          0.129287E-03
      0.370000          0.128206E-03
      0.375000          0.126923E-03
      0.380000          0.125399E-03
      0.385000          0.123615E-03
      0.390000          0.121568E-03
      0.395000          0.119272E-03
      0.400000          0.116754E-03
      0.405000          0.114051E-03
      0.410000          0.111209E-03
      0.415000          0.108278E-03
      0.420000          0.105310E-03
      0.425000          0.102358E-03
      0.430000          0.994720E-04
      0.435000          0.966983E-04
      0.440000          0.940778E-04
      0.445000          0.916450E-04
      0.450000          0.894274E-04
      0.455000          0.874452E-04
      0.460000          0.857108E-04
      0.465000          0.842295E-04
      0.470000          0.829992E-04
      0.475000          0.820111E-04
      0.480000          0.812500E-04
      0.485000          0.806954E-04
      0.490000          0.803219E-04
      0.495000          0.801005E-04
      0.500000          0.799992E-04
