 I_abs(s)[cm^-1]/c[mg/ml]
       0.00000          0.147196E-01
      0.500000E-02      0.146830E-01
      0.100000E-01      0.145739E-01
      0.150000E-01      0.143937E-01
      0.200000E-01      0.141452E-01
      0.250000E-01      0.138319E-01
      0.300000E-01      0.134584E-01
      0.350000E-01      0.130299E-01
      0.400000E-01      0.125524E-01
      0.450000E-01      0.120321E-01
      0.500000E-01      0.114761E-01
      0.550000E-01      0.108913E-01
      0.600000E-01      0.102848E-01
      0.650000E-01      0.966370E-02
      0.700000E-01      0.903487E-02
      0.750000E-01      0.840488E-02
      0.800000E-01      0.777985E-02
      0.850000E-01      0.716542E-02
      0.900000E-01      0.656664E-02
      0.950000E-01      0.598793E-02
      0.100000          0.543304E-02
      0.105000          0.490506E-02
      0.110000          0.440639E-02
      0.115000          0.393877E-02
      0.120000          0.350335E-02
      0.125000          0.310067E-02
      0.130000          0.273078E-02
      0.135000          0.239326E-02
      0.140000          0.208730E-02
      0.145000          0.181177E-02
      0.150000          0.156525E-02
      0.155000          0.134617E-02
      0.160000          0.115278E-02
      0.165000          0.983261E-03
      0.170000          0.835750E-03
      0.175000          0.708382E-03
      0.180000          0.599325E-03
      0.185000          0.506803E-03
      0.190000          0.429114E-03
      0.195000          0.364647E-03
      0.200000          0.311885E-03
      0.205000          0.269414E-03
      0.210000          0.235921E-03
      0.215000          0.210193E-03
      0.220000          0.191110E-03
      0.225000          0.177649E-03
      0.230000          0.168869E-03
      0.235000          0.163915E-03
      0.240000          0.162009E-03
      0.245000          0.162446E-03
      0.250000          0.164595E-03
      0.255000          0.167895E-03
      0.260000          0.171849E-03
      0.265000          0.176030E-03
      0.270000          0.180073E-03
      0.275000          0.183676E-03
      0.280000          0.186599E-03
      0.285000          0.188662E-03
      0.290000          0.189738E-03
      0.295000          0.189753E-03
      0.300000          0.188681E-03
      0.305000          0.186540E-03
      0.310000          0.183382E-03
      0.315000          0.179293E-03
      0.320000          0.174381E-03
      0.325000          0.168773E-03
      0.330000          0.162609E-03
      0.335000          0.156034E-03
      0.340000          0.149192E-03
      0.345000          0.142224E-03
      0.350000          0.135262E-03
      0.355000          0.128424E-03
      0.360000          0.121814E-03
      0.365000          0.115521E-03
      0.370000          0.109614E-03
      0.375000          0.104147E-03
      0.380000          0.991539E-04
      0.385000          0.946563E-04
      0.390000          0.906598E-04
      0.395000          0.871580E-04
      0.400000          0.841346E-04
      0.405000          0.815650E-04
      0.410000          0.794190E-04
      0.415000          0.776620E-04
      0.420000          0.762575E-04
      0.425000          0.751680E-04
      0.430000          0.743566E-04
      0.435000          0.737877E-04
      0.440000          0.734279E-04
      0.445000          0.732458E-04
      0.450000          0.732128E-04
      0.455000          0.733029E-04
      0.460000          0.734921E-04
      0.465000          0.737590E-04
      0.470000          0.740836E-04
      0.475000          0.744477E-04
      0.480000          0.748345E-04
      0.485000          0.752281E-04
      0.490000          0.756139E-04
      0.495000          0.759781E-04
      0.500000          0.763082E-04
