 I_abs(s)[cm^-1]/c[mg/ml]
       0.00000          0.145208E-01
      0.500000E-02      0.144849E-01
      0.100000E-01      0.143778E-01
      0.150000E-01      0.142009E-01
      0.200000E-01      0.139569E-01
      0.250000E-01      0.136493E-01
      0.300000E-01      0.132823E-01
      0.350000E-01      0.128610E-01
      0.400000E-01      0.123913E-01
      0.450000E-01      0.118793E-01
      0.500000E-01      0.113317E-01
      0.550000E-01      0.107554E-01
      0.600000E-01      0.101573E-01
      0.650000E-01      0.954431E-02
      0.700000E-01      0.892330E-02
      0.750000E-01      0.830071E-02
      0.800000E-01      0.768265E-02
      0.850000E-01      0.707474E-02
      0.900000E-01      0.648205E-02
      0.950000E-01      0.590906E-02
      0.100000          0.535958E-02
      0.105000          0.483678E-02
      0.110000          0.434317E-02
      0.115000          0.388058E-02
      0.120000          0.345025E-02
      0.125000          0.305282E-02
      0.130000          0.268839E-02
      0.135000          0.235659E-02
      0.140000          0.205664E-02
      0.145000          0.178739E-02
      0.150000          0.154742E-02
      0.155000          0.133508E-02
      0.160000          0.114854E-02
      0.165000          0.985887E-03
      0.170000          0.845138E-03
      0.175000          0.724301E-03
      0.180000          0.621412E-03
      0.185000          0.534562E-03
      0.190000          0.461928E-03
      0.195000          0.401789E-03
      0.200000          0.352538E-03
      0.205000          0.312692E-03
      0.210000          0.280896E-03
      0.215000          0.255924E-03
      0.220000          0.236672E-03
      0.225000          0.222159E-03
      0.230000          0.211514E-03
      0.235000          0.203976E-03
      0.240000          0.198879E-03
      0.245000          0.195647E-03
      0.250000          0.193787E-03
      0.255000          0.192877E-03
      0.260000          0.192564E-03
      0.265000          0.192555E-03
      0.270000          0.192608E-03
      0.275000          0.192531E-03
      0.280000          0.192175E-03
      0.285000          0.191429E-03
      0.290000          0.190214E-03
      0.295000          0.188484E-03
      0.300000          0.186216E-03
      0.305000          0.183411E-03
      0.310000          0.180086E-03
      0.315000          0.176276E-03
      0.320000          0.172028E-03
      0.325000          0.167395E-03
      0.330000          0.162440E-03
      0.335000          0.157229E-03
      0.340000          0.151827E-03
      0.345000          0.146300E-03
      0.350000          0.140714E-03
      0.355000          0.135127E-03
      0.360000          0.129596E-03
      0.365000          0.124170E-03
      0.370000          0.118894E-03
      0.375000          0.113805E-03
      0.380000          0.108935E-03
      0.385000          0.104309E-03
      0.390000          0.999474E-04
      0.395000          0.958648E-04
      0.400000          0.920713E-04
      0.405000          0.885725E-04
      0.410000          0.853707E-04
      0.415000          0.824649E-04
      0.420000          0.798515E-04
      0.425000          0.775246E-04
      0.430000          0.754765E-04
      0.435000          0.736975E-04
      0.440000          0.721766E-04
      0.445000          0.709015E-04
      0.450000          0.698585E-04
      0.455000          0.690326E-04
      0.460000          0.684078E-04
      0.465000          0.679671E-04
      0.470000          0.676923E-04
      0.475000          0.675646E-04
      0.480000          0.675644E-04
      0.485000          0.676717E-04
      0.490000          0.678661E-04
      0.495000          0.681277E-04
      0.500000          0.684368E-04
