 I_abs(s)[cm^-1]/c[mg/ml]
       0.00000          0.143234E-01
      0.500000E-02      0.142775E-01
      0.100000E-01      0.141407E-01
      0.150000E-01      0.139158E-01
      0.200000E-01      0.136072E-01
      0.250000E-01      0.132210E-01
      0.300000E-01      0.127645E-01
      0.350000E-01      0.122463E-01
      0.400000E-01      0.116760E-01
      0.450000E-01      0.110636E-01
      0.500000E-01      0.104195E-01
      0.550000E-01      0.975420E-02
      0.600000E-01      0.907785E-02
      0.650000E-01      0.840019E-02
      0.700000E-01      0.773019E-02
      0.750000E-01      0.707595E-02
      0.800000E-01      0.644449E-02
      0.850000E-01      0.584171E-02
      0.900000E-01      0.527232E-02
      0.950000E-01      0.473982E-02
      0.100000          0.424652E-02
      0.105000          0.379367E-02
      0.110000          0.338148E-02
      0.115000          0.300931E-02
      0.120000          0.267574E-02
      0.125000          0.237877E-02
      0.130000          0.211597E-02
      0.135000          0.188456E-02
      0.140000          0.168162E-02
      0.145000          0.150415E-02
      0.150000          0.134921E-02
      0.155000          0.121398E-02
      0.160000          0.109584E-02
      0.165000          0.992401E-03
      0.170000          0.901539E-03
      0.175000          0.821398E-03
      0.180000          0.750391E-03
      0.185000          0.687182E-03
      0.190000          0.630664E-03
      0.195000          0.579933E-03
      0.200000          0.534254E-03
      0.205000          0.493032E-03
      0.210000          0.455783E-03
      0.215000          0.422107E-03
      0.220000          0.391669E-03
      0.225000          0.364173E-03
      0.230000          0.339359E-03
      0.235000          0.316986E-03
      0.240000          0.296827E-03
      0.245000          0.278669E-03
      0.250000          0.262311E-03
      0.255000          0.247563E-03
      0.260000          0.234249E-03
      0.265000          0.222209E-03
      0.270000          0.211297E-03
      0.275000          0.201387E-03
      0.280000          0.192366E-03
      0.285000          0.184140E-03
      0.290000          0.176629E-03
      0.295000          0.169764E-03
      0.300000          0.163486E-03
      0.305000          0.157743E-03
      0.310000          0.152491E-03
      0.315000          0.147685E-03
      0.320000          0.143284E-03
      0.325000          0.139247E-03
      0.330000          0.135532E-03
      0.335000          0.132098E-03
      0.340000          0.128904E-03
      0.345000          0.125912E-03
      0.350000          0.123084E-03
      0.355000          0.120386E-03
      0.360000          0.117791E-03
      0.365000          0.115272E-03
      0.370000          0.112812E-03
      0.375000          0.110398E-03
      0.380000          0.108022E-03
      0.385000          0.105681E-03
      0.390000          0.103377E-03
      0.395000          0.101115E-03
      0.400000          0.989026E-04
      0.405000          0.967479E-04
      0.410000          0.946595E-04
      0.415000          0.926457E-04
      0.420000          0.907133E-04
      0.425000          0.888676E-04
      0.430000          0.871120E-04
      0.435000          0.854480E-04
      0.440000          0.838759E-04
      0.445000          0.823945E-04
      0.450000          0.810020E-04
      0.455000          0.796968E-04
      0.460000          0.784772E-04
      0.465000          0.773427E-04
      0.470000          0.762939E-04
      0.475000          0.753327E-04
      0.480000          0.744624E-04
      0.485000          0.736875E-04
      0.490000          0.730134E-04
      0.495000          0.724459E-04
      0.500000          0.719908E-04
