 I_abs(s)[cm^-1]/c[mg/ml]
       0.00000          0.146002E-01
      0.500000E-02      0.145643E-01
      0.100000E-01      0.144572E-01
      0.150000E-01      0.142805E-01
      0.200000E-01      0.140367E-01
      0.250000E-01      0.137294E-01
      0.300000E-01      0.133628E-01
      0.350000E-01      0.129422E-01
      0.400000E-01      0.124732E-01
      0.450000E-01      0.119621E-01
      0.500000E-01      0.114156E-01
      0.550000E-01      0.108404E-01
      0.600000E-01      0.102436E-01
      0.650000E-01      0.963200E-02
      0.700000E-01      0.901228E-02
      0.750000E-01      0.839085E-02
      0.800000E-01      0.777372E-02
      0.850000E-01      0.716641E-02
      0.900000E-01      0.657388E-02
      0.950000E-01      0.600047E-02
      0.100000          0.544991E-02
      0.105000          0.492528E-02
      0.110000          0.442898E-02
      0.115000          0.396284E-02
      0.120000          0.352803E-02
      0.125000          0.312521E-02
      0.130000          0.275452E-02
      0.135000          0.241565E-02
      0.140000          0.210793E-02
      0.145000          0.183033E-02
      0.150000          0.158157E-02
      0.155000          0.136018E-02
      0.160000          0.116451E-02
      0.165000          0.992843E-03
      0.170000          0.843374E-03
      0.175000          0.714294E-03
      0.180000          0.603804E-03
      0.185000          0.510143E-03
      0.190000          0.431605E-03
      0.195000          0.366559E-03
      0.200000          0.313457E-03
      0.205000          0.270840E-03
      0.210000          0.237344E-03
      0.215000          0.211699E-03
      0.220000          0.192732E-03
      0.225000          0.179365E-03
      0.230000          0.170611E-03
      0.235000          0.165575E-03
      0.240000          0.163451E-03
      0.245000          0.163518E-03
      0.250000          0.165138E-03
      0.255000          0.167756E-03
      0.260000          0.170896E-03
      0.265000          0.174156E-03
      0.270000          0.177209E-03
      0.275000          0.179797E-03
      0.280000          0.181724E-03
      0.285000          0.182857E-03
      0.290000          0.183117E-03
      0.295000          0.182473E-03
      0.300000          0.180934E-03
      0.305000          0.178548E-03
      0.310000          0.175389E-03
      0.315000          0.171553E-03
      0.320000          0.167150E-03
      0.325000          0.162298E-03
      0.330000          0.157120E-03
      0.335000          0.151735E-03
      0.340000          0.146253E-03
      0.345000          0.140777E-03
      0.350000          0.135395E-03
      0.355000          0.130182E-03
      0.360000          0.125197E-03
      0.365000          0.120483E-03
      0.370000          0.116070E-03
      0.375000          0.111973E-03
      0.380000          0.108195E-03
      0.385000          0.104731E-03
      0.390000          0.101567E-03
      0.395000          0.986837E-04
      0.400000          0.960576E-04
      0.405000          0.936640E-04
      0.410000          0.914779E-04
      0.415000          0.894756E-04
      0.420000          0.876356E-04
      0.425000          0.859393E-04
      0.430000          0.843715E-04
      0.435000          0.829202E-04
      0.440000          0.815769E-04
      0.445000          0.803360E-04
      0.450000          0.791943E-04
      0.455000          0.781504E-04
      0.460000          0.772043E-04
      0.465000          0.763567E-04
      0.470000          0.756083E-04
      0.475000          0.749595E-04
      0.480000          0.744099E-04
      0.485000          0.739580E-04
      0.490000          0.736013E-04
      0.495000          0.733357E-04
      0.500000          0.731561E-04
