 I_abs(s)[cm^-1]/c[mg/ml]
       0.00000          0.146240E-01
      0.500000E-02      0.145893E-01
      0.100000E-01      0.144856E-01
      0.150000E-01      0.143144E-01
      0.200000E-01      0.140779E-01
      0.250000E-01      0.137793E-01
      0.300000E-01      0.134226E-01
      0.350000E-01      0.130123E-01
      0.400000E-01      0.125536E-01
      0.450000E-01      0.120524E-01
      0.500000E-01      0.115148E-01
      0.550000E-01      0.109471E-01
      0.600000E-01      0.103559E-01
      0.650000E-01      0.974773E-02
      0.700000E-01      0.912907E-02
      0.750000E-01      0.850618E-02
      0.800000E-01      0.788505E-02
      0.850000E-01      0.727127E-02
      0.900000E-01      0.666998E-02
      0.950000E-01      0.608580E-02
      0.100000          0.552278E-02
      0.105000          0.498439E-02
      0.110000          0.447348E-02
      0.115000          0.399231E-02
      0.120000          0.354252E-02
      0.125000          0.312519E-02
      0.130000          0.274086E-02
      0.135000          0.238956E-02
      0.140000          0.207088E-02
      0.145000          0.178402E-02
      0.150000          0.152785E-02
      0.155000          0.130093E-02
      0.160000          0.110162E-02
      0.165000          0.928115E-03
      0.170000          0.778482E-03
      0.175000          0.650732E-03
      0.180000          0.542848E-03
      0.185000          0.452832E-03
      0.190000          0.378730E-03
      0.195000          0.318666E-03
      0.200000          0.270857E-03
      0.205000          0.233634E-03
      0.210000          0.205449E-03
      0.215000          0.184882E-03
      0.220000          0.170645E-03
      0.225000          0.161583E-03
      0.230000          0.156665E-03
      0.235000          0.154984E-03
      0.240000          0.155750E-03
      0.245000          0.158279E-03
      0.250000          0.161986E-03
      0.255000          0.166378E-03
      0.260000          0.171047E-03
      0.265000          0.175654E-03
      0.270000          0.179933E-03
      0.275000          0.183672E-03
      0.280000          0.186716E-03
      0.285000          0.188955E-03
      0.290000          0.190321E-03
      0.295000          0.190782E-03
      0.300000          0.190336E-03
      0.305000          0.189010E-03
      0.310000          0.186853E-03
      0.315000          0.183932E-03
      0.320000          0.180329E-03
      0.325000          0.176138E-03
      0.330000          0.171458E-03
      0.335000          0.166397E-03
      0.340000          0.161058E-03
      0.345000          0.155548E-03
      0.350000          0.149965E-03
      0.355000          0.144402E-03
      0.360000          0.138943E-03
      0.365000          0.133660E-03
      0.370000          0.128615E-03
      0.375000          0.123856E-03
      0.380000          0.119419E-03
      0.385000          0.115326E-03
      0.390000          0.111587E-03
      0.395000          0.108201E-03
      0.400000          0.105156E-03
      0.405000          0.102432E-03
      0.410000          0.100000E-03
      0.415000          0.978277E-04
      0.420000          0.958771E-04
      0.425000          0.941097E-04
      0.430000          0.924864E-04
      0.435000          0.909698E-04
      0.440000          0.895255E-04
      0.445000          0.881233E-04
      0.450000          0.867381E-04
      0.455000          0.853507E-04
      0.460000          0.839479E-04
      0.465000          0.825231E-04
      0.470000          0.810755E-04
      0.475000          0.796102E-04
      0.480000          0.781374E-04
      0.485000          0.766712E-04
      0.490000          0.752295E-04
      0.495000          0.738322E-04
      0.500000          0.725005E-04
