 I_abs(s)[cm^-1]/c[mg/ml]
       0.00000          0.146240E-01
      0.500000E-02      0.145874E-01
      0.100000E-01      0.144779E-01
      0.150000E-01      0.142972E-01
      0.200000E-01      0.140479E-01
      0.250000E-01      0.137337E-01
      0.300000E-01      0.133591E-01
      0.350000E-01      0.129293E-01
      0.400000E-01      0.124502E-01
      0.450000E-01      0.119283E-01
      0.500000E-01      0.113704E-01
      0.550000E-01      0.107836E-01
      0.600000E-01      0.101750E-01
      0.650000E-01      0.955177E-02
      0.700000E-01      0.892081E-02
      0.750000E-01      0.828874E-02
      0.800000E-01      0.766176E-02
      0.850000E-01      0.704557E-02
      0.900000E-01      0.644530E-02
      0.950000E-01      0.586546E-02
      0.100000          0.530989E-02
      0.105000          0.478176E-02
      0.110000          0.428354E-02
      0.115000          0.381707E-02
      0.120000          0.338354E-02
      0.125000          0.298358E-02
      0.130000          0.261727E-02
      0.135000          0.228421E-02
      0.140000          0.198360E-02
      0.145000          0.171430E-02
      0.150000          0.147486E-02
      0.155000          0.126364E-02
      0.160000          0.107882E-02
      0.165000          0.918481E-03
      0.170000          0.780644E-03
      0.175000          0.663310E-03
      0.180000          0.564499E-03
      0.185000          0.482278E-03
      0.190000          0.414786E-03
      0.195000          0.360248E-03
      0.200000          0.316989E-03
      0.205000          0.283447E-03
      0.210000          0.258169E-03
      0.215000          0.239822E-03
      0.220000          0.227186E-03
      0.225000          0.219157E-03
      0.230000          0.214742E-03
      0.235000          0.213055E-03
      0.240000          0.213316E-03
      0.245000          0.214844E-03
      0.250000          0.217053E-03
      0.255000          0.219451E-03
      0.260000          0.221630E-03
      0.265000          0.223264E-03
      0.270000          0.224106E-03
      0.275000          0.223977E-03
      0.280000          0.222767E-03
      0.285000          0.220422E-03
      0.290000          0.216943E-03
      0.295000          0.212375E-03
      0.300000          0.206800E-03
      0.305000          0.200334E-03
      0.310000          0.193112E-03
      0.315000          0.185287E-03
      0.320000          0.177020E-03
      0.325000          0.168475E-03
      0.330000          0.159811E-03
      0.335000          0.151180E-03
      0.340000          0.142719E-03
      0.345000          0.134551E-03
      0.350000          0.126778E-03
      0.355000          0.119484E-03
      0.360000          0.112730E-03
      0.365000          0.106561E-03
      0.370000          0.100998E-03
      0.375000          0.960479E-04
      0.380000          0.917012E-04
      0.385000          0.879354E-04
      0.390000          0.847178E-04
      0.395000          0.820078E-04
      0.400000          0.797601E-04
      0.405000          0.779262E-04
      0.410000          0.764573E-04
      0.415000          0.753055E-04
      0.420000          0.744258E-04
      0.425000          0.737767E-04
      0.430000          0.733210E-04
      0.435000          0.730263E-04
      0.440000          0.728650E-04
      0.445000          0.728140E-04
      0.450000          0.728544E-04
      0.455000          0.729707E-04
      0.460000          0.731504E-04
      0.465000          0.733834E-04
      0.470000          0.736611E-04
      0.475000          0.739757E-04
      0.480000          0.743202E-04
      0.485000          0.746874E-04
      0.490000          0.750701E-04
      0.495000          0.754607E-04
      0.500000          0.758513E-04
