 I_abs(s)[cm^-1]/c[mg/ml]
       0.00000          0.143785E-01
      0.500000E-02      0.143415E-01
      0.100000E-01      0.142308E-01
      0.150000E-01      0.140481E-01
      0.200000E-01      0.137962E-01
      0.250000E-01      0.134788E-01
      0.300000E-01      0.131005E-01
      0.350000E-01      0.126668E-01
      0.400000E-01      0.121837E-01
      0.450000E-01      0.116579E-01
      0.500000E-01      0.110964E-01
      0.550000E-01      0.105065E-01
      0.600000E-01      0.989564E-02
      0.650000E-01      0.927107E-02
      0.700000E-01      0.863994E-02
      0.750000E-01      0.800905E-02
      0.800000E-01      0.738478E-02
      0.850000E-01      0.677297E-02
      0.900000E-01      0.617887E-02
      0.950000E-01      0.560706E-02
      0.100000          0.506140E-02
      0.105000          0.454505E-02
      0.110000          0.406045E-02
      0.115000          0.360933E-02
      0.120000          0.319275E-02
      0.125000          0.281114E-02
      0.130000          0.246438E-02
      0.135000          0.215182E-02
      0.140000          0.187238E-02
      0.145000          0.162462E-02
      0.150000          0.140679E-02
      0.155000          0.121693E-02
      0.160000          0.105292E-02
      0.165000          0.912535E-03
      0.170000          0.793517E-03
      0.175000          0.693616E-03
      0.180000          0.610632E-03
      0.185000          0.542449E-03
      0.190000          0.487065E-03
      0.195000          0.442608E-03
      0.200000          0.407353E-03
      0.205000          0.379730E-03
      0.210000          0.358324E-03
      0.215000          0.341880E-03
      0.220000          0.329295E-03
      0.225000          0.319610E-03
      0.230000          0.312007E-03
      0.235000          0.305796E-03
      0.240000          0.300403E-03
      0.245000          0.295363E-03
      0.250000          0.290309E-03
      0.255000          0.284958E-03
      0.260000          0.279107E-03
      0.265000          0.272619E-03
      0.270000          0.265415E-03
      0.275000          0.257469E-03
      0.280000          0.248796E-03
      0.285000          0.239446E-03
      0.290000          0.229501E-03
      0.295000          0.219064E-03
      0.300000          0.208254E-03
      0.305000          0.197201E-03
      0.310000          0.186044E-03
      0.315000          0.174918E-03
      0.320000          0.163961E-03
      0.325000          0.153299E-03
      0.330000          0.143051E-03
      0.335000          0.133320E-03
      0.340000          0.124198E-03
      0.345000          0.115756E-03
      0.350000          0.108051E-03
      0.355000          0.101118E-03
      0.360000          0.949777E-04
      0.365000          0.896304E-04
      0.370000          0.850616E-04
      0.375000          0.812416E-04
      0.380000          0.781276E-04
      0.385000          0.756660E-04
      0.390000          0.737943E-04
      0.395000          0.724433E-04
      0.400000          0.715401E-04
      0.405000          0.710092E-04
      0.410000          0.707758E-04
      0.415000          0.707666E-04
      0.420000          0.709125E-04
      0.425000          0.711494E-04
      0.430000          0.714198E-04
      0.435000          0.716733E-04
      0.440000          0.718678E-04
      0.445000          0.719694E-04
      0.450000          0.719530E-04
      0.455000          0.718017E-04
      0.460000          0.715068E-04
      0.465000          0.710674E-04
      0.470000          0.704894E-04
      0.475000          0.697851E-04
      0.480000          0.689722E-04
      0.485000          0.680725E-04
      0.490000          0.671115E-04
      0.495000          0.661170E-04
      0.500000          0.651181E-04
