 I_abs(s)[cm^-1]/c[mg/ml]
       0.00000          0.146399E-01
      0.500000E-02      0.146028E-01
      0.100000E-01      0.144920E-01
      0.150000E-01      0.143092E-01
      0.200000E-01      0.140569E-01
      0.250000E-01      0.137390E-01
      0.300000E-01      0.133600E-01
      0.350000E-01      0.129251E-01
      0.400000E-01      0.124406E-01
      0.450000E-01      0.119128E-01
      0.500000E-01      0.113489E-01
      0.550000E-01      0.107560E-01
      0.600000E-01      0.101414E-01
      0.650000E-01      0.951245E-02
      0.700000E-01      0.887621E-02
      0.750000E-01      0.823949E-02
      0.800000E-01      0.760865E-02
      0.850000E-01      0.698956E-02
      0.900000E-01      0.638749E-02
      0.950000E-01      0.580704E-02
      0.100000          0.525215E-02
      0.105000          0.472604E-02
      0.110000          0.423119E-02
      0.115000          0.376941E-02
      0.120000          0.334183E-02
      0.125000          0.294897E-02
      0.130000          0.259074E-02
      0.135000          0.226658E-02
      0.140000          0.197547E-02
      0.145000          0.171601E-02
      0.150000          0.148654E-02
      0.155000          0.128512E-02
      0.160000          0.110970E-02
      0.165000          0.958086E-03
      0.170000          0.828083E-03
      0.175000          0.717484E-03
      0.180000          0.624140E-03
      0.185000          0.545986E-03
      0.190000          0.481073E-03
      0.195000          0.427587E-03
      0.200000          0.383858E-03
      0.205000          0.348374E-03
      0.210000          0.319779E-03
      0.215000          0.296871E-03
      0.220000          0.278596E-03
      0.225000          0.264044E-03
      0.230000          0.252433E-03
      0.235000          0.243099E-03
      0.240000          0.235488E-03
      0.245000          0.229139E-03
      0.250000          0.223678E-03
      0.255000          0.218800E-03
      0.260000          0.214266E-03
      0.265000          0.209891E-03
      0.270000          0.205534E-03
      0.275000          0.201097E-03
      0.280000          0.196510E-03
      0.285000          0.191736E-03
      0.290000          0.186757E-03
      0.295000          0.181576E-03
      0.300000          0.176210E-03
      0.305000          0.170688E-03
      0.310000          0.165049E-03
      0.315000          0.159338E-03
      0.320000          0.153604E-03
      0.325000          0.147894E-03
      0.330000          0.142260E-03
      0.335000          0.136747E-03
      0.340000          0.131399E-03
      0.345000          0.126253E-03
      0.350000          0.121340E-03
      0.355000          0.116684E-03
      0.360000          0.112303E-03
      0.365000          0.108208E-03
      0.370000          0.104402E-03
      0.375000          0.100882E-03
      0.380000          0.976407E-04
      0.385000          0.946650E-04
      0.390000          0.919396E-04
      0.395000          0.894465E-04
      0.400000          0.871669E-04
      0.405000          0.850817E-04
      0.410000          0.831732E-04
      0.415000          0.814250E-04
      0.420000          0.798236E-04
      0.425000          0.783577E-04
      0.430000          0.770194E-04
      0.435000          0.758036E-04
      0.440000          0.747076E-04
      0.445000          0.737315E-04
      0.450000          0.728767E-04
      0.455000          0.721459E-04
      0.460000          0.715423E-04
      0.465000          0.710686E-04
      0.470000          0.707268E-04
      0.475000          0.705172E-04
      0.480000          0.704378E-04
      0.485000          0.704846E-04
      0.490000          0.706505E-04
      0.495000          0.709260E-04
      0.500000          0.712985E-04
