 I_abs(s)[cm^-1]/c[mg/ml]
       0.00000          0.145684E-01
      0.500000E-02      0.145314E-01
      0.100000E-01      0.144208E-01
      0.150000E-01      0.142385E-01
      0.200000E-01      0.139873E-01
      0.250000E-01      0.136712E-01
      0.300000E-01      0.132949E-01
      0.350000E-01      0.128641E-01
      0.400000E-01      0.123851E-01
      0.450000E-01      0.118647E-01
      0.500000E-01      0.113100E-01
      0.550000E-01      0.107283E-01
      0.600000E-01      0.101268E-01
      0.650000E-01      0.951254E-02
      0.700000E-01      0.889244E-02
      0.750000E-01      0.827285E-02
      0.800000E-01      0.765966E-02
      0.850000E-01      0.705818E-02
      0.900000E-01      0.647306E-02
      0.950000E-01      0.590831E-02
      0.100000          0.536727E-02
      0.105000          0.485259E-02
      0.110000          0.436630E-02
      0.115000          0.390984E-02
      0.120000          0.348410E-02
      0.125000          0.308947E-02
      0.130000          0.272591E-02
      0.135000          0.239302E-02
      0.140000          0.209009E-02
      0.145000          0.181612E-02
      0.150000          0.156996E-02
      0.155000          0.135025E-02
      0.160000          0.115554E-02
      0.165000          0.984280E-03
      0.170000          0.834877E-03
      0.175000          0.705695E-03
      0.180000          0.595091E-03
      0.185000          0.501424E-03
      0.190000          0.423078E-03
      0.195000          0.358466E-03
      0.200000          0.306048E-03
      0.205000          0.264340E-03
      0.210000          0.231926E-03
      0.215000          0.207463E-03
      0.220000          0.189696E-03
      0.225000          0.177461E-03
      0.230000          0.169693E-03
      0.235000          0.165432E-03
      0.240000          0.163825E-03
      0.245000          0.164128E-03
      0.250000          0.165704E-03
      0.255000          0.168019E-03
      0.260000          0.170640E-03
      0.265000          0.173225E-03
      0.270000          0.175517E-03
      0.275000          0.177331E-03
      0.280000          0.178548E-03
      0.285000          0.179102E-03
      0.290000          0.178971E-03
      0.295000          0.178165E-03
      0.300000          0.176720E-03
      0.305000          0.174689E-03
      0.310000          0.172135E-03
      0.315000          0.169127E-03
      0.320000          0.165733E-03
      0.325000          0.162023E-03
      0.330000          0.158059E-03
      0.335000          0.153903E-03
      0.340000          0.149610E-03
      0.345000          0.145232E-03
      0.350000          0.140815E-03
      0.355000          0.136404E-03
      0.360000          0.132040E-03
      0.365000          0.127759E-03
      0.370000          0.123598E-03
      0.375000          0.119589E-03
      0.380000          0.115760E-03
      0.385000          0.112136E-03
      0.390000          0.108739E-03
      0.395000          0.105584E-03
      0.400000          0.102683E-03
      0.405000          0.100040E-03
      0.410000          0.976563E-04
      0.415000          0.955260E-04
      0.420000          0.936395E-04
      0.425000          0.919826E-04
      0.430000          0.905381E-04
      0.435000          0.892864E-04
      0.440000          0.882066E-04
      0.445000          0.872775E-04
      0.450000          0.864787E-04
      0.455000          0.857911E-04
      0.460000          0.851975E-04
      0.465000          0.846831E-04
      0.470000          0.842359E-04
      0.475000          0.838459E-04
      0.480000          0.835056E-04
      0.485000          0.832090E-04
      0.490000          0.829515E-04
      0.495000          0.827288E-04
      0.500000          0.825371E-04
