 I_abs(s)[cm^-1]/c[mg/ml]
       0.00000          0.144733E-01
      0.500000E-02      0.144325E-01
      0.100000E-01      0.143107E-01
      0.150000E-01      0.141099E-01
      0.200000E-01      0.138335E-01
      0.250000E-01      0.134860E-01
      0.300000E-01      0.130730E-01
      0.350000E-01      0.126010E-01
      0.400000E-01      0.120775E-01
      0.450000E-01      0.115103E-01
      0.500000E-01      0.109078E-01
      0.550000E-01      0.102785E-01
      0.600000E-01      0.963107E-02
      0.650000E-01      0.897389E-02
      0.700000E-01      0.831503E-02
      0.750000E-01      0.766206E-02
      0.800000E-01      0.702192E-02
      0.850000E-01      0.640082E-02
      0.900000E-01      0.580414E-02
      0.950000E-01      0.523639E-02
      0.100000          0.470117E-02
      0.105000          0.420116E-02
      0.110000          0.373818E-02
      0.115000          0.331320E-02
      0.120000          0.292640E-02
      0.125000          0.257728E-02
      0.130000          0.226473E-02
      0.135000          0.198713E-02
      0.140000          0.174245E-02
      0.145000          0.152836E-02
      0.150000          0.134232E-02
      0.155000          0.118166E-02
      0.160000          0.104368E-02
      0.165000          0.925741E-03
      0.170000          0.825275E-03
      0.175000          0.739876E-03
      0.180000          0.667323E-03
      0.185000          0.605605E-03
      0.190000          0.552937E-03
      0.195000          0.507762E-03
      0.200000          0.468750E-03
      0.205000          0.434786E-03
      0.210000          0.404951E-03
      0.215000          0.378504E-03
      0.220000          0.354860E-03
      0.225000          0.333564E-03
      0.230000          0.314268E-03
      0.235000          0.296711E-03
      0.240000          0.280696E-03
      0.245000          0.266074E-03
      0.250000          0.252727E-03
      0.255000          0.240557E-03
      0.260000          0.229478E-03
      0.265000          0.219405E-03
      0.270000          0.210254E-03
      0.275000          0.201940E-03
      0.280000          0.194374E-03
      0.285000          0.187462E-03
      0.290000          0.181115E-03
      0.295000          0.175240E-03
      0.300000          0.169751E-03
      0.305000          0.164568E-03
      0.310000          0.159620E-03
      0.315000          0.154843E-03
      0.320000          0.150189E-03
      0.325000          0.145618E-03
      0.330000          0.141103E-03
      0.335000          0.136631E-03
      0.340000          0.132196E-03
      0.345000          0.127807E-03
      0.350000          0.123476E-03
      0.355000          0.119226E-03
      0.360000          0.115083E-03
      0.365000          0.111078E-03
      0.370000          0.107241E-03
      0.375000          0.103606E-03
      0.380000          0.100203E-03
      0.385000          0.970597E-04
      0.390000          0.941994E-04
      0.395000          0.916414E-04
      0.400000          0.893987E-04
      0.405000          0.874785E-04
      0.410000          0.858811E-04
      0.415000          0.846006E-04
      0.420000          0.836244E-04
      0.425000          0.829338E-04
      0.430000          0.825047E-04
      0.435000          0.823079E-04
      0.440000          0.823104E-04
      0.445000          0.824761E-04
      0.450000          0.827670E-04
      0.455000          0.831443E-04
      0.460000          0.835695E-04
      0.465000          0.840056E-04
      0.470000          0.844179E-04
      0.475000          0.847754E-04
      0.480000          0.850512E-04
      0.485000          0.852235E-04
      0.490000          0.852756E-04
      0.495000          0.851969E-04
      0.500000          0.849823E-04
