 I_abs(s)[cm^-1]/c[mg/ml]
       0.00000          0.146559E-01
      0.500000E-02      0.146093E-01
      0.100000E-01      0.144705E-01
      0.150000E-01      0.142422E-01
      0.200000E-01      0.139286E-01
      0.250000E-01      0.135355E-01
      0.300000E-01      0.130702E-01
      0.350000E-01      0.125410E-01
      0.400000E-01      0.119573E-01
      0.450000E-01      0.113289E-01
      0.500000E-01      0.106661E-01
      0.550000E-01      0.997945E-02
      0.600000E-01      0.927910E-02
      0.650000E-01      0.857496E-02
      0.700000E-01      0.787626E-02
      0.750000E-01      0.719146E-02
      0.800000E-01      0.652805E-02
      0.850000E-01      0.589242E-02
      0.900000E-01      0.528988E-02
      0.950000E-01      0.472453E-02
      0.100000          0.419931E-02
      0.105000          0.371608E-02
      0.110000          0.327563E-02
      0.115000          0.287782E-02
      0.120000          0.252170E-02
      0.125000          0.220560E-02
      0.130000          0.192732E-02
      0.135000          0.168426E-02
      0.140000          0.147349E-02
      0.145000          0.129197E-02
      0.150000          0.113658E-02
      0.155000          0.100425E-02
      0.160000          0.892053E-03
      0.165000          0.797227E-03
      0.170000          0.717242E-03
      0.175000          0.649822E-03
      0.180000          0.592955E-03
      0.185000          0.544892E-03
      0.190000          0.504139E-03
      0.195000          0.469434E-03
      0.200000          0.439724E-03
      0.205000          0.414141E-03
      0.210000          0.391971E-03
      0.215000          0.372629E-03
      0.220000          0.355633E-03
      0.225000          0.340584E-03
      0.230000          0.327144E-03
      0.235000          0.315028E-03
      0.240000          0.303988E-03
      0.245000          0.293806E-03
      0.250000          0.284292E-03
      0.255000          0.275281E-03
      0.260000          0.266629E-03
      0.265000          0.258217E-03
      0.270000          0.249948E-03
      0.275000          0.241750E-03
      0.280000          0.233574E-03
      0.285000          0.225394E-03
      0.290000          0.217204E-03
      0.295000          0.209017E-03
      0.300000          0.200862E-03
      0.305000          0.192780E-03
      0.310000          0.184820E-03
      0.315000          0.177038E-03
      0.320000          0.169488E-03
      0.325000          0.162223E-03
      0.330000          0.155293E-03
      0.335000          0.148739E-03
      0.340000          0.142595E-03
      0.345000          0.136884E-03
      0.350000          0.131621E-03
      0.355000          0.126812E-03
      0.360000          0.122453E-03
      0.365000          0.118534E-03
      0.370000          0.115038E-03
      0.375000          0.111941E-03
      0.380000          0.109218E-03
      0.385000          0.106838E-03
      0.390000          0.104771E-03
      0.395000          0.102984E-03
      0.400000          0.101443E-03
      0.405000          0.100117E-03
      0.410000          0.989732E-04
      0.415000          0.979797E-04
      0.420000          0.971065E-04
      0.425000          0.963246E-04
      0.430000          0.956065E-04
      0.435000          0.949265E-04
      0.440000          0.942608E-04
      0.445000          0.935882E-04
      0.450000          0.928901E-04
      0.455000          0.921507E-04
      0.460000          0.913577E-04
      0.465000          0.905023E-04
      0.470000          0.895795E-04
      0.475000          0.885880E-04
      0.480000          0.875304E-04
      0.485000          0.864130E-04
      0.490000          0.852452E-04
      0.495000          0.840397E-04
      0.500000          0.828115E-04
