 I_abs(s)[cm^-1]/c[mg/ml]
       0.00000          0.142684E-01
      0.500000E-02      0.142182E-01
      0.100000E-01      0.140691E-01
      0.150000E-01      0.138243E-01
      0.200000E-01      0.134895E-01
      0.250000E-01      0.130722E-01
      0.300000E-01      0.125815E-01
      0.350000E-01      0.120280E-01
      0.400000E-01      0.114230E-01
      0.450000E-01      0.107786E-01
      0.500000E-01      0.101070E-01
      0.550000E-01      0.942004E-02
      0.600000E-01      0.872916E-02
      0.650000E-01      0.804485E-02
      0.700000E-01      0.737646E-02
      0.750000E-01      0.673201E-02
      0.800000E-01      0.611810E-02
      0.850000E-01      0.553983E-02
      0.900000E-01      0.500079E-02
      0.950000E-01      0.450314E-02
      0.100000          0.404777E-02
      0.105000          0.363436E-02
      0.110000          0.326165E-02
      0.115000          0.292761E-02
      0.120000          0.262961E-02
      0.125000          0.236464E-02
      0.130000          0.212951E-02
      0.135000          0.192097E-02
      0.140000          0.173586E-02
      0.145000          0.157123E-02
      0.150000          0.142438E-02
      0.155000          0.129293E-02
      0.160000          0.117480E-02
      0.165000          0.106828E-02
      0.170000          0.971929E-03
      0.175000          0.884588E-03
      0.180000          0.805325E-03
      0.185000          0.733390E-03
      0.190000          0.668173E-03
      0.195000          0.609159E-03
      0.200000          0.555901E-03
      0.205000          0.507986E-03
      0.210000          0.465017E-03
      0.215000          0.426604E-03
      0.220000          0.392354E-03
      0.225000          0.361876E-03
      0.230000          0.334782E-03
      0.235000          0.310693E-03
      0.240000          0.289251E-03
      0.245000          0.270122E-03
      0.250000          0.253005E-03
      0.255000          0.237637E-03
      0.260000          0.223792E-03
      0.265000          0.211284E-03
      0.270000          0.199964E-03
      0.275000          0.189715E-03
      0.280000          0.180446E-03
      0.285000          0.172089E-03
      0.290000          0.164589E-03
      0.295000          0.157897E-03
      0.300000          0.151971E-03
      0.305000          0.146765E-03
      0.310000          0.142228E-03
      0.315000          0.138304E-03
      0.320000          0.134929E-03
      0.325000          0.132033E-03
      0.330000          0.129542E-03
      0.335000          0.127377E-03
      0.340000          0.125460E-03
      0.345000          0.123715E-03
      0.350000          0.122073E-03
      0.355000          0.120468E-03
      0.360000          0.118846E-03
      0.365000          0.117163E-03
      0.370000          0.115386E-03
      0.375000          0.113493E-03
      0.380000          0.111474E-03
      0.385000          0.109328E-03
      0.390000          0.107065E-03
      0.395000          0.104703E-03
      0.400000          0.102264E-03
      0.405000          0.997785E-04
      0.410000          0.972759E-04
      0.415000          0.947891E-04
      0.420000          0.923501E-04
      0.425000          0.899892E-04
      0.430000          0.877338E-04
      0.435000          0.856075E-04
      0.440000          0.836296E-04
      0.445000          0.818144E-04
      0.450000          0.801715E-04
      0.455000          0.787054E-04
      0.460000          0.774164E-04
      0.465000          0.763006E-04
      0.470000          0.753506E-04
      0.475000          0.745563E-04
      0.480000          0.739059E-04
      0.485000          0.733858E-04
      0.490000          0.729821E-04
      0.495000          0.726810E-04
      0.500000          0.724689E-04
