 I_abs(s)[cm^-1]/c[mg/ml]
       0.00000          0.144022E-01
      0.500000E-02      0.143505E-01
      0.100000E-01      0.141965E-01
      0.150000E-01      0.139442E-01
      0.200000E-01      0.135994E-01
      0.250000E-01      0.131704E-01
      0.300000E-01      0.126669E-01
      0.350000E-01      0.121002E-01
      0.400000E-01      0.114824E-01
      0.450000E-01      0.108259E-01
      0.500000E-01      0.101434E-01
      0.550000E-01      0.944689E-02
      0.600000E-01      0.874781E-02
      0.650000E-01      0.805642E-02
      0.700000E-01      0.738173E-02
      0.750000E-01      0.673131E-02
      0.800000E-01      0.611119E-02
      0.850000E-01      0.552595E-02
      0.900000E-01      0.497870E-02
      0.950000E-01      0.447125E-02
      0.100000          0.400426E-02
      0.105000          0.357743E-02
      0.110000          0.318967E-02
      0.115000          0.283930E-02
      0.120000          0.252425E-02
      0.125000          0.224217E-02
      0.130000          0.199061E-02
      0.135000          0.176708E-02
      0.140000          0.156913E-02
      0.145000          0.139444E-02
      0.150000          0.124079E-02
      0.155000          0.110611E-02
      0.160000          0.988452E-03
      0.165000          0.886012E-03
      0.170000          0.797097E-03
      0.175000          0.720125E-03
      0.180000          0.653619E-03
      0.185000          0.596202E-03
      0.190000          0.546602E-03
      0.195000          0.503654E-03
      0.200000          0.466306E-03
      0.205000          0.433624E-03
      0.210000          0.404800E-03
      0.215000          0.379150E-03
      0.220000          0.356112E-03
      0.225000          0.335241E-03
      0.230000          0.316196E-03
      0.235000          0.298729E-03
      0.240000          0.282668E-03
      0.245000          0.267896E-03
      0.250000          0.254340E-03
      0.255000          0.241947E-03
      0.260000          0.230678E-03
      0.265000          0.220493E-03
      0.270000          0.211343E-03
      0.275000          0.203169E-03
      0.280000          0.195897E-03
      0.285000          0.189446E-03
      0.290000          0.183725E-03
      0.295000          0.178641E-03
      0.300000          0.174101E-03
      0.305000          0.170022E-03
      0.310000          0.166329E-03
      0.315000          0.162958E-03
      0.320000          0.159858E-03
      0.325000          0.156992E-03
      0.330000          0.154331E-03
      0.335000          0.151855E-03
      0.340000          0.149549E-03
      0.345000          0.147401E-03
      0.350000          0.145399E-03
      0.355000          0.143526E-03
      0.360000          0.141767E-03
      0.365000          0.140099E-03
      0.370000          0.138500E-03
      0.375000          0.136943E-03
      0.380000          0.135404E-03
      0.385000          0.133858E-03
      0.390000          0.132285E-03
      0.395000          0.130668E-03
      0.400000          0.128999E-03
      0.405000          0.127271E-03
      0.410000          0.125487E-03
      0.415000          0.123653E-03
      0.420000          0.121779E-03
      0.425000          0.119879E-03
      0.430000          0.117967E-03
      0.435000          0.116056E-03
      0.440000          0.114159E-03
      0.445000          0.112283E-03
      0.450000          0.110435E-03
      0.455000          0.108617E-03
      0.460000          0.106827E-03
      0.465000          0.105062E-03
      0.470000          0.103314E-03
      0.475000          0.101577E-03
      0.480000          0.998432E-04
      0.485000          0.981076E-04
      0.490000          0.963658E-04
      0.495000          0.946164E-04
      0.500000          0.928611E-04
