 I_abs(s)[cm^-1]/c[mg/ml]
       0.00000          0.144417E-01
      0.500000E-02      0.143951E-01
      0.100000E-01      0.142561E-01
      0.150000E-01      0.140274E-01
      0.200000E-01      0.137134E-01
      0.250000E-01      0.133200E-01
      0.300000E-01      0.128546E-01
      0.350000E-01      0.123256E-01
      0.400000E-01      0.117424E-01
      0.450000E-01      0.111151E-01
      0.500000E-01      0.104541E-01
      0.550000E-01      0.976996E-02
      0.600000E-01      0.907293E-02
      0.650000E-01      0.837299E-02
      0.700000E-01      0.767940E-02
      0.750000E-01      0.700063E-02
      0.800000E-01      0.634415E-02
      0.850000E-01      0.571635E-02
      0.900000E-01      0.512249E-02
      0.950000E-01      0.456661E-02
      0.100000          0.405162E-02
      0.105000          0.357930E-02
      0.110000          0.315037E-02
      0.115000          0.276464E-02
      0.120000          0.242105E-02
      0.125000          0.211789E-02
      0.130000          0.185286E-02
      0.135000          0.162324E-02
      0.140000          0.142600E-02
      0.145000          0.125797E-02
      0.150000          0.111589E-02
      0.155000          0.996530E-03
      0.160000          0.896788E-03
      0.165000          0.813725E-03
      0.170000          0.744627E-03
      0.175000          0.687036E-03
      0.180000          0.638768E-03
      0.185000          0.597921E-03
      0.190000          0.562867E-03
      0.195000          0.532250E-03
      0.200000          0.504957E-03
      0.205000          0.480104E-03
      0.210000          0.457007E-03
      0.215000          0.435159E-03
      0.220000          0.414198E-03
      0.225000          0.393888E-03
      0.230000          0.374090E-03
      0.235000          0.354743E-03
      0.240000          0.335842E-03
      0.245000          0.317423E-03
      0.250000          0.299547E-03
      0.255000          0.282289E-03
      0.260000          0.265727E-03
      0.265000          0.249937E-03
      0.270000          0.234985E-03
      0.275000          0.220924E-03
      0.280000          0.207792E-03
      0.285000          0.195612E-03
      0.290000          0.184392E-03
      0.295000          0.174123E-03
      0.300000          0.164784E-03
      0.305000          0.156345E-03
      0.310000          0.148763E-03
      0.315000          0.141992E-03
      0.320000          0.135978E-03
      0.325000          0.130667E-03
      0.330000          0.126002E-03
      0.335000          0.121927E-03
      0.340000          0.118388E-03
      0.345000          0.115333E-03
      0.350000          0.112710E-03
      0.355000          0.110473E-03
      0.360000          0.108575E-03
      0.365000          0.106974E-03
      0.370000          0.105630E-03
      0.375000          0.104503E-03
      0.380000          0.103557E-03
      0.385000          0.102756E-03
      0.390000          0.102067E-03
      0.395000          0.101460E-03
      0.400000          0.100905E-03
      0.405000          0.100377E-03
      0.410000          0.998514E-04
      0.415000          0.993104E-04
      0.420000          0.987383E-04
      0.425000          0.981241E-04
      0.430000          0.974611E-04
      0.435000          0.967473E-04
      0.440000          0.959847E-04
      0.445000          0.951797E-04
      0.450000          0.943420E-04
      0.455000          0.934845E-04
      0.460000          0.926219E-04
      0.465000          0.917706E-04
      0.470000          0.909474E-04
      0.475000          0.901687E-04
      0.480000          0.894496E-04
      0.485000          0.888032E-04
      0.490000          0.882398E-04
      0.495000          0.877668E-04
      0.500000          0.873876E-04
