 I_abs(s)[cm^-1]/c[mg/ml]
       0.00000          0.144575E-01
      0.500000E-02      0.144085E-01
      0.100000E-01      0.142624E-01
      0.150000E-01      0.140225E-01
      0.200000E-01      0.136941E-01
      0.250000E-01      0.132840E-01
      0.300000E-01      0.128010E-01
      0.350000E-01      0.122548E-01
      0.400000E-01      0.116562E-01
      0.450000E-01      0.110166E-01
      0.500000E-01      0.103476E-01
      0.550000E-01      0.966053E-02
      0.600000E-01      0.896639E-02
      0.650000E-01      0.827536E-02
      0.700000E-01      0.759666E-02
      0.750000E-01      0.693832E-02
      0.800000E-01      0.630708E-02
      0.850000E-01      0.570831E-02
      0.900000E-01      0.514601E-02
      0.950000E-01      0.462287E-02
      0.100000          0.414034E-02
      0.105000          0.369878E-02
      0.110000          0.329758E-02
      0.115000          0.293536E-02
      0.120000          0.261016E-02
      0.125000          0.231955E-02
      0.130000          0.206087E-02
      0.135000          0.183131E-02
      0.140000          0.162807E-02
      0.145000          0.144843E-02
      0.150000          0.128985E-02
      0.155000          0.114999E-02
      0.160000          0.102675E-02
      0.165000          0.918265E-03
      0.170000          0.822894E-03
      0.175000          0.739208E-03
      0.180000          0.665951E-03
      0.185000          0.602013E-03
      0.190000          0.546396E-03
      0.195000          0.498188E-03
      0.200000          0.456542E-03
      0.205000          0.420658E-03
      0.210000          0.389776E-03
      0.215000          0.363170E-03
      0.220000          0.340154E-03
      0.225000          0.320085E-03
      0.230000          0.302375E-03
      0.235000          0.286497E-03
      0.240000          0.271996E-03
      0.245000          0.258495E-03
      0.250000          0.245698E-03
      0.255000          0.233394E-03
      0.260000          0.221449E-03
      0.265000          0.209801E-03
      0.270000          0.198452E-03
      0.275000          0.187453E-03
      0.280000          0.176892E-03
      0.285000          0.166879E-03
      0.290000          0.157533E-03
      0.295000          0.148969E-03
      0.300000          0.141284E-03
      0.305000          0.134553E-03
      0.310000          0.128820E-03
      0.315000          0.124096E-03
      0.320000          0.120359E-03
      0.325000          0.117551E-03
      0.330000          0.115589E-03
      0.335000          0.114365E-03
      0.340000          0.113755E-03
      0.345000          0.113624E-03
      0.350000          0.113834E-03
      0.355000          0.114250E-03
      0.360000          0.114747E-03
      0.365000          0.115211E-03
      0.370000          0.115549E-03
      0.375000          0.115684E-03
      0.380000          0.115562E-03
      0.385000          0.115149E-03
      0.390000          0.114430E-03
      0.395000          0.113412E-03
      0.400000          0.112114E-03
      0.405000          0.110570E-03
      0.410000          0.108826E-03
      0.415000          0.106932E-03
      0.420000          0.104945E-03
      0.425000          0.102922E-03
      0.430000          0.100922E-03
      0.435000          0.989980E-04
      0.440000          0.971981E-04
      0.445000          0.955648E-04
      0.450000          0.941320E-04
      0.455000          0.929251E-04
      0.460000          0.919601E-04
      0.465000          0.912435E-04
      0.470000          0.907726E-04
      0.475000          0.905356E-04
      0.480000          0.905126E-04
      0.485000          0.906763E-04
      0.490000          0.909935E-04
      0.495000          0.914262E-04
      0.500000          0.919332E-04
