 I_abs(s)[cm^-1]/c[mg/ml]
       0.00000          0.145208E-01
      0.500000E-02      0.144717E-01
      0.100000E-01      0.143255E-01
      0.150000E-01      0.140852E-01
      0.200000E-01      0.137561E-01
      0.250000E-01      0.133450E-01
      0.300000E-01      0.128604E-01
      0.350000E-01      0.123120E-01
      0.400000E-01      0.117107E-01
      0.450000E-01      0.110678E-01
      0.500000E-01      0.103948E-01
      0.550000E-01      0.970337E-02
      0.600000E-01      0.900459E-02
      0.650000E-01      0.830893E-02
      0.700000E-01      0.762591E-02
      0.750000E-01      0.696390E-02
      0.800000E-01      0.632999E-02
      0.850000E-01      0.572988E-02
      0.900000E-01      0.516787E-02
      0.950000E-01      0.464686E-02
      0.100000          0.416845E-02
      0.105000          0.373300E-02
      0.110000          0.333984E-02
      0.115000          0.298737E-02
      0.120000          0.267328E-02
      0.125000          0.239474E-02
      0.130000          0.214857E-02
      0.135000          0.193138E-02
      0.140000          0.173979E-02
      0.145000          0.157050E-02
      0.150000          0.142042E-02
      0.155000          0.128674E-02
      0.160000          0.116699E-02
      0.165000          0.105906E-02
      0.170000          0.961210E-03
      0.175000          0.872033E-03
      0.180000          0.790450E-03
      0.185000          0.715654E-03
      0.190000          0.647067E-03
      0.195000          0.584284E-03
      0.200000          0.527030E-03
      0.205000          0.475108E-03
      0.210000          0.428360E-03
      0.215000          0.386636E-03
      0.220000          0.349766E-03
      0.225000          0.317543E-03
      0.230000          0.289719E-03
      0.235000          0.265995E-03
      0.240000          0.246034E-03
      0.245000          0.229462E-03
      0.250000          0.215879E-03
      0.255000          0.204879E-03
      0.260000          0.196054E-03
      0.265000          0.189014E-03
      0.270000          0.183392E-03
      0.275000          0.178857E-03
      0.280000          0.175116E-03
      0.285000          0.171921E-03
      0.290000          0.169070E-03
      0.295000          0.166403E-03
      0.300000          0.163803E-03
      0.305000          0.161190E-03
      0.310000          0.158514E-03
      0.315000          0.155752E-03
      0.320000          0.152903E-03
      0.325000          0.149978E-03
      0.330000          0.147000E-03
      0.335000          0.143996E-03
      0.340000          0.140997E-03
      0.345000          0.138031E-03
      0.350000          0.135125E-03
      0.355000          0.132301E-03
      0.360000          0.129577E-03
      0.365000          0.126967E-03
      0.370000          0.124478E-03
      0.375000          0.122116E-03
      0.380000          0.119883E-03
      0.385000          0.117775E-03
      0.390000          0.115790E-03
      0.395000          0.113920E-03
      0.400000          0.112160E-03
      0.405000          0.110499E-03
      0.410000          0.108929E-03
      0.415000          0.107438E-03
      0.420000          0.106017E-03
      0.425000          0.104653E-03
      0.430000          0.103334E-03
      0.435000          0.102049E-03
      0.440000          0.100785E-03
      0.445000          0.995319E-04
      0.450000          0.982787E-04
      0.455000          0.970161E-04
      0.460000          0.957363E-04
      0.465000          0.944337E-04
      0.470000          0.931050E-04
      0.475000          0.917491E-04
      0.480000          0.903682E-04
      0.485000          0.889668E-04
      0.490000          0.875524E-04
      0.495000          0.861349E-04
      0.500000          0.847266E-04
