 I_abs(s)[cm^-1]/c[mg/ml]
       0.00000          0.144022E-01
      0.500000E-02      0.143617E-01
      0.100000E-01      0.142410E-01
      0.150000E-01      0.140420E-01
      0.200000E-01      0.137681E-01
      0.250000E-01      0.134236E-01
      0.300000E-01      0.130142E-01
      0.350000E-01      0.125462E-01
      0.400000E-01      0.120270E-01
      0.450000E-01      0.114644E-01
      0.500000E-01      0.108665E-01
      0.550000E-01      0.102418E-01
      0.600000E-01      0.959871E-02
      0.650000E-01      0.894555E-02
      0.700000E-01      0.829024E-02
      0.750000E-01      0.764021E-02
      0.800000E-01      0.700232E-02
      0.850000E-01      0.638268E-02
      0.900000E-01      0.578660E-02
      0.950000E-01      0.521855E-02
      0.100000          0.468215E-02
      0.105000          0.418012E-02
      0.110000          0.371433E-02
      0.115000          0.328587E-02
      0.120000          0.289507E-02
      0.125000          0.254161E-02
      0.130000          0.222457E-02
      0.135000          0.194256E-02
      0.140000          0.169378E-02
      0.145000          0.147613E-02
      0.150000          0.128729E-02
      0.155000          0.112483E-02
      0.160000          0.986225E-03
      0.165000          0.868982E-03
      0.170000          0.770658E-03
      0.175000          0.688913E-03
      0.180000          0.621540E-03
      0.185000          0.566495E-03
      0.190000          0.521901E-03
      0.195000          0.486064E-03
      0.200000          0.457464E-03
      0.205000          0.434759E-03
      0.210000          0.416768E-03
      0.215000          0.402465E-03
      0.220000          0.390964E-03
      0.225000          0.381508E-03
      0.230000          0.373453E-03
      0.235000          0.366258E-03
      0.240000          0.359475E-03
      0.245000          0.352739E-03
      0.250000          0.345756E-03
      0.255000          0.338303E-03
      0.260000          0.330216E-03
      0.265000          0.321386E-03
      0.270000          0.311757E-03
      0.275000          0.301317E-03
      0.280000          0.290094E-03
      0.285000          0.278154E-03
      0.290000          0.265593E-03
      0.295000          0.252531E-03
      0.300000          0.239107E-03
      0.305000          0.225473E-03
      0.310000          0.211790E-03
      0.315000          0.198215E-03
      0.320000          0.184903E-03
      0.325000          0.172000E-03
      0.330000          0.159636E-03
      0.335000          0.147922E-03
      0.340000          0.136950E-03
      0.345000          0.126790E-03
      0.350000          0.117488E-03
      0.355000          0.109069E-03
      0.360000          0.101535E-03
      0.365000          0.948702E-04
      0.370000          0.890425E-04
      0.375000          0.840055E-04
      0.380000          0.797029E-04
      0.385000          0.760716E-04
      0.390000          0.730449E-04
      0.395000          0.705554E-04
      0.400000          0.685381E-04
      0.405000          0.669319E-04
      0.410000          0.656819E-04
      0.415000          0.647400E-04
      0.420000          0.640660E-04
      0.425000          0.636271E-04
      0.430000          0.633977E-04
      0.435000          0.633591E-04
      0.440000          0.634975E-04
      0.445000          0.638036E-04
      0.450000          0.642706E-04
      0.455000          0.648933E-04
      0.460000          0.656665E-04
      0.465000          0.665838E-04
      0.470000          0.676367E-04
      0.475000          0.688140E-04
      0.480000          0.701011E-04
      0.485000          0.714798E-04
      0.490000          0.729287E-04
      0.495000          0.744230E-04
      0.500000          0.759355E-04
