 I_abs(s)[cm^-1]/c[mg/ml]
       0.00000          0.143234E-01
      0.500000E-02      0.142773E-01
      0.100000E-01      0.141400E-01
      0.150000E-01      0.139143E-01
      0.200000E-01      0.136047E-01
      0.250000E-01      0.132174E-01
      0.300000E-01      0.127600E-01
      0.350000E-01      0.122412E-01
      0.400000E-01      0.116707E-01
      0.450000E-01      0.110587E-01
      0.500000E-01      0.104157E-01
      0.550000E-01      0.975233E-02
      0.600000E-01      0.907879E-02
      0.650000E-01      0.840481E-02
      0.700000E-01      0.773932E-02
      0.750000E-01      0.709032E-02
      0.800000E-01      0.646470E-02
      0.850000E-01      0.586817E-02
      0.900000E-01      0.530522E-02
      0.950000E-01      0.477911E-02
      0.100000          0.429191E-02
      0.105000          0.384461E-02
      0.110000          0.343719E-02
      0.115000          0.306877E-02
      0.120000          0.273779E-02
      0.125000          0.244210E-02
      0.130000          0.217917E-02
      0.135000          0.194621E-02
      0.140000          0.174028E-02
      0.145000          0.155848E-02
      0.150000          0.139797E-02
      0.155000          0.125610E-02
      0.160000          0.113043E-02
      0.165000          0.101878E-02
      0.170000          0.919263E-03
      0.175000          0.830256E-03
      0.180000          0.750401E-03
      0.185000          0.678580E-03
      0.190000          0.613884E-03
      0.195000          0.555580E-03
      0.200000          0.503075E-03
      0.205000          0.455885E-03
      0.210000          0.413601E-03
      0.215000          0.375868E-03
      0.220000          0.342359E-03
      0.225000          0.312767E-03
      0.230000          0.286788E-03
      0.235000          0.264120E-03
      0.240000          0.244463E-03
      0.245000          0.227515E-03
      0.250000          0.212980E-03
      0.255000          0.200571E-03
      0.260000          0.190016E-03
      0.265000          0.181058E-03
      0.270000          0.173464E-03
      0.275000          0.167025E-03
      0.280000          0.161554E-03
      0.285000          0.156890E-03
      0.290000          0.152894E-03
      0.295000          0.149448E-03
      0.300000          0.146453E-03
      0.305000          0.143823E-03
      0.310000          0.141486E-03
      0.315000          0.139379E-03
      0.320000          0.137448E-03
      0.325000          0.135645E-03
      0.330000          0.133925E-03
      0.335000          0.132252E-03
      0.340000          0.130593E-03
      0.345000          0.128921E-03
      0.350000          0.127212E-03
      0.355000          0.125453E-03
      0.360000          0.123632E-03
      0.365000          0.121747E-03
      0.370000          0.119801E-03
      0.375000          0.117800E-03
      0.380000          0.115759E-03
      0.385000          0.113692E-03
      0.390000          0.111618E-03
      0.395000          0.109556E-03
      0.400000          0.107524E-03
      0.405000          0.105541E-03
      0.410000          0.103620E-03
      0.415000          0.101774E-03
      0.420000          0.100013E-03
      0.425000          0.983424E-04
      0.430000          0.967651E-04
      0.435000          0.952816E-04
      0.440000          0.938903E-04
      0.445000          0.925886E-04
      0.450000          0.913727E-04
      0.455000          0.902393E-04
      0.460000          0.891851E-04
      0.465000          0.882078E-04
      0.470000          0.873056E-04
      0.475000          0.864779E-04
      0.480000          0.857245E-04
      0.485000          0.850455E-04
      0.490000          0.844411E-04
      0.495000          0.839108E-04
      0.500000          0.834531E-04
