 I_abs(s)[cm^-1]/c[mg/ml]
       0.00000          0.142605E-01
      0.500000E-02      0.142141E-01
      0.100000E-01      0.140758E-01
      0.150000E-01      0.138486E-01
      0.200000E-01      0.135371E-01
      0.250000E-01      0.131475E-01
      0.300000E-01      0.126876E-01
      0.350000E-01      0.121665E-01
      0.400000E-01      0.115938E-01
      0.450000E-01      0.109802E-01
      0.500000E-01      0.103362E-01
      0.550000E-01      0.967263E-02
      0.600000E-01      0.899993E-02
      0.650000E-01      0.832790E-02
      0.700000E-01      0.766558E-02
      0.750000E-01      0.702101E-02
      0.800000E-01      0.640107E-02
      0.850000E-01      0.581144E-02
      0.900000E-01      0.525652E-02
      0.950000E-01      0.473943E-02
      0.100000          0.426211E-02
      0.105000          0.382533E-02
      0.110000          0.342888E-02
      0.115000          0.307165E-02
      0.120000          0.275185E-02
      0.125000          0.246710E-02
      0.130000          0.221464E-02
      0.135000          0.199149E-02
      0.140000          0.179454E-02
      0.145000          0.162073E-02
      0.150000          0.146712E-02
      0.155000          0.133096E-02
      0.160000          0.120978E-02
      0.165000          0.110140E-02
      0.170000          0.100394E-02
      0.175000          0.915858E-03
      0.180000          0.835871E-03
      0.185000          0.762972E-03
      0.190000          0.696380E-03
      0.195000          0.635496E-03
      0.200000          0.579868E-03
      0.205000          0.529149E-03
      0.210000          0.483060E-03
      0.215000          0.441362E-03
      0.220000          0.403832E-03
      0.225000          0.370241E-03
      0.230000          0.340348E-03
      0.235000          0.313891E-03
      0.240000          0.290585E-03
      0.245000          0.270130E-03
      0.250000          0.252215E-03
      0.255000          0.236525E-03
      0.260000          0.222754E-03
      0.265000          0.210608E-03
      0.270000          0.199817E-03
      0.275000          0.190142E-03
      0.280000          0.181375E-03
      0.285000          0.173346E-03
      0.290000          0.165919E-03
      0.295000          0.158994E-03
      0.300000          0.152502E-03
      0.305000          0.146402E-03
      0.310000          0.140673E-03
      0.315000          0.135311E-03
      0.320000          0.130324E-03
      0.325000          0.125723E-03
      0.330000          0.121521E-03
      0.335000          0.117728E-03
      0.340000          0.114346E-03
      0.345000          0.111371E-03
      0.350000          0.108786E-03
      0.355000          0.106570E-03
      0.360000          0.104689E-03
      0.365000          0.103102E-03
      0.370000          0.101766E-03
      0.375000          0.100632E-03
      0.380000          0.996498E-04
      0.385000          0.987721E-04
      0.390000          0.979545E-04
      0.395000          0.971574E-04
      0.400000          0.963482E-04
      0.405000          0.955016E-04
      0.410000          0.946004E-04
      0.415000          0.936354E-04
      0.420000          0.926049E-04
      0.425000          0.915140E-04
      0.430000          0.903735E-04
      0.435000          0.891985E-04
      0.440000          0.880074E-04
      0.445000          0.868198E-04
      0.450000          0.856557E-04
      0.455000          0.845339E-04
      0.460000          0.834712E-04
      0.465000          0.824816E-04
      0.470000          0.815755E-04
      0.475000          0.807598E-04
      0.480000          0.800379E-04
      0.485000          0.794098E-04
      0.490000          0.788728E-04
      0.495000          0.784219E-04
      0.500000          0.780507E-04
