 I_abs(s)[cm^-1]/c[mg/ml]
       0.00000          0.143628E-01
      0.500000E-02      0.143182E-01
      0.100000E-01      0.141855E-01
      0.150000E-01      0.139668E-01
      0.200000E-01      0.136661E-01
      0.250000E-01      0.132887E-01
      0.300000E-01      0.128412E-01
      0.350000E-01      0.123311E-01
      0.400000E-01      0.117669E-01
      0.450000E-01      0.111579E-01
      0.500000E-01      0.105136E-01
      0.550000E-01      0.984374E-02
      0.600000E-01      0.915816E-02
      0.650000E-01      0.846630E-02
      0.700000E-01      0.777718E-02
      0.750000E-01      0.709918E-02
      0.800000E-01      0.643985E-02
      0.850000E-01      0.580587E-02
      0.900000E-01      0.520287E-02
      0.950000E-01      0.463544E-02
      0.100000          0.410711E-02
      0.105000          0.362030E-02
      0.110000          0.317643E-02
      0.115000          0.277596E-02
      0.120000          0.241845E-02
      0.125000          0.210271E-02
      0.130000          0.182690E-02
      0.135000          0.158862E-02
      0.140000          0.138508E-02
      0.145000          0.121318E-02
      0.150000          0.106967E-02
      0.155000          0.951215E-03
      0.160000          0.854505E-03
      0.165000          0.776343E-03
      0.170000          0.713701E-03
      0.175000          0.663776E-03
      0.180000          0.624025E-03
      0.185000          0.592191E-03
      0.190000          0.566313E-03
      0.195000          0.544724E-03
      0.200000          0.526042E-03
      0.205000          0.509158E-03
      0.210000          0.493206E-03
      0.215000          0.477543E-03
      0.220000          0.461721E-03
      0.225000          0.445453E-03
      0.230000          0.428591E-03
      0.235000          0.411096E-03
      0.240000          0.393011E-03
      0.245000          0.374444E-03
      0.250000          0.355546E-03
      0.255000          0.336493E-03
      0.260000          0.317476E-03
      0.265000          0.298686E-03
      0.270000          0.280307E-03
      0.275000          0.262511E-03
      0.280000          0.245452E-03
      0.285000          0.229260E-03
      0.290000          0.214045E-03
      0.295000          0.199889E-03
      0.300000          0.186851E-03
      0.305000          0.174967E-03
      0.310000          0.164247E-03
      0.315000          0.154680E-03
      0.320000          0.146237E-03
      0.325000          0.138869E-03
      0.330000          0.132512E-03
      0.335000          0.127090E-03
      0.340000          0.122517E-03
      0.345000          0.118701E-03
      0.350000          0.115543E-03
      0.355000          0.112947E-03
      0.360000          0.110815E-03
      0.365000          0.109055E-03
      0.370000          0.107582E-03
      0.375000          0.106316E-03
      0.380000          0.105190E-03
      0.385000          0.104145E-03
      0.390000          0.103132E-03
      0.395000          0.102116E-03
      0.400000          0.101069E-03
      0.405000          0.999767E-04
      0.410000          0.988299E-04
      0.415000          0.976287E-04
      0.420000          0.963792E-04
      0.425000          0.950923E-04
      0.430000          0.937820E-04
      0.435000          0.924644E-04
      0.440000          0.911563E-04
      0.445000          0.898741E-04
      0.450000          0.886330E-04
      0.455000          0.874463E-04
      0.460000          0.863250E-04
      0.465000          0.852777E-04
      0.470000          0.843102E-04
      0.475000          0.834259E-04
      0.480000          0.826258E-04
      0.485000          0.819091E-04
      0.490000          0.812731E-04
      0.495000          0.807140E-04
      0.500000          0.802270E-04
