 I_abs(s)[cm^-1]/c[mg/ml]
       0.00000          0.146081E-01
      0.500000E-02      0.145670E-01
      0.100000E-01      0.144444E-01
      0.150000E-01      0.142423E-01
      0.200000E-01      0.139639E-01
      0.250000E-01      0.136137E-01
      0.300000E-01      0.131972E-01
      0.350000E-01      0.127209E-01
      0.400000E-01      0.121919E-01
      0.450000E-01      0.116183E-01
      0.500000E-01      0.110081E-01
      0.550000E-01      0.103698E-01
      0.600000E-01      0.971214E-02
      0.650000E-01      0.904336E-02
      0.700000E-01      0.837157E-02
      0.750000E-01      0.770440E-02
      0.800000E-01      0.704890E-02
      0.850000E-01      0.641142E-02
      0.900000E-01      0.579750E-02
      0.950000E-01      0.521187E-02
      0.100000          0.465838E-02
      0.105000          0.414000E-02
      0.110000          0.365885E-02
      0.115000          0.321620E-02
      0.120000          0.281258E-02
      0.125000          0.244779E-02
      0.130000          0.212102E-02
      0.135000          0.183095E-02
      0.140000          0.157579E-02
      0.145000          0.135342E-02
      0.150000          0.116146E-02
      0.155000          0.997371E-03
      0.160000          0.858503E-03
      0.165000          0.742202E-03
      0.170000          0.645854E-03
      0.175000          0.566932E-03
      0.180000          0.503045E-03
      0.185000          0.451963E-03
      0.190000          0.411639E-03
      0.195000          0.380222E-03
      0.200000          0.356060E-03
      0.205000          0.337702E-03
      0.210000          0.323886E-03
      0.215000          0.313531E-03
      0.220000          0.305725E-03
      0.225000          0.299708E-03
      0.230000          0.294859E-03
      0.235000          0.290677E-03
      0.240000          0.286766E-03
      0.245000          0.282825E-03
      0.250000          0.278630E-03
      0.255000          0.274024E-03
      0.260000          0.268909E-03
      0.265000          0.263232E-03
      0.270000          0.256980E-03
      0.275000          0.250174E-03
      0.280000          0.242859E-03
      0.285000          0.235101E-03
      0.290000          0.226983E-03
      0.295000          0.218595E-03
      0.300000          0.210036E-03
      0.305000          0.201405E-03
      0.310000          0.192802E-03
      0.315000          0.184321E-03
      0.320000          0.176047E-03
      0.325000          0.168057E-03
      0.330000          0.160415E-03
      0.335000          0.153172E-03
      0.340000          0.146365E-03
      0.345000          0.140016E-03
      0.350000          0.134136E-03
      0.355000          0.128719E-03
      0.360000          0.123752E-03
      0.365000          0.119209E-03
      0.370000          0.115058E-03
      0.375000          0.111263E-03
      0.380000          0.107782E-03
      0.385000          0.104574E-03
      0.390000          0.101600E-03
      0.395000          0.988227E-04
      0.400000          0.962101E-04
      0.405000          0.937355E-04
      0.410000          0.913792E-04
      0.415000          0.891279E-04
      0.420000          0.869754E-04
      0.425000          0.849217E-04
      0.430000          0.829725E-04
      0.435000          0.811382E-04
      0.440000          0.794329E-04
      0.445000          0.778726E-04
      0.450000          0.764747E-04
      0.455000          0.752561E-04
      0.460000          0.742322E-04
      0.465000          0.734160E-04
      0.470000          0.728168E-04
      0.475000          0.724401E-04
      0.480000          0.722866E-04
      0.485000          0.723525E-04
      0.490000          0.726290E-04
      0.495000          0.731029E-04
      0.500000          0.737569E-04
