 I_abs(s)[cm^-1]/c[mg/ml]
       0.00000          0.143391E-01
      0.500000E-02      0.142844E-01
      0.100000E-01      0.141215E-01
      0.150000E-01      0.138546E-01
      0.200000E-01      0.134904E-01
      0.250000E-01      0.130380E-01
      0.300000E-01      0.125083E-01
      0.350000E-01      0.119137E-01
      0.400000E-01      0.112677E-01
      0.450000E-01      0.105842E-01
      0.500000E-01      0.987729E-02
      0.550000E-01      0.916032E-02
      0.600000E-01      0.844589E-02
      0.650000E-01      0.774531E-02
      0.700000E-01      0.706834E-02
      0.750000E-01      0.642300E-02
      0.800000E-01      0.581547E-02
      0.850000E-01      0.525009E-02
      0.900000E-01      0.472943E-02
      0.950000E-01      0.425440E-02
      0.100000          0.382452E-02
      0.105000          0.343809E-02
      0.110000          0.309251E-02
      0.115000          0.278450E-02
      0.120000          0.251043E-02
      0.125000          0.226649E-02
      0.130000          0.204895E-02
      0.135000          0.185429E-02
      0.140000          0.167936E-02
      0.145000          0.152141E-02
      0.150000          0.137817E-02
      0.155000          0.124783E-02
      0.160000          0.112898E-02
      0.165000          0.102060E-02
      0.170000          0.921953E-03
      0.175000          0.832518E-03
      0.180000          0.751904E-03
      0.185000          0.679785E-03
      0.190000          0.615834E-03
      0.195000          0.559682E-03
      0.200000          0.510886E-03
      0.205000          0.468914E-03
      0.210000          0.433152E-03
      0.215000          0.402911E-03
      0.220000          0.377455E-03
      0.225000          0.356027E-03
      0.230000          0.337879E-03
      0.235000          0.322302E-03
      0.240000          0.308654E-03
      0.245000          0.296376E-03
      0.250000          0.285009E-03
      0.255000          0.274198E-03
      0.260000          0.263692E-03
      0.265000          0.253338E-03
      0.270000          0.243063E-03
      0.275000          0.232868E-03
      0.280000          0.222801E-03
      0.285000          0.212945E-03
      0.290000          0.203401E-03
      0.295000          0.194270E-03
      0.300000          0.185646E-03
      0.305000          0.177602E-03
      0.310000          0.170192E-03
      0.315000          0.163442E-03
      0.320000          0.157357E-03
      0.325000          0.151918E-03
      0.330000          0.147092E-03
      0.335000          0.142832E-03
      0.340000          0.139086E-03
      0.345000          0.135798E-03
      0.350000          0.132913E-03
      0.355000          0.130382E-03
      0.360000          0.128158E-03
      0.365000          0.126205E-03
      0.370000          0.124486E-03
      0.375000          0.122974E-03
      0.380000          0.121643E-03
      0.385000          0.120468E-03
      0.390000          0.119424E-03
      0.395000          0.118486E-03
      0.400000          0.117629E-03
      0.405000          0.116823E-03
      0.410000          0.116040E-03
      0.415000          0.115250E-03
      0.420000          0.114424E-03
      0.425000          0.113533E-03
      0.430000          0.112556E-03
      0.435000          0.111472E-03
      0.440000          0.110266E-03
      0.445000          0.108932E-03
      0.450000          0.107467E-03
      0.455000          0.105877E-03
      0.460000          0.104171E-03
      0.465000          0.102366E-03
      0.470000          0.100482E-03
      0.475000          0.985418E-04
      0.480000          0.965720E-04
      0.485000          0.945987E-04
      0.490000          0.926481E-04
      0.495000          0.907454E-04
      0.500000          0.889139E-04
