 I_abs(s)[cm^-1]/c[mg/ml]
       0.00000          0.143628E-01
      0.500000E-02      0.143229E-01
      0.100000E-01      0.142039E-01
      0.150000E-01      0.140076E-01
      0.200000E-01      0.137373E-01
      0.250000E-01      0.133971E-01
      0.300000E-01      0.129924E-01
      0.350000E-01      0.125294E-01
      0.400000E-01      0.120151E-01
      0.450000E-01      0.114570E-01
      0.500000E-01      0.108632E-01
      0.550000E-01      0.102418E-01
      0.600000E-01      0.960120E-02
      0.650000E-01      0.894954E-02
      0.700000E-01      0.829474E-02
      0.750000E-01      0.764428E-02
      0.800000E-01      0.700510E-02
      0.850000E-01      0.638347E-02
      0.900000E-01      0.578488E-02
      0.950000E-01      0.521403E-02
      0.100000          0.467475E-02
      0.105000          0.417002E-02
      0.110000          0.370194E-02
      0.115000          0.327178E-02
      0.120000          0.288003E-02
      0.125000          0.252648E-02
      0.130000          0.221026E-02
      0.135000          0.192997E-02
      0.140000          0.168372E-02
      0.145000          0.146930E-02
      0.150000          0.128420E-02
      0.155000          0.112576E-02
      0.160000          0.991194E-03
      0.165000          0.877747E-03
      0.170000          0.782696E-03
      0.175000          0.703442E-03
      0.180000          0.637546E-03
      0.185000          0.582766E-03
      0.190000          0.537084E-03
      0.195000          0.498717E-03
      0.200000          0.466127E-03
      0.205000          0.438009E-03
      0.210000          0.413288E-03
      0.215000          0.391102E-03
      0.220000          0.370778E-03
      0.225000          0.351812E-03
      0.230000          0.333847E-03
      0.235000          0.316641E-03
      0.240000          0.300053E-03
      0.245000          0.284011E-03
      0.250000          0.268499E-03
      0.255000          0.253536E-03
      0.260000          0.239160E-03
      0.265000          0.225420E-03
      0.270000          0.212363E-03
      0.275000          0.200029E-03
      0.280000          0.188448E-03
      0.285000          0.177636E-03
      0.290000          0.167595E-03
      0.295000          0.158317E-03
      0.300000          0.149780E-03
      0.305000          0.141955E-03
      0.310000          0.134810E-03
      0.315000          0.128305E-03
      0.320000          0.122403E-03
      0.325000          0.117068E-03
      0.330000          0.112264E-03
      0.335000          0.107962E-03
      0.340000          0.104136E-03
      0.345000          0.100764E-03
      0.350000          0.978258E-04
      0.355000          0.953075E-04
      0.360000          0.931949E-04
      0.365000          0.914749E-04
      0.370000          0.901339E-04
      0.375000          0.891569E-04
      0.380000          0.885264E-04
      0.385000          0.882219E-04
      0.390000          0.882192E-04
      0.395000          0.884904E-04
      0.400000          0.890039E-04
      0.405000          0.897248E-04
      0.410000          0.906157E-04
      0.415000          0.916370E-04
      0.420000          0.927483E-04
      0.425000          0.939090E-04
      0.430000          0.950796E-04
      0.435000          0.962225E-04
      0.440000          0.973030E-04
      0.445000          0.982903E-04
      0.450000          0.991575E-04
      0.455000          0.998829E-04
      0.460000          0.100450E-03
      0.465000          0.100846E-03
      0.470000          0.101066E-03
      0.475000          0.101107E-03
      0.480000          0.100973E-03
      0.485000          0.100670E-03
      0.490000          0.100208E-03
      0.495000          0.995996E-04
      0.500000          0.988600E-04
