 I_abs(s)[cm^-1]/c[mg/ml]
       0.00000          0.147595E-01
      0.500000E-02      0.147218E-01
      0.100000E-01      0.146091E-01
      0.150000E-01      0.144230E-01
      0.200000E-01      0.141663E-01
      0.250000E-01      0.138424E-01
      0.300000E-01      0.134560E-01
      0.350000E-01      0.130123E-01
      0.400000E-01      0.125173E-01
      0.450000E-01      0.119776E-01
      0.500000E-01      0.114001E-01
      0.550000E-01      0.107921E-01
      0.600000E-01      0.101611E-01
      0.650000E-01      0.951432E-02
      0.700000E-01      0.885914E-02
      0.750000E-01      0.820254E-02
      0.800000E-01      0.755115E-02
      0.850000E-01      0.691111E-02
      0.900000E-01      0.628803E-02
      0.950000E-01      0.568686E-02
      0.100000          0.511188E-02
      0.105000          0.456668E-02
      0.110000          0.405409E-02
      0.115000          0.357626E-02
      0.120000          0.313459E-02
      0.125000          0.272985E-02
      0.130000          0.236217E-02
      0.135000          0.203111E-02
      0.140000          0.173574E-02
      0.145000          0.147466E-02
      0.150000          0.124615E-02
      0.155000          0.104817E-02
      0.160000          0.878471E-03
      0.165000          0.734648E-03
      0.170000          0.614221E-03
      0.175000          0.514683E-03
      0.180000          0.433557E-03
      0.185000          0.368443E-03
      0.190000          0.317053E-03
      0.195000          0.277248E-03
      0.200000          0.247056E-03
      0.205000          0.224689E-03
      0.210000          0.208556E-03
      0.215000          0.197261E-03
      0.220000          0.189607E-03
      0.225000          0.184582E-03
      0.230000          0.181355E-03
      0.235000          0.179257E-03
      0.240000          0.177773E-03
      0.245000          0.176515E-03
      0.250000          0.175213E-03
      0.255000          0.173696E-03
      0.260000          0.171868E-03
      0.265000          0.169702E-03
      0.270000          0.167217E-03
      0.275000          0.164466E-03
      0.280000          0.161526E-03
      0.285000          0.158485E-03
      0.290000          0.155438E-03
      0.295000          0.152471E-03
      0.300000          0.149665E-03
      0.305000          0.147088E-03
      0.310000          0.144789E-03
      0.315000          0.142806E-03
      0.320000          0.141154E-03
      0.325000          0.139835E-03
      0.330000          0.138836E-03
      0.335000          0.138128E-03
      0.340000          0.137674E-03
      0.345000          0.137425E-03
      0.350000          0.137328E-03
      0.355000          0.137327E-03
      0.360000          0.137363E-03
      0.365000          0.137378E-03
      0.370000          0.137320E-03
      0.375000          0.137138E-03
      0.380000          0.136790E-03
      0.385000          0.136242E-03
      0.390000          0.135465E-03
      0.395000          0.134442E-03
      0.400000          0.133163E-03
      0.405000          0.131626E-03
      0.410000          0.129839E-03
      0.415000          0.127814E-03
      0.420000          0.125572E-03
      0.425000          0.123139E-03
      0.430000          0.120546E-03
      0.435000          0.117824E-03
      0.440000          0.115009E-03
      0.445000          0.112138E-03
      0.450000          0.109246E-03
      0.455000          0.106368E-03
      0.460000          0.103538E-03
      0.465000          0.100785E-03
      0.470000          0.981367E-04
      0.475000          0.956170E-04
      0.480000          0.932453E-04
      0.485000          0.910371E-04
      0.490000          0.890039E-04
      0.495000          0.871529E-04
      0.500000          0.854878E-04
