 I_abs(s)[cm^-1]/c[mg/ml]
       0.00000          0.146399E-01
      0.500000E-02      0.146029E-01
      0.100000E-01      0.144922E-01
      0.150000E-01      0.143095E-01
      0.200000E-01      0.140574E-01
      0.250000E-01      0.137395E-01
      0.300000E-01      0.133603E-01
      0.350000E-01      0.129250E-01
      0.400000E-01      0.124396E-01
      0.450000E-01      0.119105E-01
      0.500000E-01      0.113446E-01
      0.550000E-01      0.107490E-01
      0.600000E-01      0.101311E-01
      0.650000E-01      0.949806E-02
      0.700000E-01      0.885698E-02
      0.750000E-01      0.821469E-02
      0.800000E-01      0.757764E-02
      0.850000E-01      0.695177E-02
      0.900000E-01      0.634248E-02
      0.950000E-01      0.575452E-02
      0.100000          0.519197E-02
      0.105000          0.465821E-02
      0.110000          0.415592E-02
      0.115000          0.368706E-02
      0.120000          0.325292E-02
      0.125000          0.285415E-02
      0.130000          0.249082E-02
      0.135000          0.216245E-02
      0.140000          0.186810E-02
      0.145000          0.160642E-02
      0.150000          0.137574E-02
      0.155000          0.117414E-02
      0.160000          0.999509E-03
      0.165000          0.849613E-03
      0.170000          0.722158E-03
      0.175000          0.614847E-03
      0.180000          0.525425E-03
      0.185000          0.451717E-03
      0.190000          0.391665E-03
      0.195000          0.343346E-03
      0.200000          0.304995E-03
      0.205000          0.275014E-03
      0.210000          0.251974E-03
      0.215000          0.234618E-03
      0.220000          0.221851E-03
      0.225000          0.212737E-03
      0.230000          0.206481E-03
      0.235000          0.202424E-03
      0.240000          0.200018E-03
      0.245000          0.198820E-03
      0.250000          0.198476E-03
      0.255000          0.198700E-03
      0.260000          0.199273E-03
      0.265000          0.200020E-03
      0.270000          0.200807E-03
      0.275000          0.201529E-03
      0.280000          0.202105E-03
      0.285000          0.202472E-03
      0.290000          0.202578E-03
      0.295000          0.202382E-03
      0.300000          0.201850E-03
      0.305000          0.200957E-03
      0.310000          0.199680E-03
      0.315000          0.198004E-03
      0.320000          0.195919E-03
      0.325000          0.193421E-03
      0.330000          0.190512E-03
      0.335000          0.187200E-03
      0.340000          0.183500E-03
      0.345000          0.179435E-03
      0.350000          0.175031E-03
      0.355000          0.170325E-03
      0.360000          0.165355E-03
      0.365000          0.160165E-03
      0.370000          0.154804E-03
      0.375000          0.149324E-03
      0.380000          0.143776E-03
      0.385000          0.138215E-03
      0.390000          0.132694E-03
      0.395000          0.127264E-03
      0.400000          0.121976E-03
      0.405000          0.116873E-03
      0.410000          0.112000E-03
      0.415000          0.107391E-03
      0.420000          0.103080E-03
      0.425000          0.990906E-04
      0.430000          0.954440E-04
      0.435000          0.921537E-04
      0.440000          0.892277E-04
      0.445000          0.866680E-04
      0.450000          0.844713E-04
      0.455000          0.826292E-04
      0.460000          0.811287E-04
      0.465000          0.799525E-04
      0.470000          0.790801E-04
      0.475000          0.784879E-04
      0.480000          0.781500E-04
      0.485000          0.780388E-04
      0.490000          0.781256E-04
      0.495000          0.783810E-04
      0.500000          0.787756E-04
