 I_abs(s)[cm^-1]/c[mg/ml]
       0.00000          0.142762E-01
      0.500000E-02      0.142385E-01
      0.100000E-01      0.141258E-01
      0.150000E-01      0.139400E-01
      0.200000E-01      0.136838E-01
      0.250000E-01      0.133610E-01
      0.300000E-01      0.129765E-01
      0.350000E-01      0.125358E-01
      0.400000E-01      0.120452E-01
      0.450000E-01      0.115117E-01
      0.500000E-01      0.109425E-01
      0.550000E-01      0.103451E-01
      0.600000E-01      0.972715E-02
      0.650000E-01      0.909629E-02
      0.700000E-01      0.845989E-02
      0.750000E-01      0.782499E-02
      0.800000E-01      0.719819E-02
      0.850000E-01      0.658554E-02
      0.900000E-01      0.599243E-02
      0.950000E-01      0.542357E-02
      0.100000          0.488289E-02
      0.105000          0.437359E-02
      0.110000          0.389805E-02
      0.115000          0.345793E-02
      0.120000          0.305414E-02
      0.125000          0.268694E-02
      0.130000          0.235594E-02
      0.135000          0.206024E-02
      0.140000          0.179843E-02
      0.145000          0.156873E-02
      0.150000          0.136907E-02
      0.155000          0.119711E-02
      0.160000          0.105039E-02
      0.165000          0.926377E-03
      0.170000          0.822500E-03
      0.175000          0.736250E-03
      0.180000          0.665211E-03
      0.185000          0.607099E-03
      0.190000          0.559799E-03
      0.195000          0.521381E-03
      0.200000          0.490121E-03
      0.205000          0.464499E-03
      0.210000          0.443207E-03
      0.215000          0.425136E-03
      0.220000          0.409370E-03
      0.225000          0.395168E-03
      0.230000          0.381951E-03
      0.235000          0.369280E-03
      0.240000          0.356840E-03
      0.245000          0.344416E-03
      0.250000          0.331883E-03
      0.255000          0.319179E-03
      0.260000          0.306299E-03
      0.265000          0.293274E-03
      0.270000          0.280162E-03
      0.275000          0.267038E-03
      0.280000          0.253989E-03
      0.285000          0.241100E-03
      0.290000          0.228457E-03
      0.295000          0.216141E-03
      0.300000          0.204224E-03
      0.305000          0.192769E-03
      0.310000          0.181830E-03
      0.315000          0.171452E-03
      0.320000          0.161670E-03
      0.325000          0.152509E-03
      0.330000          0.143985E-03
      0.335000          0.136110E-03
      0.340000          0.128883E-03
      0.345000          0.122300E-03
      0.350000          0.116350E-03
      0.355000          0.111014E-03
      0.360000          0.106270E-03
      0.365000          0.102090E-03
      0.370000          0.984404E-04
      0.375000          0.952858E-04
      0.380000          0.925861E-04
      0.385000          0.902990E-04
      0.390000          0.883803E-04
      0.395000          0.867847E-04
      0.400000          0.854668E-04
      0.405000          0.843819E-04
      0.410000          0.834868E-04
      0.415000          0.827407E-04
      0.420000          0.821058E-04
      0.425000          0.815481E-04
      0.430000          0.810376E-04
      0.435000          0.805491E-04
      0.440000          0.800620E-04
      0.445000          0.795607E-04
      0.450000          0.790341E-04
      0.455000          0.784758E-04
      0.460000          0.778832E-04
      0.465000          0.772576E-04
      0.470000          0.766031E-04
      0.475000          0.759262E-04
      0.480000          0.752351E-04
      0.485000          0.745391E-04
      0.490000          0.738479E-04
      0.495000          0.731709E-04
      0.500000          0.725172E-04
