 I_abs(s)[cm^-1]/c[mg/ml]
       0.00000          0.145050E-01
      0.500000E-02      0.144677E-01
      0.100000E-01      0.143566E-01
      0.150000E-01      0.141732E-01
      0.200000E-01      0.139203E-01
      0.250000E-01      0.136017E-01
      0.300000E-01      0.132222E-01
      0.350000E-01      0.127873E-01
      0.400000E-01      0.123030E-01
      0.450000E-01      0.117763E-01
      0.500000E-01      0.112141E-01
      0.550000E-01      0.106237E-01
      0.600000E-01      0.100127E-01
      0.650000E-01      0.938818E-02
      0.700000E-01      0.875736E-02
      0.750000E-01      0.812694E-02
      0.800000E-01      0.750318E-02
      0.850000E-01      0.689181E-02
      0.900000E-01      0.629792E-02
      0.950000E-01      0.572593E-02
      0.100000          0.517955E-02
      0.105000          0.466176E-02
      0.110000          0.417484E-02
      0.115000          0.372040E-02
      0.120000          0.329937E-02
      0.125000          0.291213E-02
      0.130000          0.255847E-02
      0.135000          0.223778E-02
      0.140000          0.194899E-02
      0.145000          0.169076E-02
      0.150000          0.146145E-02
      0.155000          0.125926E-02
      0.160000          0.108226E-02
      0.165000          0.928436E-03
      0.170000          0.795770E-03
      0.175000          0.682248E-03
      0.180000          0.585915E-03
      0.185000          0.504890E-03
      0.190000          0.437394E-03
      0.195000          0.381756E-03
      0.200000          0.336427E-03
      0.205000          0.299980E-03
      0.210000          0.271111E-03
      0.215000          0.248639E-03
      0.220000          0.231499E-03
      0.225000          0.218738E-03
      0.230000          0.209509E-03
      0.235000          0.203064E-03
      0.240000          0.198750E-03
      0.245000          0.196000E-03
      0.250000          0.194328E-03
      0.255000          0.193325E-03
      0.260000          0.192653E-03
      0.265000          0.192041E-03
      0.270000          0.191275E-03
      0.275000          0.190201E-03
      0.280000          0.188711E-03
      0.285000          0.186745E-03
      0.290000          0.184277E-03
      0.295000          0.181318E-03
      0.300000          0.177902E-03
      0.305000          0.174084E-03
      0.310000          0.169934E-03
      0.315000          0.165531E-03
      0.320000          0.160954E-03
      0.325000          0.156285E-03
      0.330000          0.151599E-03
      0.335000          0.146963E-03
      0.340000          0.142434E-03
      0.345000          0.138057E-03
      0.350000          0.133865E-03
      0.355000          0.129880E-03
      0.360000          0.126111E-03
      0.365000          0.122560E-03
      0.370000          0.119220E-03
      0.375000          0.116078E-03
      0.380000          0.113116E-03
      0.385000          0.110318E-03
      0.390000          0.107665E-03
      0.395000          0.105141E-03
      0.400000          0.102733E-03
      0.405000          0.100433E-03
      0.410000          0.982359E-04
      0.415000          0.961414E-04
      0.420000          0.941536E-04
      0.425000          0.922799E-04
      0.430000          0.905302E-04
      0.435000          0.889161E-04
      0.440000          0.874494E-04
      0.445000          0.861413E-04
      0.450000          0.850015E-04
      0.455000          0.840369E-04
      0.460000          0.832511E-04
      0.465000          0.826441E-04
      0.470000          0.822119E-04
      0.475000          0.819462E-04
      0.480000          0.818353E-04
      0.485000          0.818637E-04
      0.490000          0.820134E-04
      0.495000          0.822640E-04
      0.500000          0.825936E-04
