 I_abs(s)[cm^-1]/c[mg/ml]
       0.00000          0.146877E-01
      0.500000E-02      0.146489E-01
      0.100000E-01      0.145329E-01
      0.150000E-01      0.143419E-01
      0.200000E-01      0.140790E-01
      0.250000E-01      0.137487E-01
      0.300000E-01      0.133563E-01
      0.350000E-01      0.129081E-01
      0.400000E-01      0.124110E-01
      0.450000E-01      0.118725E-01
      0.500000E-01      0.113004E-01
      0.550000E-01      0.107024E-01
      0.600000E-01      0.100864E-01
      0.650000E-01      0.945975E-02
      0.700000E-01      0.882966E-02
      0.750000E-01      0.820265E-02
      0.800000E-01      0.758466E-02
      0.850000E-01      0.698093E-02
      0.900000E-01      0.639598E-02
      0.950000E-01      0.583356E-02
      0.100000          0.529669E-02
      0.105000          0.478770E-02
      0.110000          0.430825E-02
      0.115000          0.385940E-02
      0.120000          0.344167E-02
      0.125000          0.305515E-02
      0.130000          0.269950E-02
      0.135000          0.237410E-02
      0.140000          0.207805E-02
      0.145000          0.181024E-02
      0.150000          0.156943E-02
      0.155000          0.135423E-02
      0.160000          0.116321E-02
      0.165000          0.994847E-03
      0.170000          0.847613E-03
      0.175000          0.719944E-03
      0.180000          0.610274E-03
      0.185000          0.517044E-03
      0.190000          0.438710E-03
      0.195000          0.373753E-03
      0.200000          0.320694E-03
      0.205000          0.278096E-03
      0.210000          0.244586E-03
      0.215000          0.218857E-03
      0.220000          0.199684E-03
      0.225000          0.185931E-03
      0.230000          0.176560E-03
      0.235000          0.170638E-03
      0.240000          0.167339E-03
      0.245000          0.165947E-03
      0.250000          0.165851E-03
      0.255000          0.166547E-03
      0.260000          0.167623E-03
      0.265000          0.168760E-03
      0.270000          0.169717E-03
      0.275000          0.170321E-03
      0.280000          0.170458E-03
      0.285000          0.170060E-03
      0.290000          0.169100E-03
      0.295000          0.167577E-03
      0.300000          0.165512E-03
      0.305000          0.162942E-03
      0.310000          0.159912E-03
      0.315000          0.156475E-03
      0.320000          0.152687E-03
      0.325000          0.148603E-03
      0.330000          0.144283E-03
      0.335000          0.139782E-03
      0.340000          0.135158E-03
      0.345000          0.130466E-03
      0.350000          0.125758E-03
      0.355000          0.121086E-03
      0.360000          0.116496E-03
      0.365000          0.112034E-03
      0.370000          0.107736E-03
      0.375000          0.103637E-03
      0.380000          0.997618E-04
      0.385000          0.961306E-04
      0.390000          0.927555E-04
      0.395000          0.896418E-04
      0.400000          0.867885E-04
      0.405000          0.841887E-04
      0.410000          0.818311E-04
      0.415000          0.797008E-04
      0.420000          0.777811E-04
      0.425000          0.760544E-04
      0.430000          0.745035E-04
      0.435000          0.731129E-04
      0.440000          0.718694E-04
      0.445000          0.707624E-04
      0.450000          0.697843E-04
      0.455000          0.689305E-04
      0.460000          0.681988E-04
      0.465000          0.675889E-04
      0.470000          0.671017E-04
      0.475000          0.667387E-04
      0.480000          0.665009E-04
      0.485000          0.663887E-04
      0.490000          0.664004E-04
      0.495000          0.665330E-04
      0.500000          0.667808E-04
