 I_abs(s)[cm^-1]/c[mg/ml]
       0.00000          0.145843E-01
      0.500000E-02      0.145448E-01
      0.100000E-01      0.144268E-01
      0.150000E-01      0.142320E-01
      0.200000E-01      0.139635E-01
      0.250000E-01      0.136249E-01
      0.300000E-01      0.132213E-01
      0.350000E-01      0.127585E-01
      0.400000E-01      0.122428E-01
      0.450000E-01      0.116815E-01
      0.500000E-01      0.110820E-01
      0.550000E-01      0.104523E-01
      0.600000E-01      0.980030E-02
      0.650000E-01      0.913406E-02
      0.700000E-01      0.846139E-02
      0.750000E-01      0.778985E-02
      0.800000E-01      0.712653E-02
      0.850000E-01      0.647800E-02
      0.900000E-01      0.585019E-02
      0.950000E-01      0.524831E-02
      0.100000          0.467681E-02
      0.105000          0.413932E-02
      0.110000          0.363866E-02
      0.115000          0.317680E-02
      0.120000          0.275496E-02
      0.125000          0.237355E-02
      0.130000          0.203233E-02
      0.135000          0.173038E-02
      0.140000          0.146623E-02
      0.145000          0.123796E-02
      0.150000          0.104323E-02
      0.155000          0.879402E-03
      0.160000          0.743644E-03
      0.165000          0.632987E-03
      0.170000          0.544416E-03
      0.175000          0.474945E-03
      0.180000          0.421679E-03
      0.185000          0.381868E-03
      0.190000          0.352955E-03
      0.195000          0.332610E-03
      0.200000          0.318753E-03
      0.205000          0.309569E-03
      0.210000          0.303516E-03
      0.215000          0.299318E-03
      0.220000          0.295956E-03
      0.225000          0.292653E-03
      0.230000          0.288852E-03
      0.235000          0.284191E-03
      0.240000          0.278474E-03
      0.245000          0.271645E-03
      0.250000          0.263760E-03
      0.255000          0.254956E-03
      0.260000          0.245429E-03
      0.265000          0.235410E-03
      0.270000          0.225141E-03
      0.275000          0.214864E-03
      0.280000          0.204802E-03
      0.285000          0.195148E-03
      0.290000          0.186064E-03
      0.295000          0.177670E-03
      0.300000          0.170046E-03
      0.305000          0.163232E-03
      0.310000          0.157233E-03
      0.315000          0.152018E-03
      0.320000          0.147533E-03
      0.325000          0.143702E-03
      0.330000          0.140432E-03
      0.335000          0.137625E-03
      0.340000          0.135180E-03
      0.345000          0.132998E-03
      0.350000          0.130988E-03
      0.355000          0.129071E-03
      0.360000          0.127180E-03
      0.365000          0.125264E-03
      0.370000          0.123287E-03
      0.375000          0.121231E-03
      0.380000          0.119090E-03
      0.385000          0.116872E-03
      0.390000          0.114596E-03
      0.395000          0.112291E-03
      0.400000          0.109990E-03
      0.405000          0.107730E-03
      0.410000          0.105550E-03
      0.415000          0.103487E-03
      0.420000          0.101573E-03
      0.425000          0.998369E-04
      0.430000          0.982999E-04
      0.435000          0.969758E-04
      0.440000          0.958707E-04
      0.445000          0.949822E-04
      0.450000          0.943004E-04
      0.455000          0.938082E-04
      0.460000          0.934821E-04
      0.465000          0.932937E-04
      0.470000          0.932107E-04
      0.475000          0.931984E-04
      0.480000          0.932213E-04
      0.485000          0.932441E-04
      0.490000          0.932336E-04
      0.495000          0.931595E-04
      0.500000          0.929957E-04
