 I_abs(s)[cm^-1]/c[mg/ml]
       0.00000          0.142684E-01
      0.500000E-02      0.142277E-01
      0.100000E-01      0.141065E-01
      0.150000E-01      0.139067E-01
      0.200000E-01      0.136318E-01
      0.250000E-01      0.132864E-01
      0.300000E-01      0.128763E-01
      0.350000E-01      0.124082E-01
      0.400000E-01      0.118894E-01
      0.450000E-01      0.113281E-01
      0.500000E-01      0.107327E-01
      0.550000E-01      0.101117E-01
      0.600000E-01      0.947384E-02
      0.650000E-01      0.882736E-02
      0.700000E-01      0.818026E-02
      0.750000E-01      0.753997E-02
      0.800000E-01      0.691322E-02
      0.850000E-01      0.630601E-02
      0.900000E-01      0.572344E-02
      0.950000E-01      0.516975E-02
      0.100000          0.464828E-02
      0.105000          0.416143E-02
      0.110000          0.371078E-02
      0.115000          0.329709E-02
      0.120000          0.292039E-02
      0.125000          0.258005E-02
      0.130000          0.227491E-02
      0.135000          0.200335E-02
      0.140000          0.176339E-02
      0.145000          0.155282E-02
      0.150000          0.136922E-02
      0.155000          0.121015E-02
      0.160000          0.107310E-02
      0.165000          0.955662E-03
      0.170000          0.855500E-03
      0.175000          0.770427E-03
      0.180000          0.698420E-03
      0.185000          0.637635E-03
      0.190000          0.586416E-03
      0.195000          0.543293E-03
      0.200000          0.506975E-03
      0.205000          0.476334E-03
      0.210000          0.450399E-03
      0.215000          0.428331E-03
      0.220000          0.409410E-03
      0.225000          0.393021E-03
      0.230000          0.378632E-03
      0.235000          0.365789E-03
      0.240000          0.354101E-03
      0.245000          0.343230E-03
      0.250000          0.332890E-03
      0.255000          0.322834E-03
      0.260000          0.312859E-03
      0.265000          0.302798E-03
      0.270000          0.292523E-03
      0.275000          0.281941E-03
      0.280000          0.270994E-03
      0.285000          0.259660E-03
      0.290000          0.247946E-03
      0.295000          0.235893E-03
      0.300000          0.223565E-03
      0.305000          0.211052E-03
      0.310000          0.198460E-03
      0.315000          0.185913E-03
      0.320000          0.173538E-03
      0.325000          0.161470E-03
      0.330000          0.149840E-03
      0.335000          0.138771E-03
      0.340000          0.128377E-03
      0.345000          0.118756E-03
      0.350000          0.109989E-03
      0.355000          0.102135E-03
      0.360000          0.952339E-04
      0.365000          0.893023E-04
      0.370000          0.843365E-04
      0.375000          0.803121E-04
      0.380000          0.771869E-04
      0.385000          0.749026E-04
      0.390000          0.733875E-04
      0.395000          0.725601E-04
      0.400000          0.723313E-04
      0.405000          0.726082E-04
      0.410000          0.732964E-04
      0.415000          0.743029E-04
      0.420000          0.755387E-04
      0.425000          0.769203E-04
      0.430000          0.783713E-04
      0.435000          0.798241E-04
      0.440000          0.812200E-04
      0.445000          0.825100E-04
      0.450000          0.836546E-04
      0.455000          0.846238E-04
      0.460000          0.853963E-04
      0.465000          0.859591E-04
      0.470000          0.863066E-04
      0.475000          0.864399E-04
      0.480000          0.863654E-04
      0.485000          0.860946E-04
      0.490000          0.856427E-04
      0.495000          0.850280E-04
      0.500000          0.842709E-04
