 I_abs(s)[cm^-1]/c[mg/ml]
       0.00000          0.141195E-01
      0.500000E-02      0.140634E-01
      0.100000E-01      0.138965E-01
      0.150000E-01      0.136235E-01
      0.200000E-01      0.132517E-01
      0.250000E-01      0.127910E-01
      0.300000E-01      0.122533E-01
      0.350000E-01      0.116520E-01
      0.400000E-01      0.110015E-01
      0.450000E-01      0.103164E-01
      0.500000E-01      0.961122E-02
      0.550000E-01      0.889968E-02
      0.600000E-01      0.819434E-02
      0.650000E-01      0.750622E-02
      0.700000E-01      0.684458E-02
      0.750000E-01      0.621676E-02
      0.800000E-01      0.562812E-02
      0.850000E-01      0.508218E-02
      0.900000E-01      0.458070E-02
      0.950000E-01      0.412391E-02
      0.100000          0.371076E-02
      0.105000          0.333922E-02
      0.110000          0.300654E-02
      0.115000          0.270949E-02
      0.120000          0.244464E-02
      0.125000          0.220855E-02
      0.130000          0.199790E-02
      0.135000          0.180962E-02
      0.140000          0.164098E-02
      0.145000          0.148958E-02
      0.150000          0.135337E-02
      0.155000          0.123064E-02
      0.160000          0.111994E-02
      0.165000          0.102007E-02
      0.170000          0.930007E-03
      0.175000          0.848873E-03
      0.180000          0.775878E-03
      0.185000          0.710300E-03
      0.190000          0.651458E-03
      0.195000          0.598702E-03
      0.200000          0.551408E-03
      0.205000          0.508978E-03
      0.210000          0.470844E-03
      0.215000          0.436479E-03
      0.220000          0.405400E-03
      0.225000          0.377176E-03
      0.230000          0.351433E-03
      0.235000          0.327853E-03
      0.240000          0.306174E-03
      0.245000          0.286188E-03
      0.250000          0.267733E-03
      0.255000          0.250687E-03
      0.260000          0.234960E-03
      0.265000          0.220488E-03
      0.270000          0.207221E-03
      0.275000          0.195121E-03
      0.280000          0.184151E-03
      0.285000          0.174274E-03
      0.290000          0.165445E-03
      0.295000          0.157615E-03
      0.300000          0.150722E-03
      0.305000          0.144696E-03
      0.310000          0.139459E-03
      0.315000          0.134926E-03
      0.320000          0.131007E-03
      0.325000          0.127614E-03
      0.330000          0.124659E-03
      0.335000          0.122058E-03
      0.340000          0.119737E-03
      0.345000          0.117632E-03
      0.350000          0.115692E-03
      0.355000          0.113878E-03
      0.360000          0.112166E-03
      0.365000          0.110544E-03
      0.370000          0.109010E-03
      0.375000          0.107574E-03
      0.380000          0.106250E-03
      0.385000          0.105058E-03
      0.390000          0.104018E-03
      0.395000          0.103147E-03
      0.400000          0.102462E-03
      0.405000          0.101970E-03
      0.410000          0.101673E-03
      0.415000          0.101565E-03
      0.420000          0.101632E-03
      0.425000          0.101853E-03
      0.430000          0.102202E-03
      0.435000          0.102649E-03
      0.440000          0.103157E-03
      0.445000          0.103693E-03
      0.450000          0.104222E-03
      0.455000          0.104711E-03
      0.460000          0.105130E-03
      0.465000          0.105453E-03
      0.470000          0.105662E-03
      0.475000          0.105738E-03
      0.480000          0.105673E-03
      0.485000          0.105460E-03
      0.490000          0.105098E-03
      0.495000          0.104590E-03
      0.500000          0.103940E-03
