 I_abs(s)[cm^-1]/c[mg/ml]
       0.00000          0.146081E-01
      0.500000E-02      0.145705E-01
      0.100000E-01      0.144581E-01
      0.150000E-01      0.142726E-01
      0.200000E-01      0.140167E-01
      0.250000E-01      0.136941E-01
      0.300000E-01      0.133093E-01
      0.350000E-01      0.128678E-01
      0.400000E-01      0.123756E-01
      0.450000E-01      0.118392E-01
      0.500000E-01      0.112659E-01
      0.550000E-01      0.106628E-01
      0.600000E-01      0.100373E-01
      0.650000E-01      0.939701E-02
      0.700000E-01      0.874902E-02
      0.750000E-01      0.810031E-02
      0.800000E-01      0.745746E-02
      0.850000E-01      0.682650E-02
      0.900000E-01      0.621291E-02
      0.950000E-01      0.562153E-02
      0.100000          0.505648E-02
      0.105000          0.452118E-02
      0.110000          0.401833E-02
      0.115000          0.354991E-02
      0.120000          0.311718E-02
      0.125000          0.272080E-02
      0.130000          0.236077E-02
      0.135000          0.203659E-02
      0.140000          0.174727E-02
      0.145000          0.149138E-02
      0.150000          0.126720E-02
      0.155000          0.107272E-02
      0.160000          0.905740E-03
      0.165000          0.763934E-03
      0.170000          0.644913E-03
      0.175000          0.546273E-03
      0.180000          0.465651E-03
      0.185000          0.400762E-03
      0.190000          0.349434E-03
      0.195000          0.309632E-03
      0.200000          0.279481E-03
      0.205000          0.257277E-03
      0.210000          0.241490E-03
      0.215000          0.230773E-03
      0.220000          0.223950E-03
      0.225000          0.220017E-03
      0.230000          0.218128E-03
      0.235000          0.217582E-03
      0.240000          0.217815E-03
      0.245000          0.218381E-03
      0.250000          0.218941E-03
      0.255000          0.219246E-03
      0.260000          0.219124E-03
      0.265000          0.218469E-03
      0.270000          0.217228E-03
      0.275000          0.215388E-03
      0.280000          0.212969E-03
      0.285000          0.210013E-03
      0.290000          0.206581E-03
      0.295000          0.202742E-03
      0.300000          0.198571E-03
      0.305000          0.194141E-03
      0.310000          0.189527E-03
      0.315000          0.184795E-03
      0.320000          0.180006E-03
      0.325000          0.175215E-03
      0.330000          0.170465E-03
      0.335000          0.165794E-03
      0.340000          0.161230E-03
      0.345000          0.156793E-03
      0.350000          0.152498E-03
      0.355000          0.148353E-03
      0.360000          0.144360E-03
      0.365000          0.140520E-03
      0.370000          0.136827E-03
      0.375000          0.133275E-03
      0.380000          0.129858E-03
      0.385000          0.126568E-03
      0.390000          0.123397E-03
      0.395000          0.120339E-03
      0.400000          0.117388E-03
      0.405000          0.114540E-03
      0.410000          0.111791E-03
      0.415000          0.109139E-03
      0.420000          0.106583E-03
      0.425000          0.104124E-03
      0.430000          0.101762E-03
      0.435000          0.994974E-04
      0.440000          0.973323E-04
      0.445000          0.952672E-04
      0.450000          0.933026E-04
      0.455000          0.914382E-04
      0.460000          0.896731E-04
      0.465000          0.880056E-04
      0.470000          0.864330E-04
      0.475000          0.849518E-04
      0.480000          0.835578E-04
      0.485000          0.822463E-04
      0.490000          0.810119E-04
      0.495000          0.798490E-04
      0.500000          0.787521E-04
