 I_abs(s)[cm^-1]/c[mg/ml]
       0.00000          0.144022E-01
      0.500000E-02      0.143540E-01
      0.100000E-01      0.142104E-01
      0.150000E-01      0.139746E-01
      0.200000E-01      0.136517E-01
      0.250000E-01      0.132486E-01
      0.300000E-01      0.127736E-01
      0.350000E-01      0.122364E-01
      0.400000E-01      0.116477E-01
      0.450000E-01      0.110184E-01
      0.500000E-01      0.103599E-01
      0.550000E-01      0.968335E-02
      0.600000E-01      0.899952E-02
      0.650000E-01      0.831836E-02
      0.700000E-01      0.764886E-02
      0.750000E-01      0.699890E-02
      0.800000E-01      0.637507E-02
      0.850000E-01      0.578261E-02
      0.900000E-01      0.522548E-02
      0.950000E-01      0.470630E-02
      0.100000          0.422654E-02
      0.105000          0.378656E-02
      0.110000          0.338582E-02
      0.115000          0.302302E-02
      0.120000          0.269627E-02
      0.125000          0.240326E-02
      0.130000          0.214144E-02
      0.135000          0.190811E-02
      0.140000          0.170057E-02
      0.145000          0.151623E-02
      0.150000          0.135263E-02
      0.155000          0.120753E-02
      0.160000          0.107893E-02
      0.165000          0.965025E-03
      0.170000          0.864270E-03
      0.175000          0.775305E-03
      0.180000          0.696946E-03
      0.185000          0.628156E-03
      0.190000          0.568009E-03
      0.195000          0.515666E-03
      0.200000          0.470348E-03
      0.205000          0.431323E-03
      0.210000          0.397889E-03
      0.215000          0.369370E-03
      0.220000          0.345116E-03
      0.225000          0.324504E-03
      0.230000          0.306944E-03
      0.235000          0.291887E-03
      0.240000          0.278832E-03
      0.245000          0.267334E-03
      0.250000          0.257005E-03
      0.255000          0.247522E-03
      0.260000          0.238625E-03
      0.265000          0.230114E-03
      0.270000          0.221850E-03
      0.275000          0.213741E-03
      0.280000          0.205741E-03
      0.285000          0.197841E-03
      0.290000          0.190058E-03
      0.295000          0.182429E-03
      0.300000          0.175001E-03
      0.305000          0.167828E-03
      0.310000          0.160963E-03
      0.315000          0.154453E-03
      0.320000          0.148338E-03
      0.325000          0.142647E-03
      0.330000          0.137401E-03
      0.335000          0.132608E-03
      0.340000          0.128265E-03
      0.345000          0.124361E-03
      0.350000          0.120876E-03
      0.355000          0.117785E-03
      0.360000          0.115055E-03
      0.365000          0.112649E-03
      0.370000          0.110529E-03
      0.375000          0.108653E-03
      0.380000          0.106980E-03
      0.385000          0.105466E-03
      0.390000          0.104073E-03
      0.395000          0.102761E-03
      0.400000          0.101496E-03
      0.405000          0.100246E-03
      0.410000          0.989852E-04
      0.415000          0.976929E-04
      0.420000          0.963546E-04
      0.425000          0.949625E-04
      0.430000          0.935154E-04
      0.435000          0.920186E-04
      0.440000          0.904835E-04
      0.445000          0.889270E-04
      0.450000          0.873703E-04
      0.455000          0.858380E-04
      0.460000          0.843564E-04
      0.465000          0.829522E-04
      0.470000          0.816510E-04
      0.475000          0.804758E-04
      0.480000          0.794459E-04
      0.485000          0.785755E-04
      0.490000          0.778732E-04
      0.495000          0.773410E-04
      0.500000          0.769749E-04
