 I_abs(s)[cm^-1]/c[mg/ml]
       0.00000          0.147276E-01
      0.500000E-02      0.146899E-01
      0.100000E-01      0.145775E-01
      0.150000E-01      0.143921E-01
      0.200000E-01      0.141366E-01
      0.250000E-01      0.138150E-01
      0.300000E-01      0.134322E-01
      0.350000E-01      0.129939E-01
      0.400000E-01      0.125065E-01
      0.450000E-01      0.119770E-01
      0.500000E-01      0.114125E-01
      0.550000E-01      0.108207E-01
      0.600000E-01      0.102088E-01
      0.650000E-01      0.958417E-02
      0.700000E-01      0.895390E-02
      0.750000E-01      0.832457E-02
      0.800000E-01      0.770227E-02
      0.850000E-01      0.709248E-02
      0.900000E-01      0.650004E-02
      0.950000E-01      0.592906E-02
      0.100000          0.538298E-02
      0.105000          0.486450E-02
      0.110000          0.437564E-02
      0.115000          0.391778E-02
      0.120000          0.349171E-02
      0.125000          0.309768E-02
      0.130000          0.273550E-02
      0.135000          0.240454E-02
      0.140000          0.210390E-02
      0.145000          0.183236E-02
      0.150000          0.158855E-02
      0.155000          0.137093E-02
      0.160000          0.117788E-02
      0.165000          0.100771E-02
      0.170000          0.858724E-03
      0.175000          0.729244E-03
      0.180000          0.617604E-03
      0.185000          0.522192E-03
      0.190000          0.441448E-03
      0.195000          0.373877E-03
      0.200000          0.318048E-03
      0.205000          0.272606E-03
      0.210000          0.236262E-03
      0.215000          0.207806E-03
      0.220000          0.186103E-03
      0.225000          0.170094E-03
      0.230000          0.158803E-03
      0.235000          0.151333E-03
      0.240000          0.146873E-03
      0.245000          0.144699E-03
      0.250000          0.144171E-03
      0.255000          0.144738E-03
      0.260000          0.145934E-03
      0.265000          0.147377E-03
      0.270000          0.148762E-03
      0.275000          0.149861E-03
      0.280000          0.150512E-03
      0.285000          0.150615E-03
      0.290000          0.150120E-03
      0.295000          0.149021E-03
      0.300000          0.147345E-03
      0.305000          0.145147E-03
      0.310000          0.142496E-03
      0.315000          0.139474E-03
      0.320000          0.136164E-03
      0.325000          0.132648E-03
      0.330000          0.129001E-03
      0.335000          0.125291E-03
      0.340000          0.121574E-03
      0.345000          0.117894E-03
      0.350000          0.114285E-03
      0.355000          0.110773E-03
      0.360000          0.107372E-03
      0.365000          0.104091E-03
      0.370000          0.100936E-03
      0.375000          0.979075E-04
      0.380000          0.950069E-04
      0.385000          0.922350E-04
      0.390000          0.895945E-04
      0.395000          0.870898E-04
      0.400000          0.847274E-04
      0.405000          0.825161E-04
      0.410000          0.804660E-04
      0.415000          0.785884E-04
      0.420000          0.768945E-04
      0.425000          0.753947E-04
      0.430000          0.740981E-04
      0.435000          0.730113E-04
      0.440000          0.721378E-04
      0.445000          0.714781E-04
      0.450000          0.710291E-04
      0.455000          0.707840E-04
      0.460000          0.707328E-04
      0.465000          0.708628E-04
      0.470000          0.711585E-04
      0.475000          0.716027E-04
      0.480000          0.721771E-04
      0.485000          0.728626E-04
      0.490000          0.736403E-04
      0.495000          0.744915E-04
      0.500000          0.753987E-04
