 I_abs(s)[cm^-1]/c[mg/ml]
       0.00000          0.141899E-01
      0.500000E-02      0.141336E-01
      0.100000E-01      0.139661E-01
      0.150000E-01      0.136920E-01
      0.200000E-01      0.133186E-01
      0.250000E-01      0.128557E-01
      0.300000E-01      0.123153E-01
      0.350000E-01      0.117106E-01
      0.400000E-01      0.110562E-01
      0.450000E-01      0.103667E-01
      0.500000E-01      0.965699E-02
      0.550000E-01      0.894089E-02
      0.600000E-01      0.823128E-02
      0.650000E-01      0.753947E-02
      0.700000E-01      0.687497E-02
      0.750000E-01      0.624536E-02
      0.800000E-01      0.565614E-02
      0.850000E-01      0.511085E-02
      0.900000E-01      0.461116E-02
      0.950000E-01      0.415709E-02
      0.100000          0.374729E-02
      0.105000          0.337928E-02
      0.110000          0.304984E-02
      0.115000          0.275526E-02
      0.120000          0.249164E-02
      0.125000          0.225512E-02
      0.130000          0.204213E-02
      0.135000          0.184944E-02
      0.140000          0.167434E-02
      0.145000          0.151464E-02
      0.150000          0.136862E-02
      0.155000          0.123505E-02
      0.160000          0.111307E-02
      0.165000          0.100211E-02
      0.170000          0.901796E-03
      0.175000          0.811831E-03
      0.180000          0.731936E-03
      0.185000          0.661770E-03
      0.190000          0.600887E-03
      0.195000          0.548704E-03
      0.200000          0.504507E-03
      0.205000          0.467455E-03
      0.210000          0.436620E-03
      0.215000          0.411016E-03
      0.220000          0.389651E-03
      0.225000          0.371568E-03
      0.230000          0.355888E-03
      0.235000          0.341840E-03
      0.240000          0.328787E-03
      0.245000          0.316237E-03
      0.250000          0.303848E-03
      0.255000          0.291416E-03
      0.260000          0.278863E-03
      0.265000          0.266212E-03
      0.270000          0.253560E-03
      0.275000          0.241057E-03
      0.280000          0.228873E-03
      0.285000          0.217181E-03
      0.290000          0.206134E-03
      0.295000          0.195857E-03
      0.300000          0.186432E-03
      0.305000          0.177902E-03
      0.310000          0.170268E-03
      0.315000          0.163496E-03
      0.320000          0.157520E-03
      0.325000          0.152259E-03
      0.330000          0.147618E-03
      0.335000          0.143499E-03
      0.340000          0.139808E-03
      0.345000          0.136460E-03
      0.350000          0.133382E-03
      0.355000          0.130513E-03
      0.360000          0.127809E-03
      0.365000          0.125236E-03
      0.370000          0.122769E-03
      0.375000          0.120392E-03
      0.380000          0.118094E-03
      0.385000          0.115867E-03
      0.390000          0.113704E-03
      0.395000          0.111598E-03
      0.400000          0.109542E-03
      0.405000          0.107528E-03
      0.410000          0.105551E-03
      0.415000          0.103605E-03
      0.420000          0.101686E-03
      0.425000          0.997929E-04
      0.430000          0.979288E-04
      0.435000          0.960999E-04
      0.440000          0.943155E-04
      0.445000          0.925882E-04
      0.450000          0.909328E-04
      0.455000          0.893654E-04
      0.460000          0.879023E-04
      0.465000          0.865592E-04
      0.470000          0.853500E-04
      0.475000          0.842859E-04
      0.480000          0.833751E-04
      0.485000          0.826220E-04
      0.490000          0.820272E-04
      0.495000          0.815876E-04
      0.500000          0.812963E-04
