 I_abs(s)[cm^-1]/c[mg/ml]
       0.00000          0.144259E-01
      0.500000E-02      0.143682E-01
      0.100000E-01      0.141969E-01
      0.150000E-01      0.139165E-01
      0.200000E-01      0.135348E-01
      0.250000E-01      0.130618E-01
      0.300000E-01      0.125098E-01
      0.350000E-01      0.118927E-01
      0.400000E-01      0.112253E-01
      0.450000E-01      0.105229E-01
      0.500000E-01      0.980051E-02
      0.550000E-01      0.907252E-02
      0.600000E-01      0.835201E-02
      0.650000E-01      0.765047E-02
      0.700000E-01      0.697753E-02
      0.750000E-01      0.634073E-02
      0.800000E-01      0.574551E-02
      0.850000E-01      0.519526E-02
      0.900000E-01      0.469142E-02
      0.950000E-01      0.423379E-02
      0.100000          0.382073E-02
      0.105000          0.344956E-02
      0.110000          0.311680E-02
      0.115000          0.281860E-02
      0.120000          0.255094E-02
      0.125000          0.230994E-02
      0.130000          0.209205E-02
      0.135000          0.189416E-02
      0.140000          0.171371E-02
      0.145000          0.154871E-02
      0.150000          0.139767E-02
      0.155000          0.125959E-02
      0.160000          0.113384E-02
      0.165000          0.102000E-02
      0.170000          0.917826E-03
      0.175000          0.827086E-03
      0.180000          0.747481E-03
      0.185000          0.678575E-03
      0.190000          0.619758E-03
      0.195000          0.570224E-03
      0.200000          0.528987E-03
      0.205000          0.494911E-03
      0.210000          0.466764E-03
      0.215000          0.443280E-03
      0.220000          0.423220E-03
      0.225000          0.405442E-03
      0.230000          0.388948E-03
      0.235000          0.372935E-03
      0.240000          0.356816E-03
      0.245000          0.340231E-03
      0.250000          0.323042E-03
      0.255000          0.305308E-03
      0.260000          0.287253E-03
      0.265000          0.269220E-03
      0.270000          0.251624E-03
      0.275000          0.234905E-03
      0.280000          0.219477E-03
      0.285000          0.205694E-03
      0.290000          0.193818E-03
      0.295000          0.183997E-03
      0.300000          0.176262E-03
      0.305000          0.170521E-03
      0.310000          0.166579E-03
      0.315000          0.164150E-03
      0.320000          0.162888E-03
      0.325000          0.162412E-03
      0.330000          0.162335E-03
      0.335000          0.162291E-03
      0.340000          0.161956E-03
      0.345000          0.161069E-03
      0.350000          0.159442E-03
      0.355000          0.156967E-03
      0.360000          0.153613E-03
      0.365000          0.149423E-03
      0.370000          0.144498E-03
      0.375000          0.138990E-03
      0.380000          0.133081E-03
      0.385000          0.126969E-03
      0.390000          0.120851E-03
      0.395000          0.114912E-03
      0.400000          0.109309E-03
      0.405000          0.104169E-03
      0.410000          0.995790E-04
      0.415000          0.955889E-04
      0.420000          0.922105E-04
      0.425000          0.894227E-04
      0.430000          0.871778E-04
      0.435000          0.854080E-04
      0.440000          0.840336E-04
      0.445000          0.829703E-04
      0.450000          0.821358E-04
      0.455000          0.814557E-04
      0.460000          0.808673E-04
      0.465000          0.803224E-04
      0.470000          0.797880E-04
      0.475000          0.792461E-04
      0.480000          0.786922E-04
      0.485000          0.781324E-04
      0.490000          0.775805E-04
      0.495000          0.770551E-04
      0.500000          0.765758E-04
