 I_abs(s)[cm^-1]/c[mg/ml]
       0.00000          0.142526E-01
      0.500000E-02      0.142121E-01
      0.100000E-01      0.140911E-01
      0.150000E-01      0.138916E-01
      0.200000E-01      0.136169E-01
      0.250000E-01      0.132714E-01
      0.300000E-01      0.128606E-01
      0.350000E-01      0.123910E-01
      0.400000E-01      0.118697E-01
      0.450000E-01      0.113047E-01
      0.500000E-01      0.107041E-01
      0.550000E-01      0.100764E-01
      0.600000E-01      0.943011E-02
      0.650000E-01      0.877367E-02
      0.700000E-01      0.811513E-02
      0.750000E-01      0.746211E-02
      0.800000E-01      0.682162E-02
      0.850000E-01      0.619996E-02
      0.900000E-01      0.560265E-02
      0.950000E-01      0.503432E-02
      0.100000          0.449875E-02
      0.105000          0.399877E-02
      0.110000          0.353636E-02
      0.115000          0.311262E-02
      0.120000          0.272787E-02
      0.125000          0.238171E-02
      0.130000          0.207310E-02
      0.135000          0.180046E-02
      0.140000          0.156175E-02
      0.145000          0.135462E-02
      0.150000          0.117646E-02
      0.155000          0.102450E-02
      0.160000          0.895927E-03
      0.165000          0.787947E-03
      0.170000          0.697845E-03
      0.175000          0.623048E-03
      0.180000          0.561171E-03
      0.185000          0.510044E-03
      0.190000          0.467734E-03
      0.195000          0.432556E-03
      0.200000          0.403069E-03
      0.205000          0.378071E-03
      0.210000          0.356581E-03
      0.215000          0.337823E-03
      0.220000          0.321197E-03
      0.225000          0.306260E-03
      0.230000          0.292693E-03
      0.235000          0.280279E-03
      0.240000          0.268881E-03
      0.245000          0.258414E-03
      0.250000          0.248830E-03
      0.255000          0.240102E-03
      0.260000          0.232211E-03
      0.265000          0.225133E-03
      0.270000          0.218839E-03
      0.275000          0.213284E-03
      0.280000          0.208411E-03
      0.285000          0.204151E-03
      0.290000          0.200422E-03
      0.295000          0.197133E-03
      0.300000          0.194189E-03
      0.305000          0.191495E-03
      0.310000          0.188957E-03
      0.315000          0.186488E-03
      0.320000          0.184010E-03
      0.325000          0.181455E-03
      0.330000          0.178768E-03
      0.335000          0.175909E-03
      0.340000          0.172849E-03
      0.345000          0.169572E-03
      0.350000          0.166078E-03
      0.355000          0.162373E-03
      0.360000          0.158474E-03
      0.365000          0.154406E-03
      0.370000          0.150200E-03
      0.375000          0.145890E-03
      0.380000          0.141512E-03
      0.385000          0.137104E-03
      0.390000          0.132704E-03
      0.395000          0.128346E-03
      0.400000          0.124066E-03
      0.405000          0.119892E-03
      0.410000          0.115854E-03
      0.415000          0.111976E-03
      0.420000          0.108277E-03
      0.425000          0.104774E-03
      0.430000          0.101482E-03
      0.435000          0.984090E-04
      0.440000          0.955621E-04
      0.445000          0.929442E-04
      0.450000          0.905554E-04
      0.455000          0.883931E-04
      0.460000          0.864518E-04
      0.465000          0.847237E-04
      0.470000          0.831985E-04
      0.475000          0.818640E-04
      0.480000          0.807063E-04
      0.485000          0.797099E-04
      0.490000          0.788580E-04
      0.495000          0.781331E-04
      0.500000          0.775171E-04
