 I_abs(s)[cm^-1]/c[mg/ml]
       0.00000          0.143628E-01
      0.500000E-02      0.143264E-01
      0.100000E-01      0.142180E-01
      0.150000E-01      0.140389E-01
      0.200000E-01      0.137917E-01
      0.250000E-01      0.134799E-01
      0.300000E-01      0.131077E-01
      0.350000E-01      0.126802E-01
      0.400000E-01      0.122031E-01
      0.450000E-01      0.116826E-01
      0.500000E-01      0.111256E-01
      0.550000E-01      0.105389E-01
      0.600000E-01      0.992957E-02
      0.650000E-01      0.930486E-02
      0.700000E-01      0.867176E-02
      0.750000E-01      0.803705E-02
      0.800000E-01      0.740718E-02
      0.850000E-01      0.678816E-02
      0.900000E-01      0.618547E-02
      0.950000E-01      0.560399E-02
      0.100000          0.504796E-02
      0.105000          0.452094E-02
      0.110000          0.402577E-02
      0.115000          0.356460E-02
      0.120000          0.313890E-02
      0.125000          0.274947E-02
      0.130000          0.239648E-02
      0.135000          0.207954E-02
      0.140000          0.179775E-02
      0.145000          0.154976E-02
      0.150000          0.133383E-02
      0.155000          0.114795E-02
      0.160000          0.989845E-03
      0.165000          0.857087E-03
      0.170000          0.747155E-03
      0.175000          0.657491E-03
      0.180000          0.585556E-03
      0.185000          0.528883E-03
      0.190000          0.485115E-03
      0.195000          0.452042E-03
      0.200000          0.427622E-03
      0.205000          0.410008E-03
      0.210000          0.397552E-03
      0.215000          0.388816E-03
      0.220000          0.382566E-03
      0.225000          0.377772E-03
      0.230000          0.373595E-03
      0.235000          0.369375E-03
      0.240000          0.364615E-03
      0.245000          0.358961E-03
      0.250000          0.352191E-03
      0.255000          0.344189E-03
      0.260000          0.334928E-03
      0.265000          0.324456E-03
      0.270000          0.312877E-03
      0.275000          0.300336E-03
      0.280000          0.287006E-03
      0.285000          0.273078E-03
      0.290000          0.258748E-03
      0.295000          0.244211E-03
      0.300000          0.229655E-03
      0.305000          0.215255E-03
      0.310000          0.201169E-03
      0.315000          0.187538E-03
      0.320000          0.174482E-03
      0.325000          0.162100E-03
      0.330000          0.150474E-03
      0.335000          0.139663E-03
      0.340000          0.129710E-03
      0.345000          0.120641E-03
      0.350000          0.112467E-03
      0.355000          0.105186E-03
      0.360000          0.987812E-04
      0.365000          0.932293E-04
      0.370000          0.884965E-04
      0.375000          0.845423E-04
      0.380000          0.813202E-04
      0.385000          0.787795E-04
      0.390000          0.768660E-04
      0.395000          0.755234E-04
      0.400000          0.746940E-04
      0.405000          0.743201E-04
      0.410000          0.743439E-04
      0.415000          0.747090E-04
      0.420000          0.753607E-04
      0.425000          0.762465E-04
      0.430000          0.773166E-04
      0.435000          0.785244E-04
      0.440000          0.798264E-04
      0.445000          0.811830E-04
      0.450000          0.825580E-04
      0.455000          0.839192E-04
      0.460000          0.852383E-04
      0.465000          0.864904E-04
      0.470000          0.876546E-04
      0.475000          0.887134E-04
      0.480000          0.896527E-04
      0.485000          0.904614E-04
      0.490000          0.911315E-04
      0.495000          0.916577E-04
      0.500000          0.920370E-04
