 I_abs(s)[cm^-1]/c[mg/ml]
       0.00000          0.142762E-01
      0.500000E-02      0.142247E-01
      0.100000E-01      0.140714E-01
      0.150000E-01      0.138197E-01
      0.200000E-01      0.134755E-01
      0.250000E-01      0.130463E-01
      0.300000E-01      0.125417E-01
      0.350000E-01      0.119723E-01
      0.400000E-01      0.113499E-01
      0.450000E-01      0.106869E-01
      0.500000E-01      0.999572E-02
      0.550000E-01      0.928880E-02
      0.600000E-01      0.857783E-02
      0.650000E-01      0.787370E-02
      0.700000E-01      0.718615E-02
      0.750000E-01      0.652356E-02
      0.800000E-01      0.589288E-02
      0.850000E-01      0.529950E-02
      0.900000E-01      0.474730E-02
      0.950000E-01      0.423869E-02
      0.100000          0.377472E-02
      0.105000          0.335526E-02
      0.110000          0.297913E-02
      0.115000          0.264433E-02
      0.120000          0.234823E-02
      0.125000          0.208777E-02
      0.130000          0.185964E-02
      0.135000          0.166043E-02
      0.140000          0.148678E-02
      0.145000          0.133549E-02
      0.150000          0.120357E-02
      0.155000          0.108831E-02
      0.160000          0.987342E-03
      0.165000          0.898568E-03
      0.170000          0.820209E-03
      0.175000          0.750757E-03
      0.180000          0.688949E-03
      0.185000          0.633727E-03
      0.190000          0.584208E-03
      0.195000          0.539647E-03
      0.200000          0.499414E-03
      0.205000          0.462966E-03
      0.210000          0.429834E-03
      0.215000          0.399611E-03
      0.220000          0.371944E-03
      0.225000          0.346532E-03
      0.230000          0.323122E-03
      0.235000          0.301507E-03
      0.240000          0.281527E-03
      0.245000          0.263065E-03
      0.250000          0.246042E-03
      0.255000          0.230408E-03
      0.260000          0.216139E-03
      0.265000          0.203227E-03
      0.270000          0.191667E-03
      0.275000          0.181452E-03
      0.280000          0.172562E-03
      0.285000          0.164962E-03
      0.290000          0.158591E-03
      0.295000          0.153366E-03
      0.300000          0.149179E-03
      0.305000          0.145901E-03
      0.310000          0.143387E-03
      0.315000          0.141479E-03
      0.320000          0.140019E-03
      0.325000          0.138848E-03
      0.330000          0.137820E-03
      0.335000          0.136805E-03
      0.340000          0.135695E-03
      0.345000          0.134406E-03
      0.350000          0.132881E-03
      0.355000          0.131087E-03
      0.360000          0.129022E-03
      0.365000          0.126700E-03
      0.370000          0.124159E-03
      0.375000          0.121448E-03
      0.380000          0.118629E-03
      0.385000          0.115765E-03
      0.390000          0.112925E-03
      0.395000          0.110172E-03
      0.400000          0.107564E-03
      0.405000          0.105152E-03
      0.410000          0.102974E-03
      0.415000          0.101062E-03
      0.420000          0.994332E-04
      0.425000          0.980969E-04
      0.430000          0.970511E-04
      0.435000          0.962852E-04
      0.440000          0.957805E-04
      0.445000          0.955114E-04
      0.450000          0.954466E-04
      0.455000          0.955504E-04
      0.460000          0.957835E-04
      0.465000          0.961043E-04
      0.470000          0.964699E-04
      0.475000          0.968376E-04
      0.480000          0.971654E-04
      0.485000          0.974140E-04
      0.490000          0.975474E-04
      0.495000          0.975344E-04
      0.500000          0.973495E-04
