 I_abs(s)[cm^-1]/c[mg/ml]
       0.00000          0.142841E-01
      0.500000E-02      0.142436E-01
      0.100000E-01      0.141228E-01
      0.150000E-01      0.139238E-01
      0.200000E-01      0.136498E-01
      0.250000E-01      0.133053E-01
      0.300000E-01      0.128960E-01
      0.350000E-01      0.124283E-01
      0.400000E-01      0.119095E-01
      0.450000E-01      0.113475E-01
      0.500000E-01      0.107507E-01
      0.550000E-01      0.101273E-01
      0.600000E-01      0.948608E-02
      0.650000E-01      0.883520E-02
      0.700000E-01      0.818267E-02
      0.750000E-01      0.753597E-02
      0.800000E-01      0.690195E-02
      0.850000E-01      0.628673E-02
      0.900000E-01      0.569563E-02
      0.950000E-01      0.513310E-02
      0.100000          0.460269E-02
      0.105000          0.410708E-02
      0.110000          0.364809E-02
      0.115000          0.322672E-02
      0.120000          0.284322E-02
      0.125000          0.249717E-02
      0.130000          0.218757E-02
      0.135000          0.191289E-02
      0.140000          0.167126E-02
      0.145000          0.146046E-02
      0.150000          0.127810E-02
      0.155000          0.112163E-02
      0.160000          0.988465E-03
      0.165000          0.876049E-03
      0.170000          0.781885E-03
      0.175000          0.703598E-03
      0.180000          0.638963E-03
      0.185000          0.585929E-03
      0.190000          0.542635E-03
      0.195000          0.507411E-03
      0.200000          0.478782E-03
      0.205000          0.455455E-03
      0.210000          0.436314E-03
      0.215000          0.420404E-03
      0.220000          0.406914E-03
      0.225000          0.395164E-03
      0.230000          0.384591E-03
      0.235000          0.374730E-03
      0.240000          0.365206E-03
      0.245000          0.355719E-03
      0.250000          0.346037E-03
      0.255000          0.335987E-03
      0.260000          0.325447E-03
      0.265000          0.314342E-03
      0.270000          0.302641E-03
      0.275000          0.290347E-03
      0.280000          0.277499E-03
      0.285000          0.264165E-03
      0.290000          0.250437E-03
      0.295000          0.236431E-03
      0.300000          0.222277E-03
      0.305000          0.208118E-03
      0.310000          0.194101E-03
      0.315000          0.180378E-03
      0.320000          0.167095E-03
      0.325000          0.154389E-03
      0.330000          0.142384E-03
      0.335000          0.131191E-03
      0.340000          0.120898E-03
      0.345000          0.111572E-03
      0.350000          0.103258E-03
      0.355000          0.959784E-04
      0.360000          0.897310E-04
      0.365000          0.844940E-04
      0.370000          0.802253E-04
      0.375000          0.768666E-04
      0.380000          0.743453E-04
      0.385000          0.725786E-04
      0.390000          0.714764E-04
      0.395000          0.709446E-04
      0.400000          0.708886E-04
      0.405000          0.712160E-04
      0.410000          0.718386E-04
      0.415000          0.726754E-04
      0.420000          0.736534E-04
      0.425000          0.747089E-04
      0.430000          0.757881E-04
      0.435000          0.768475E-04
      0.440000          0.778532E-04
      0.445000          0.787804E-04
      0.450000          0.796129E-04
      0.455000          0.803417E-04
      0.460000          0.809639E-04
      0.465000          0.814817E-04
      0.470000          0.819007E-04
      0.475000          0.822293E-04
      0.480000          0.824773E-04
      0.485000          0.826552E-04
      0.490000          0.827733E-04
      0.495000          0.828412E-04
      0.500000          0.828674E-04
