 I_abs(s)[cm^-1]/c[mg/ml]
       0.00000          0.141899E-01
      0.500000E-02      0.141410E-01
      0.100000E-01      0.139955E-01
      0.150000E-01      0.137567E-01
      0.200000E-01      0.134299E-01
      0.250000E-01      0.130224E-01
      0.300000E-01      0.125431E-01
      0.350000E-01      0.120021E-01
      0.400000E-01      0.114104E-01
      0.450000E-01      0.107798E-01
      0.500000E-01      0.101219E-01
      0.550000E-01      0.944845E-02
      0.600000E-01      0.877037E-02
      0.650000E-01      0.809789E-02
      0.700000E-01      0.744013E-02
      0.750000E-01      0.680492E-02
      0.800000E-01      0.619871E-02
      0.850000E-01      0.562648E-02
      0.900000E-01      0.509177E-02
      0.950000E-01      0.459674E-02
      0.100000          0.414227E-02
      0.105000          0.372809E-02
      0.110000          0.335302E-02
      0.115000          0.301508E-02
      0.120000          0.271174E-02
      0.125000          0.244012E-02
      0.130000          0.219711E-02
      0.135000          0.197961E-02
      0.140000          0.178459E-02
      0.145000          0.160923E-02
      0.150000          0.145101E-02
      0.155000          0.130771E-02
      0.160000          0.117748E-02
      0.165000          0.105877E-02
      0.170000          0.950381E-03
      0.175000          0.851380E-03
      0.180000          0.761064E-03
      0.185000          0.678909E-03
      0.190000          0.604524E-03
      0.195000          0.537593E-03
      0.200000          0.477840E-03
      0.205000          0.424989E-03
      0.210000          0.378744E-03
      0.215000          0.338764E-03
      0.220000          0.304658E-03
      0.225000          0.275987E-03
      0.230000          0.252262E-03
      0.235000          0.232962E-03
      0.240000          0.217542E-03
      0.245000          0.205447E-03
      0.250000          0.196133E-03
      0.255000          0.189077E-03
      0.260000          0.183791E-03
      0.265000          0.179831E-03
      0.270000          0.176807E-03
      0.275000          0.174388E-03
      0.280000          0.172301E-03
      0.285000          0.170332E-03
      0.290000          0.168324E-03
      0.295000          0.166170E-03
      0.300000          0.163809E-03
      0.305000          0.161218E-03
      0.310000          0.158405E-03
      0.315000          0.155401E-03
      0.320000          0.152253E-03
      0.325000          0.149017E-03
      0.330000          0.145751E-03
      0.335000          0.142513E-03
      0.340000          0.139355E-03
      0.345000          0.136317E-03
      0.350000          0.133433E-03
      0.355000          0.130722E-03
      0.360000          0.128193E-03
      0.365000          0.125844E-03
      0.370000          0.123665E-03
      0.375000          0.121638E-03
      0.380000          0.119742E-03
      0.385000          0.117952E-03
      0.390000          0.116243E-03
      0.395000          0.114592E-03
      0.400000          0.112982E-03
      0.405000          0.111398E-03
      0.410000          0.109831E-03
      0.415000          0.108278E-03
      0.420000          0.106742E-03
      0.425000          0.105230E-03
      0.430000          0.103751E-03
      0.435000          0.102319E-03
      0.440000          0.100946E-03
      0.445000          0.996452E-04
      0.450000          0.984259E-04
      0.455000          0.972953E-04
      0.460000          0.962565E-04
      0.465000          0.953080E-04
      0.470000          0.944439E-04
      0.475000          0.936542E-04
      0.480000          0.929248E-04
      0.485000          0.922391E-04
      0.490000          0.915785E-04
      0.495000          0.909236E-04
      0.500000          0.902553E-04
