 I_abs(s)[cm^-1]/c[mg/ml]
       0.00000          0.144812E-01
      0.500000E-02      0.144416E-01
      0.100000E-01      0.143232E-01
      0.150000E-01      0.141282E-01
      0.200000E-01      0.138598E-01
      0.250000E-01      0.135226E-01
      0.300000E-01      0.131221E-01
      0.350000E-01      0.126648E-01
      0.400000E-01      0.121579E-01
      0.450000E-01      0.116089E-01
      0.500000E-01      0.110261E-01
      0.550000E-01      0.104175E-01
      0.600000E-01      0.979128E-02
      0.650000E-01      0.915522E-02
      0.700000E-01      0.851680E-02
      0.750000E-01      0.788292E-02
      0.800000E-01      0.725986E-02
      0.850000E-01      0.665315E-02
      0.900000E-01      0.606754E-02
      0.950000E-01      0.550699E-02
      0.100000          0.497465E-02
      0.105000          0.447291E-02
      0.110000          0.400341E-02
      0.115000          0.356712E-02
      0.120000          0.316441E-02
      0.125000          0.279513E-02
      0.130000          0.245867E-02
      0.135000          0.215406E-02
      0.140000          0.188003E-02
      0.145000          0.163508E-02
      0.150000          0.141757E-02
      0.155000          0.122572E-02
      0.160000          0.105770E-02
      0.165000          0.911661E-03
      0.170000          0.785731E-03
      0.175000          0.678079E-03
      0.180000          0.586911E-03
      0.185000          0.510487E-03
      0.190000          0.447133E-03
      0.195000          0.395249E-03
      0.200000          0.353315E-03
      0.205000          0.319900E-03
      0.210000          0.293669E-03
      0.215000          0.273385E-03
      0.220000          0.257921E-03
      0.225000          0.246260E-03
      0.230000          0.237501E-03
      0.235000          0.230862E-03
      0.240000          0.225680E-03
      0.245000          0.221406E-03
      0.250000          0.217606E-03
      0.255000          0.213954E-03
      0.260000          0.210217E-03
      0.265000          0.206251E-03
      0.270000          0.201985E-03
      0.275000          0.197408E-03
      0.280000          0.192556E-03
      0.285000          0.187496E-03
      0.290000          0.182316E-03
      0.295000          0.177111E-03
      0.300000          0.171972E-03
      0.305000          0.166981E-03
      0.310000          0.162203E-03
      0.315000          0.157683E-03
      0.320000          0.153444E-03
      0.325000          0.149489E-03
      0.330000          0.145802E-03
      0.335000          0.142352E-03
      0.340000          0.139096E-03
      0.345000          0.135988E-03
      0.350000          0.132977E-03
      0.355000          0.130017E-03
      0.360000          0.127068E-03
      0.365000          0.124099E-03
      0.370000          0.121093E-03
      0.375000          0.118043E-03
      0.380000          0.114955E-03
      0.385000          0.111847E-03
      0.390000          0.108746E-03
      0.395000          0.105686E-03
      0.400000          0.102705E-03
      0.405000          0.998451E-04
      0.410000          0.971456E-04
      0.415000          0.946437E-04
      0.420000          0.923710E-04
      0.425000          0.903529E-04
      0.430000          0.886069E-04
      0.435000          0.871426E-04
      0.440000          0.859617E-04
      0.445000          0.850585E-04
      0.450000          0.844205E-04
      0.455000          0.840299E-04
      0.460000          0.838645E-04
      0.465000          0.838993E-04
      0.470000          0.841071E-04
      0.475000          0.844605E-04
      0.480000          0.849320E-04
      0.485000          0.854950E-04
      0.490000          0.861243E-04
      0.495000          0.867962E-04
      0.500000          0.874888E-04
