 I_abs(s)[cm^-1]/c[mg/ml]
       0.00000          0.144733E-01
      0.500000E-02      0.144344E-01
      0.100000E-01      0.143183E-01
      0.150000E-01      0.141267E-01
      0.200000E-01      0.138629E-01
      0.250000E-01      0.135308E-01
      0.300000E-01      0.131357E-01
      0.350000E-01      0.126836E-01
      0.400000E-01      0.121811E-01
      0.450000E-01      0.116357E-01
      0.500000E-01      0.110548E-01
      0.550000E-01      0.104466E-01
      0.600000E-01      0.981880E-02
      0.650000E-01      0.917931E-02
      0.700000E-01      0.853565E-02
      0.750000E-01      0.789490E-02
      0.800000E-01      0.726363E-02
      0.850000E-01      0.664775E-02
      0.900000E-01      0.605248E-02
      0.950000E-01      0.548225E-02
      0.100000          0.494069E-02
      0.105000          0.443066E-02
      0.110000          0.395421E-02
      0.115000          0.351267E-02
      0.120000          0.310664E-02
      0.125000          0.273612E-02
      0.130000          0.240054E-02
      0.135000          0.209885E-02
      0.140000          0.182961E-02
      0.145000          0.159108E-02
      0.150000          0.138126E-02
      0.155000          0.119801E-02
      0.160000          0.103911E-02
      0.165000          0.902311E-03
      0.170000          0.785374E-03
      0.175000          0.686138E-03
      0.180000          0.602540E-03
      0.185000          0.532640E-03
      0.190000          0.474640E-03
      0.195000          0.426889E-03
      0.200000          0.387891E-03
      0.205000          0.356298E-03
      0.210000          0.330911E-03
      0.215000          0.310666E-03
      0.220000          0.294625E-03
      0.225000          0.281970E-03
      0.230000          0.271987E-03
      0.235000          0.264058E-03
      0.240000          0.257652E-03
      0.245000          0.252316E-03
      0.250000          0.247666E-03
      0.255000          0.243385E-03
      0.260000          0.239212E-03
      0.265000          0.234942E-03
      0.270000          0.230417E-03
      0.275000          0.225527E-03
      0.280000          0.220201E-03
      0.285000          0.214409E-03
      0.290000          0.208152E-03
      0.295000          0.201458E-03
      0.300000          0.194384E-03
      0.305000          0.187002E-03
      0.310000          0.179400E-03
      0.315000          0.171674E-03
      0.320000          0.163925E-03
      0.325000          0.156255E-03
      0.330000          0.148760E-03
      0.335000          0.141526E-03
      0.340000          0.134632E-03
      0.345000          0.128140E-03
      0.350000          0.122101E-03
      0.355000          0.116546E-03
      0.360000          0.111493E-03
      0.365000          0.106947E-03
      0.370000          0.102895E-03
      0.375000          0.993168E-04
      0.380000          0.961790E-04
      0.385000          0.934423E-04
      0.390000          0.910620E-04
      0.395000          0.889905E-04
      0.400000          0.871797E-04
      0.405000          0.855828E-04
      0.410000          0.841557E-04
      0.415000          0.828591E-04
      0.420000          0.816586E-04
      0.425000          0.805258E-04
      0.430000          0.794384E-04
      0.435000          0.783802E-04
      0.440000          0.773407E-04
      0.445000          0.763145E-04
      0.450000          0.753008E-04
      0.455000          0.743021E-04
      0.460000          0.733239E-04
      0.465000          0.723734E-04
      0.470000          0.714589E-04
      0.475000          0.705888E-04
      0.480000          0.697711E-04
      0.485000          0.690129E-04
      0.490000          0.683200E-04
      0.495000          0.676966E-04
      0.500000          0.671450E-04
