 I_abs(s)[cm^-1]/c[mg/ml]
       0.00000          0.144417E-01
      0.500000E-02      0.144053E-01
      0.100000E-01      0.142965E-01
      0.150000E-01      0.141171E-01
      0.200000E-01      0.138694E-01
      0.250000E-01      0.135571E-01
      0.300000E-01      0.131845E-01
      0.350000E-01      0.127568E-01
      0.400000E-01      0.122797E-01
      0.450000E-01      0.117598E-01
      0.500000E-01      0.112036E-01
      0.550000E-01      0.106183E-01
      0.600000E-01      0.100110E-01
      0.650000E-01      0.938887E-02
      0.700000E-01      0.875884E-02
      0.750000E-01      0.812767E-02
      0.800000E-01      0.750171E-02
      0.850000E-01      0.688684E-02
      0.900000E-01      0.628838E-02
      0.950000E-01      0.571103E-02
      0.100000          0.515881E-02
      0.105000          0.463507E-02
      0.110000          0.414244E-02
      0.115000          0.368284E-02
      0.120000          0.325754E-02
      0.125000          0.286715E-02
      0.130000          0.251169E-02
      0.135000          0.219066E-02
      0.140000          0.190308E-02
      0.145000          0.164756E-02
      0.150000          0.142239E-02
      0.155000          0.122562E-02
      0.160000          0.105508E-02
      0.165000          0.908527E-03
      0.170000          0.783624E-03
      0.175000          0.678057E-03
      0.180000          0.589554E-03
      0.185000          0.515939E-03
      0.190000          0.455158E-03
      0.195000          0.405307E-03
      0.200000          0.364652E-03
      0.205000          0.331635E-03
      0.210000          0.304881E-03
      0.215000          0.283196E-03
      0.220000          0.265560E-03
      0.225000          0.251117E-03
      0.230000          0.239160E-03
      0.235000          0.229118E-03
      0.240000          0.220538E-03
      0.245000          0.213069E-03
      0.250000          0.206444E-03
      0.255000          0.200468E-03
      0.260000          0.194998E-03
      0.265000          0.189934E-03
      0.270000          0.185205E-03
      0.275000          0.180764E-03
      0.280000          0.176575E-03
      0.285000          0.172613E-03
      0.290000          0.168852E-03
      0.295000          0.165272E-03
      0.300000          0.161850E-03
      0.305000          0.158561E-03
      0.310000          0.155381E-03
      0.315000          0.152285E-03
      0.320000          0.149247E-03
      0.325000          0.146245E-03
      0.330000          0.143259E-03
      0.335000          0.140271E-03
      0.340000          0.137270E-03
      0.345000          0.134247E-03
      0.350000          0.131202E-03
      0.355000          0.128135E-03
      0.360000          0.125055E-03
      0.365000          0.121972E-03
      0.370000          0.118901E-03
      0.375000          0.115859E-03
      0.380000          0.112864E-03
      0.385000          0.109935E-03
      0.390000          0.107092E-03
      0.395000          0.104352E-03
      0.400000          0.101731E-03
      0.405000          0.992436E-04
      0.410000          0.969012E-04
      0.415000          0.947121E-04
      0.420000          0.926820E-04
      0.425000          0.908133E-04
      0.430000          0.891058E-04
      0.435000          0.875566E-04
      0.440000          0.861602E-04
      0.445000          0.849095E-04
      0.450000          0.837955E-04
      0.455000          0.828080E-04
      0.460000          0.819357E-04
      0.465000          0.811671E-04
      0.470000          0.804903E-04
      0.475000          0.798932E-04
      0.480000          0.793643E-04
      0.485000          0.788923E-04
      0.490000          0.784666E-04
      0.495000          0.780771E-04
      0.500000          0.777148E-04
