 I_abs(s)[cm^-1]/c[mg/ml]
       0.00000          0.138551E-01
      0.500000E-02      0.137872E-01
      0.100000E-01      0.135857E-01
      0.150000E-01      0.132565E-01
      0.200000E-01      0.128093E-01
      0.250000E-01      0.122570E-01
      0.300000E-01      0.116152E-01
      0.350000E-01      0.109015E-01
      0.400000E-01      0.101349E-01
      0.450000E-01      0.933472E-02
      0.500000E-01      0.852029E-02
      0.550000E-01      0.770980E-02
      0.600000E-01      0.691989E-02
      0.650000E-01      0.616509E-02
      0.700000E-01      0.545741E-02
      0.750000E-01      0.480607E-02
      0.800000E-01      0.421745E-02
      0.850000E-01      0.369506E-02
      0.900000E-01      0.323974E-02
      0.950000E-01      0.284990E-02
      0.100000          0.252193E-02
      0.105000          0.225058E-02
      0.110000          0.202943E-02
      0.115000          0.185133E-02
      0.120000          0.170886E-02
      0.125000          0.159471E-02
      0.130000          0.150201E-02
      0.135000          0.142463E-02
      0.140000          0.135729E-02
      0.145000          0.129576E-02
      0.150000          0.123682E-02
      0.155000          0.117828E-02
      0.160000          0.111883E-02
      0.165000          0.105801E-02
      0.170000          0.995950E-03
      0.175000          0.933268E-03
      0.180000          0.870879E-03
      0.185000          0.809845E-03
      0.190000          0.751231E-03
      0.195000          0.696001E-03
      0.200000          0.644934E-03
      0.205000          0.598573E-03
      0.210000          0.557205E-03
      0.215000          0.520861E-03
      0.220000          0.489342E-03
      0.225000          0.462262E-03
      0.230000          0.439091E-03
      0.235000          0.419210E-03
      0.240000          0.401966E-03
      0.245000          0.386714E-03
      0.250000          0.372863E-03
      0.255000          0.359899E-03
      0.260000          0.347405E-03
      0.265000          0.335073E-03
      0.270000          0.322700E-03
      0.275000          0.310183E-03
      0.280000          0.297500E-03
      0.285000          0.284698E-03
      0.290000          0.271869E-03
      0.295000          0.259133E-03
      0.300000          0.246623E-03
      0.305000          0.234466E-03
      0.310000          0.222777E-03
      0.315000          0.211649E-03
      0.320000          0.201146E-03
      0.325000          0.191310E-03
      0.330000          0.182157E-03
      0.335000          0.173683E-03
      0.340000          0.165867E-03
      0.345000          0.158677E-03
      0.350000          0.152079E-03
      0.355000          0.146032E-03
      0.360000          0.140501E-03
      0.365000          0.135451E-03
      0.370000          0.130854E-03
      0.375000          0.126684E-03
      0.380000          0.122921E-03
      0.385000          0.119545E-03
      0.390000          0.116537E-03
      0.395000          0.113875E-03
      0.400000          0.111536E-03
      0.405000          0.109491E-03
      0.410000          0.107708E-03
      0.415000          0.106152E-03
      0.420000          0.104781E-03
      0.425000          0.103555E-03
      0.430000          0.102432E-03
      0.435000          0.101373E-03
      0.440000          0.100342E-03
      0.445000          0.993090E-04
      0.450000          0.982527E-04
      0.455000          0.971594E-04
      0.460000          0.960253E-04
      0.465000          0.948559E-04
      0.470000          0.936653E-04
      0.475000          0.924753E-04
      0.480000          0.913135E-04
      0.485000          0.902110E-04
      0.490000          0.892002E-04
      0.495000          0.883118E-04
      0.500000          0.875727E-04
