 I_abs(s)[cm^-1]/c[mg/ml]
       0.00000          0.144022E-01
      0.500000E-02      0.143593E-01
      0.100000E-01      0.142313E-01
      0.150000E-01      0.140207E-01
      0.200000E-01      0.137314E-01
      0.250000E-01      0.133685E-01
      0.300000E-01      0.129387E-01
      0.350000E-01      0.124494E-01
      0.400000E-01      0.119090E-01
      0.450000E-01      0.113264E-01
      0.500000E-01      0.107107E-01
      0.550000E-01      0.100713E-01
      0.600000E-01      0.941737E-02
      0.650000E-01      0.875759E-02
      0.700000E-01      0.810020E-02
      0.750000E-01      0.745270E-02
      0.800000E-01      0.682176E-02
      0.850000E-01      0.621313E-02
      0.900000E-01      0.563158E-02
      0.950000E-01      0.508091E-02
      0.100000          0.456396E-02
      0.105000          0.408265E-02
      0.110000          0.363805E-02
      0.115000          0.323048E-02
      0.120000          0.285958E-02
      0.125000          0.252444E-02
      0.130000          0.222369E-02
      0.135000          0.195562E-02
      0.140000          0.171823E-02
      0.145000          0.150939E-02
      0.150000          0.132684E-02
      0.155000          0.116831E-02
      0.160000          0.103153E-02
      0.165000          0.914300E-03
      0.170000          0.814501E-03
      0.175000          0.730119E-03
      0.180000          0.659260E-03
      0.185000          0.600156E-03
      0.190000          0.551166E-03
      0.195000          0.510779E-03
      0.200000          0.477612E-03
      0.205000          0.450408E-03
      0.210000          0.428031E-03
      0.215000          0.409469E-03
      0.220000          0.393825E-03
      0.225000          0.380324E-03
      0.230000          0.368303E-03
      0.235000          0.357208E-03
      0.240000          0.346597E-03
      0.245000          0.336125E-03
      0.250000          0.325546E-03
      0.255000          0.314698E-03
      0.260000          0.303496E-03
      0.265000          0.291919E-03
      0.270000          0.280005E-03
      0.275000          0.267828E-03
      0.280000          0.255496E-03
      0.285000          0.243133E-03
      0.290000          0.230871E-03
      0.295000          0.218841E-03
      0.300000          0.207163E-03
      0.305000          0.195943E-03
      0.310000          0.185265E-03
      0.315000          0.175195E-03
      0.320000          0.165771E-03
      0.325000          0.157015E-03
      0.330000          0.148927E-03
      0.335000          0.141490E-03
      0.340000          0.134675E-03
      0.345000          0.128443E-03
      0.350000          0.122752E-03
      0.355000          0.117555E-03
      0.360000          0.112807E-03
      0.365000          0.108467E-03
      0.370000          0.104499E-03
      0.375000          0.100870E-03
      0.380000          0.975560E-04
      0.385000          0.945370E-04
      0.390000          0.917982E-04
      0.395000          0.893282E-04
      0.400000          0.871183E-04
      0.405000          0.851610E-04
      0.410000          0.834487E-04
      0.415000          0.819729E-04
      0.420000          0.807235E-04
      0.425000          0.796880E-04
      0.430000          0.788517E-04
      0.435000          0.781977E-04
      0.440000          0.777070E-04
      0.445000          0.773594E-04
      0.450000          0.771340E-04
      0.455000          0.770097E-04
      0.460000          0.769662E-04
      0.465000          0.769843E-04
      0.470000          0.770468E-04
      0.475000          0.771388E-04
      0.480000          0.772475E-04
      0.485000          0.773629E-04
      0.490000          0.774776E-04
      0.495000          0.775864E-04
      0.500000          0.776864E-04
