 I_abs(s)[cm^-1]/c[mg/ml]
       0.00000          0.145367E-01
      0.500000E-02      0.144988E-01
      0.100000E-01      0.143856E-01
      0.150000E-01      0.141989E-01
      0.200000E-01      0.139413E-01
      0.250000E-01      0.136167E-01
      0.300000E-01      0.132298E-01
      0.350000E-01      0.127860E-01
      0.400000E-01      0.122916E-01
      0.450000E-01      0.117533E-01
      0.500000E-01      0.111783E-01
      0.550000E-01      0.105742E-01
      0.600000E-01      0.994836E-02
      0.650000E-01      0.930839E-02
      0.700000E-01      0.866161E-02
      0.750000E-01      0.801505E-02
      0.800000E-01      0.737531E-02
      0.850000E-01      0.674845E-02
      0.900000E-01      0.613994E-02
      0.950000E-01      0.555454E-02
      0.100000          0.499632E-02
      0.105000          0.446859E-02
      0.110000          0.397390E-02
      0.115000          0.351410E-02
      0.120000          0.309028E-02
      0.125000          0.270292E-02
      0.130000          0.235186E-02
      0.135000          0.203639E-02
      0.140000          0.175537E-02
      0.145000          0.150721E-02
      0.150000          0.129005E-02
      0.155000          0.110176E-02
      0.160000          0.940045E-03
      0.165000          0.802520E-03
      0.170000          0.686755E-03
      0.175000          0.590344E-03
      0.180000          0.510946E-03
      0.185000          0.446327E-03
      0.190000          0.394390E-03
      0.195000          0.353198E-03
      0.200000          0.320990E-03
      0.205000          0.296189E-03
      0.210000          0.277402E-03
      0.215000          0.263415E-03
      0.220000          0.253192E-03
      0.225000          0.245853E-03
      0.230000          0.240670E-03
      0.235000          0.237046E-03
      0.240000          0.234500E-03
      0.245000          0.232650E-03
      0.250000          0.231200E-03
      0.255000          0.229923E-03
      0.260000          0.228650E-03
      0.265000          0.227255E-03
      0.270000          0.225648E-03
      0.275000          0.223767E-03
      0.280000          0.221570E-03
      0.285000          0.219029E-03
      0.290000          0.216130E-03
      0.295000          0.212867E-03
      0.300000          0.209242E-03
      0.305000          0.205263E-03
      0.310000          0.200944E-03
      0.315000          0.196306E-03
      0.320000          0.191374E-03
      0.325000          0.186181E-03
      0.330000          0.180762E-03
      0.335000          0.175161E-03
      0.340000          0.169423E-03
      0.345000          0.163599E-03
      0.350000          0.157741E-03
      0.355000          0.151903E-03
      0.360000          0.146137E-03
      0.365000          0.140497E-03
      0.370000          0.135030E-03
      0.375000          0.129781E-03
      0.380000          0.124790E-03
      0.385000          0.120088E-03
      0.390000          0.115701E-03
      0.395000          0.111645E-03
      0.400000          0.107930E-03
      0.405000          0.104555E-03
      0.410000          0.101514E-03
      0.415000          0.987926E-04
      0.420000          0.963697E-04
      0.425000          0.942192E-04
      0.430000          0.923106E-04
      0.435000          0.906105E-04
      0.440000          0.890837E-04
      0.445000          0.876950E-04
      0.450000          0.864095E-04
      0.455000          0.851948E-04
      0.460000          0.840213E-04
      0.465000          0.828631E-04
      0.470000          0.816990E-04
      0.475000          0.805125E-04
      0.480000          0.792923E-04
      0.485000          0.780321E-04
      0.490000          0.767304E-04
      0.495000          0.753904E-04
      0.500000          0.740191E-04
