 I_abs(s)[cm^-1]/c[mg/ml]
       0.00000          0.143785E-01
      0.500000E-02      0.143307E-01
      0.100000E-01      0.141883E-01
      0.150000E-01      0.139541E-01
      0.200000E-01      0.136331E-01
      0.250000E-01      0.132316E-01
      0.300000E-01      0.127578E-01
      0.350000E-01      0.122208E-01
      0.400000E-01      0.116307E-01
      0.450000E-01      0.109984E-01
      0.500000E-01      0.103349E-01
      0.550000E-01      0.965139E-02
      0.600000E-01      0.895853E-02
      0.650000E-01      0.826656E-02
      0.700000E-01      0.758482E-02
      0.750000E-01      0.692166E-02
      0.800000E-01      0.628426E-02
      0.850000E-01      0.567852E-02
      0.900000E-01      0.510904E-02
      0.950000E-01      0.457911E-02
      0.100000          0.409077E-02
      0.105000          0.364487E-02
      0.110000          0.324123E-02
      0.115000          0.287875E-02
      0.120000          0.255559E-02
      0.125000          0.226933E-02
      0.130000          0.201712E-02
      0.135000          0.179587E-02
      0.140000          0.160237E-02
      0.145000          0.143343E-02
      0.150000          0.128598E-02
      0.155000          0.115716E-02
      0.160000          0.104435E-02
      0.165000          0.945242E-03
      0.170000          0.857849E-03
      0.175000          0.780479E-03
      0.180000          0.711735E-03
      0.185000          0.650482E-03
      0.190000          0.595811E-03
      0.195000          0.546995E-03
      0.200000          0.503455E-03
      0.205000          0.464715E-03
      0.210000          0.430373E-03
      0.215000          0.400068E-03
      0.220000          0.373459E-03
      0.225000          0.350212E-03
      0.230000          0.329991E-03
      0.235000          0.312451E-03
      0.240000          0.297246E-03
      0.245000          0.284031E-03
      0.250000          0.272469E-03
      0.255000          0.262241E-03
      0.260000          0.253056E-03
      0.265000          0.244655E-03
      0.270000          0.236819E-03
      0.275000          0.229372E-03
      0.280000          0.222180E-03
      0.285000          0.215152E-03
      0.290000          0.208234E-03
      0.295000          0.201407E-03
      0.300000          0.194678E-03
      0.305000          0.188072E-03
      0.310000          0.181628E-03
      0.315000          0.175388E-03
      0.320000          0.169397E-03
      0.325000          0.163691E-03
      0.330000          0.158299E-03
      0.335000          0.153240E-03
      0.340000          0.148519E-03
      0.345000          0.144131E-03
      0.350000          0.140062E-03
      0.355000          0.136289E-03
      0.360000          0.132784E-03
      0.365000          0.129515E-03
      0.370000          0.126454E-03
      0.375000          0.123570E-03
      0.380000          0.120838E-03
      0.385000          0.118238E-03
      0.390000          0.115754E-03
      0.395000          0.113375E-03
      0.400000          0.111095E-03
      0.405000          0.108910E-03
      0.410000          0.106820E-03
      0.415000          0.104822E-03
      0.420000          0.102916E-03
      0.425000          0.101097E-03
      0.430000          0.993609E-04
      0.435000          0.976980E-04
      0.440000          0.960968E-04
      0.445000          0.945432E-04
      0.450000          0.930216E-04
      0.455000          0.915161E-04
      0.460000          0.900112E-04
      0.465000          0.884940E-04
      0.470000          0.869547E-04
      0.475000          0.853884E-04
      0.480000          0.837956E-04
      0.485000          0.821829E-04
      0.490000          0.805634E-04
      0.495000          0.789559E-04
      0.500000          0.773848E-04
