 I_abs(s)[cm^-1]/c[mg/ml]
       0.00000          0.145208E-01
      0.500000E-02      0.144819E-01
      0.100000E-01      0.143656E-01
      0.150000E-01      0.141739E-01
      0.200000E-01      0.139097E-01
      0.250000E-01      0.135773E-01
      0.300000E-01      0.131816E-01
      0.350000E-01      0.127287E-01
      0.400000E-01      0.122253E-01
      0.450000E-01      0.116786E-01
      0.500000E-01      0.110964E-01
      0.550000E-01      0.104864E-01
      0.600000E-01      0.985669E-02
      0.650000E-01      0.921496E-02
      0.700000E-01      0.856879E-02
      0.750000E-01      0.792528E-02
      0.800000E-01      0.729103E-02
      0.850000E-01      0.667198E-02
      0.900000E-01      0.607339E-02
      0.950000E-01      0.549974E-02
      0.100000          0.495472E-02
      0.105000          0.444122E-02
      0.110000          0.396136E-02
      0.115000          0.351651E-02
      0.120000          0.310733E-02
      0.125000          0.273386E-02
      0.130000          0.239555E-02
      0.135000          0.209138E-02
      0.140000          0.181994E-02
      0.145000          0.157948E-02
      0.150000          0.136801E-02
      0.155000          0.118339E-02
      0.160000          0.102338E-02
      0.165000          0.885687E-03
      0.170000          0.768068E-03
      0.175000          0.668329E-03
      0.180000          0.584376E-03
      0.185000          0.514239E-03
      0.190000          0.456092E-03
      0.195000          0.408261E-03
      0.200000          0.369228E-03
      0.205000          0.337632E-03
      0.210000          0.312262E-03
      0.215000          0.292050E-03
      0.220000          0.276059E-03
      0.225000          0.263473E-03
      0.230000          0.253588E-03
      0.235000          0.245796E-03
      0.240000          0.239576E-03
      0.245000          0.234487E-03
      0.250000          0.230158E-03
      0.255000          0.226276E-03
      0.260000          0.222589E-03
      0.265000          0.218891E-03
      0.270000          0.215023E-03
      0.275000          0.210867E-03
      0.280000          0.206344E-03
      0.285000          0.201407E-03
      0.290000          0.196039E-03
      0.295000          0.190251E-03
      0.300000          0.184076E-03
      0.305000          0.177565E-03
      0.310000          0.170786E-03
      0.315000          0.163816E-03
      0.320000          0.156740E-03
      0.325000          0.149647E-03
      0.330000          0.142623E-03
      0.335000          0.135753E-03
      0.340000          0.129115E-03
      0.345000          0.122778E-03
      0.350000          0.116802E-03
      0.355000          0.111235E-03
      0.360000          0.106113E-03
      0.365000          0.101459E-03
      0.370000          0.972856E-04
      0.375000          0.935949E-04
      0.380000          0.903784E-04
      0.385000          0.876195E-04
      0.390000          0.852949E-04
      0.395000          0.833760E-04
      0.400000          0.818306E-04
      0.405000          0.806243E-04
      0.410000          0.797220E-04
      0.415000          0.790888E-04
      0.420000          0.786913E-04
      0.425000          0.784980E-04
      0.430000          0.784802E-04
      0.435000          0.786119E-04
      0.440000          0.788700E-04
      0.445000          0.792345E-04
      0.450000          0.796878E-04
      0.455000          0.802150E-04
      0.460000          0.808030E-04
      0.465000          0.814402E-04
      0.470000          0.821164E-04
      0.475000          0.828220E-04
      0.480000          0.835478E-04
      0.485000          0.842850E-04
      0.490000          0.850245E-04
      0.495000          0.857569E-04
      0.500000          0.864728E-04
