 I_abs(s)[cm^-1]/c[mg/ml]
       0.00000          0.141977E-01
      0.500000E-02      0.141418E-01
      0.100000E-01      0.139753E-01
      0.150000E-01      0.137027E-01
      0.200000E-01      0.133309E-01
      0.250000E-01      0.128695E-01
      0.300000E-01      0.123297E-01
      0.350000E-01      0.117246E-01
      0.400000E-01      0.110681E-01
      0.450000E-01      0.103745E-01
      0.500000E-01      0.965835E-02
      0.550000E-01      0.893337E-02
      0.600000E-01      0.821241E-02
      0.650000E-01      0.750697E-02
      0.700000E-01      0.682691E-02
      0.750000E-01      0.618028E-02
      0.800000E-01      0.557324E-02
      0.850000E-01      0.501007E-02
      0.900000E-01      0.449327E-02
      0.950000E-01      0.402368E-02
      0.100000          0.360073E-02
      0.105000          0.322268E-02
      0.110000          0.288686E-02
      0.115000          0.258998E-02
      0.120000          0.232834E-02
      0.125000          0.209811E-02
      0.130000          0.189545E-02
      0.135000          0.171673E-02
      0.140000          0.155862E-02
      0.145000          0.141815E-02
      0.150000          0.129276E-02
      0.155000          0.118029E-02
      0.160000          0.107897E-02
      0.165000          0.987372E-03
      0.170000          0.904355E-03
      0.175000          0.829013E-03
      0.180000          0.760615E-03
      0.185000          0.698555E-03
      0.190000          0.642313E-03
      0.195000          0.591414E-03
      0.200000          0.545410E-03
      0.205000          0.503864E-03
      0.210000          0.466346E-03
      0.215000          0.432431E-03
      0.220000          0.401707E-03
      0.225000          0.373781E-03
      0.230000          0.348290E-03
      0.235000          0.324906E-03
      0.240000          0.303344E-03
      0.245000          0.283370E-03
      0.250000          0.264794E-03
      0.255000          0.247475E-03
      0.260000          0.231318E-03
      0.265000          0.216263E-03
      0.270000          0.202283E-03
      0.275000          0.189375E-03
      0.280000          0.177552E-03
      0.285000          0.166834E-03
      0.290000          0.157244E-03
      0.295000          0.148796E-03
      0.300000          0.141499E-03
      0.305000          0.135342E-03
      0.310000          0.130300E-03
      0.315000          0.126330E-03
      0.320000          0.123367E-03
      0.325000          0.121332E-03
      0.330000          0.120128E-03
      0.335000          0.119644E-03
      0.340000          0.119762E-03
      0.345000          0.120355E-03
      0.350000          0.121298E-03
      0.355000          0.122467E-03
      0.360000          0.123746E-03
      0.365000          0.125028E-03
      0.370000          0.126223E-03
      0.375000          0.127255E-03
      0.380000          0.128065E-03
      0.385000          0.128614E-03
      0.390000          0.128880E-03
      0.395000          0.128858E-03
      0.400000          0.128557E-03
      0.405000          0.127996E-03
      0.410000          0.127207E-03
      0.415000          0.126223E-03
      0.420000          0.125084E-03
      0.425000          0.123826E-03
      0.430000          0.122484E-03
      0.435000          0.121090E-03
      0.440000          0.119668E-03
      0.445000          0.118236E-03
      0.450000          0.116807E-03
      0.455000          0.115386E-03
      0.460000          0.113974E-03
      0.465000          0.112569E-03
      0.470000          0.111166E-03
      0.475000          0.109759E-03
      0.480000          0.108342E-03
      0.485000          0.106912E-03
      0.490000          0.105466E-03
      0.495000          0.104007E-03
      0.500000          0.102537E-03
