 I_abs(s)[cm^-1]/c[mg/ml]
       0.00000          0.145922E-01
      0.500000E-02      0.145546E-01
      0.100000E-01      0.144421E-01
      0.150000E-01      0.142567E-01
      0.200000E-01      0.140009E-01
      0.250000E-01      0.136788E-01
      0.300000E-01      0.132949E-01
      0.350000E-01      0.128549E-01
      0.400000E-01      0.123651E-01
      0.450000E-01      0.118321E-01
      0.500000E-01      0.112633E-01
      0.550000E-01      0.106659E-01
      0.600000E-01      0.100475E-01
      0.650000E-01      0.941551E-02
      0.700000E-01      0.877699E-02
      0.750000E-01      0.813882E-02
      0.800000E-01      0.750736E-02
      0.850000E-01      0.688843E-02
      0.900000E-01      0.628719E-02
      0.950000E-01      0.570817E-02
      0.100000          0.515514E-02
      0.105000          0.463118E-02
      0.110000          0.413863E-02
      0.115000          0.367916E-02
      0.120000          0.325375E-02
      0.125000          0.286280E-02
      0.130000          0.250617E-02
      0.135000          0.218322E-02
      0.140000          0.189292E-02
      0.145000          0.163387E-02
      0.150000          0.140444E-02
      0.155000          0.120277E-02
      0.160000          0.102688E-02
      0.165000          0.874695E-03
      0.170000          0.744114E-03
      0.175000          0.633049E-03
      0.180000          0.539461E-03
      0.185000          0.461385E-03
      0.190000          0.396960E-03
      0.195000          0.344437E-03
      0.200000          0.302196E-03
      0.205000          0.268749E-03
      0.210000          0.242742E-03
      0.215000          0.222955E-03
      0.220000          0.208299E-03
      0.225000          0.197807E-03
      0.230000          0.190633E-03
      0.235000          0.186040E-03
      0.240000          0.183394E-03
      0.245000          0.182157E-03
      0.250000          0.181875E-03
      0.255000          0.182176E-03
      0.260000          0.182758E-03
      0.265000          0.183383E-03
      0.270000          0.183869E-03
      0.275000          0.184083E-03
      0.280000          0.183937E-03
      0.285000          0.183376E-03
      0.290000          0.182378E-03
      0.295000          0.180944E-03
      0.300000          0.179094E-03
      0.305000          0.176860E-03
      0.310000          0.174288E-03
      0.315000          0.171423E-03
      0.320000          0.168319E-03
      0.325000          0.165023E-03
      0.330000          0.161585E-03
      0.335000          0.158046E-03
      0.340000          0.154444E-03
      0.345000          0.150813E-03
      0.350000          0.147180E-03
      0.355000          0.143565E-03
      0.360000          0.139987E-03
      0.365000          0.136459E-03
      0.370000          0.132992E-03
      0.375000          0.129596E-03
      0.380000          0.126278E-03
      0.385000          0.123045E-03
      0.390000          0.119906E-03
      0.395000          0.116867E-03
      0.400000          0.113938E-03
      0.405000          0.111126E-03
      0.410000          0.108442E-03
      0.415000          0.105893E-03
      0.420000          0.103487E-03
      0.425000          0.101233E-03
      0.430000          0.991350E-04
      0.435000          0.971973E-04
      0.440000          0.954215E-04
      0.445000          0.938068E-04
      0.450000          0.923497E-04
      0.455000          0.910444E-04
      0.460000          0.898825E-04
      0.465000          0.888537E-04
      0.470000          0.879456E-04
      0.475000          0.871446E-04
      0.480000          0.864360E-04
      0.485000          0.858046E-04
      0.490000          0.852351E-04
      0.495000          0.847128E-04
      0.500000          0.842234E-04
