 I_abs(s)[cm^-1]/c[mg/ml]
       0.00000          0.146399E-01
      0.500000E-02      0.145852E-01
      0.100000E-01      0.144225E-01
      0.150000E-01      0.141558E-01
      0.200000E-01      0.137919E-01
      0.250000E-01      0.133396E-01
      0.300000E-01      0.128097E-01
      0.350000E-01      0.122144E-01
      0.400000E-01      0.115668E-01
      0.450000E-01      0.108804E-01
      0.500000E-01      0.101687E-01
      0.550000E-01      0.944458E-02
      0.600000E-01      0.871999E-02
      0.650000E-01      0.800572E-02
      0.700000E-01      0.731106E-02
      0.750000E-01      0.664370E-02
      0.800000E-01      0.600969E-02
      0.850000E-01      0.541346E-02
      0.900000E-01      0.485790E-02
      0.950000E-01      0.434457E-02
      0.100000          0.387383E-02
      0.105000          0.344507E-02
      0.110000          0.305695E-02
      0.115000          0.270754E-02
      0.120000          0.239458E-02
      0.125000          0.211558E-02
      0.130000          0.186796E-02
      0.135000          0.164913E-02
      0.140000          0.145661E-02
      0.145000          0.128799E-02
      0.150000          0.114100E-02
      0.155000          0.101348E-02
      0.160000          0.903405E-03
      0.165000          0.808864E-03
      0.170000          0.728046E-03
      0.175000          0.659242E-03
      0.180000          0.600846E-03
      0.185000          0.551355E-03
      0.190000          0.509386E-03
      0.195000          0.473676E-03
      0.200000          0.443100E-03
      0.205000          0.416677E-03
      0.210000          0.393575E-03
      0.215000          0.373108E-03
      0.220000          0.354733E-03
      0.225000          0.338039E-03
      0.230000          0.322728E-03
      0.235000          0.308599E-03
      0.240000          0.295522E-03
      0.245000          0.283422E-03
      0.250000          0.272255E-03
      0.255000          0.261991E-03
      0.260000          0.252600E-03
      0.265000          0.244041E-03
      0.270000          0.236261E-03
      0.275000          0.229187E-03
      0.280000          0.222733E-03
      0.285000          0.216803E-03
      0.290000          0.211299E-03
      0.295000          0.206122E-03
      0.300000          0.201185E-03
      0.305000          0.196417E-03
      0.310000          0.191761E-03
      0.315000          0.187183E-03
      0.320000          0.182665E-03
      0.325000          0.178209E-03
      0.330000          0.173827E-03
      0.335000          0.169540E-03
      0.340000          0.165373E-03
      0.345000          0.161350E-03
      0.350000          0.157489E-03
      0.355000          0.153801E-03
      0.360000          0.150286E-03
      0.365000          0.146935E-03
      0.370000          0.143729E-03
      0.375000          0.140644E-03
      0.380000          0.137651E-03
      0.385000          0.134721E-03
      0.390000          0.131830E-03
      0.395000          0.128957E-03
      0.400000          0.126095E-03
      0.405000          0.123244E-03
      0.410000          0.120418E-03
      0.415000          0.117639E-03
      0.420000          0.114940E-03
      0.425000          0.112361E-03
      0.430000          0.109942E-03
      0.435000          0.107725E-03
      0.440000          0.105747E-03
      0.445000          0.104033E-03
      0.450000          0.102600E-03
      0.455000          0.101451E-03
      0.460000          0.100572E-03
      0.465000          0.999370E-04
      0.470000          0.995049E-04
      0.475000          0.992247E-04
      0.480000          0.990379E-04
      0.485000          0.988826E-04
      0.490000          0.986978E-04
      0.495000          0.984279E-04
      0.500000          0.980265E-04
