 I_abs(s)[cm^-1]/c[mg/ml]
       0.00000          0.142056E-01
      0.500000E-02      0.141651E-01
      0.100000E-01      0.140444E-01
      0.150000E-01      0.138455E-01
      0.200000E-01      0.135719E-01
      0.250000E-01      0.132281E-01
      0.300000E-01      0.128199E-01
      0.350000E-01      0.123539E-01
      0.400000E-01      0.118375E-01
      0.450000E-01      0.112788E-01
      0.500000E-01      0.106862E-01
      0.550000E-01      0.100682E-01
      0.600000E-01      0.943333E-02
      0.650000E-01      0.878995E-02
      0.700000E-01      0.814598E-02
      0.750000E-01      0.750880E-02
      0.800000E-01      0.688511E-02
      0.850000E-01      0.628087E-02
      0.900000E-01      0.570115E-02
      0.950000E-01      0.515018E-02
      0.100000          0.463125E-02
      0.105000          0.414676E-02
      0.110000          0.369829E-02
      0.115000          0.328657E-02
      0.120000          0.291164E-02
      0.125000          0.257288E-02
      0.130000          0.226915E-02
      0.135000          0.199883E-02
      0.140000          0.175997E-02
      0.145000          0.155037E-02
      0.150000          0.136766E-02
      0.155000          0.120939E-02
      0.160000          0.107310E-02
      0.165000          0.956380E-03
      0.170000          0.856920E-03
      0.175000          0.772539E-03
      0.180000          0.701218E-03
      0.185000          0.641111E-03
      0.190000          0.590554E-03
      0.195000          0.548062E-03
      0.200000          0.512323E-03
      0.205000          0.482186E-03
      0.210000          0.456653E-03
      0.215000          0.434857E-03
      0.220000          0.416050E-03
      0.225000          0.399592E-03
      0.230000          0.384932E-03
      0.235000          0.371601E-03
      0.240000          0.359201E-03
      0.245000          0.347397E-03
      0.250000          0.335913E-03
      0.255000          0.324526E-03
      0.260000          0.313060E-03
      0.265000          0.301391E-03
      0.270000          0.289435E-03
      0.275000          0.277152E-03
      0.280000          0.264541E-03
      0.285000          0.251636E-03
      0.290000          0.238501E-03
      0.295000          0.225229E-03
      0.300000          0.211932E-03
      0.305000          0.198737E-03
      0.310000          0.185780E-03
      0.315000          0.173201E-03
      0.320000          0.161136E-03
      0.325000          0.149710E-03
      0.330000          0.139037E-03
      0.335000          0.129212E-03
      0.340000          0.120307E-03
      0.345000          0.112376E-03
      0.350000          0.105443E-03
      0.355000          0.995123E-04
      0.360000          0.945647E-04
      0.365000          0.905601E-04
      0.370000          0.874408E-04
      0.375000          0.851343E-04
      0.380000          0.835575E-04
      0.385000          0.826197E-04
      0.390000          0.822267E-04
      0.395000          0.822843E-04
      0.400000          0.827009E-04
      0.405000          0.833905E-04
      0.410000          0.842746E-04
      0.415000          0.852836E-04
      0.420000          0.863574E-04
      0.425000          0.874463E-04
      0.430000          0.885099E-04
      0.435000          0.895171E-04
      0.440000          0.904450E-04
      0.445000          0.912770E-04
      0.450000          0.920024E-04
      0.455000          0.926144E-04
      0.460000          0.931089E-04
      0.465000          0.934835E-04
      0.470000          0.937362E-04
      0.475000          0.938653E-04
      0.480000          0.938685E-04
      0.485000          0.937429E-04
      0.490000          0.934855E-04
      0.495000          0.930930E-04
      0.500000          0.925626E-04
