 I_abs(s)[cm^-1]/c[mg/ml]
       0.00000          0.143155E-01
      0.500000E-02      0.142792E-01
      0.100000E-01      0.141706E-01
      0.150000E-01      0.139915E-01
      0.200000E-01      0.137445E-01
      0.250000E-01      0.134330E-01
      0.300000E-01      0.130616E-01
      0.350000E-01      0.126355E-01
      0.400000E-01      0.121605E-01
      0.450000E-01      0.116431E-01
      0.500000E-01      0.110902E-01
      0.550000E-01      0.105087E-01
      0.600000E-01      0.990590E-02
      0.650000E-01      0.928891E-02
      0.700000E-01      0.866473E-02
      0.750000E-01      0.804004E-02
      0.800000E-01      0.742115E-02
      0.850000E-01      0.681386E-02
      0.900000E-01      0.622341E-02
      0.950000E-01      0.565438E-02
      0.100000          0.511070E-02
      0.105000          0.459560E-02
      0.110000          0.411159E-02
      0.115000          0.366048E-02
      0.120000          0.324345E-02
      0.125000          0.286102E-02
      0.130000          0.251314E-02
      0.135000          0.219925E-02
      0.140000          0.191834E-02
      0.145000          0.166901E-02
      0.150000          0.144957E-02
      0.155000          0.125807E-02
      0.160000          0.109239E-02
      0.165000          0.950328E-03
      0.170000          0.829602E-03
      0.175000          0.727950E-03
      0.180000          0.643159E-03
      0.185000          0.573095E-03
      0.190000          0.515745E-03
      0.195000          0.469230E-03
      0.200000          0.431825E-03
      0.205000          0.401970E-03
      0.210000          0.378268E-03
      0.215000          0.359488E-03
      0.220000          0.344559E-03
      0.225000          0.332561E-03
      0.230000          0.322717E-03
      0.235000          0.314379E-03
      0.240000          0.307015E-03
      0.245000          0.300198E-03
      0.250000          0.293593E-03
      0.255000          0.286944E-03
      0.260000          0.280064E-03
      0.265000          0.272821E-03
      0.270000          0.265137E-03
      0.275000          0.256972E-03
      0.280000          0.248320E-03
      0.285000          0.239204E-03
      0.290000          0.229668E-03
      0.295000          0.219775E-03
      0.300000          0.209604E-03
      0.305000          0.199241E-03
      0.310000          0.188781E-03
      0.315000          0.178322E-03
      0.320000          0.167967E-03
      0.325000          0.157813E-03
      0.330000          0.147956E-03
      0.335000          0.138488E-03
      0.340000          0.129489E-03
      0.345000          0.121034E-03
      0.350000          0.113183E-03
      0.355000          0.105988E-03
      0.360000          0.994834E-04
      0.365000          0.936943E-04
      0.370000          0.886297E-04
      0.375000          0.842864E-04
      0.380000          0.806482E-04
      0.385000          0.776873E-04
      0.390000          0.753656E-04
      0.395000          0.736362E-04
      0.400000          0.724449E-04
      0.405000          0.717325E-04
      0.410000          0.714358E-04
      0.415000          0.714906E-04
      0.420000          0.718324E-04
      0.425000          0.723988E-04
      0.430000          0.731307E-04
      0.435000          0.739734E-04
      0.440000          0.748779E-04
      0.445000          0.758014E-04
      0.450000          0.767081E-04
      0.455000          0.775688E-04
      0.460000          0.783614E-04
      0.465000          0.790704E-04
      0.470000          0.796863E-04
      0.475000          0.802051E-04
      0.480000          0.806274E-04
      0.485000          0.809575E-04
      0.490000          0.812026E-04
      0.495000          0.813717E-04
      0.500000          0.814748E-04
