 I_abs(s)[cm^-1]/c[mg/ml]
       0.00000          0.145843E-01
      0.500000E-02      0.145453E-01
      0.100000E-01      0.144288E-01
      0.150000E-01      0.142370E-01
      0.200000E-01      0.139730E-01
      0.250000E-01      0.136413E-01
      0.300000E-01      0.132474E-01
      0.350000E-01      0.127975E-01
      0.400000E-01      0.122988E-01
      0.450000E-01      0.117587E-01
      0.500000E-01      0.111851E-01
      0.550000E-01      0.105860E-01
      0.600000E-01      0.996922E-02
      0.650000E-01      0.934234E-02
      0.700000E-01      0.871257E-02
      0.750000E-01      0.808657E-02
      0.800000E-01      0.747035E-02
      0.850000E-01      0.686919E-02
      0.900000E-01      0.628763E-02
      0.950000E-01      0.572942E-02
      0.100000          0.519757E-02
      0.105000          0.469432E-02
      0.110000          0.422126E-02
      0.115000          0.377934E-02
      0.120000          0.336897E-02
      0.125000          0.299007E-02
      0.130000          0.264219E-02
      0.135000          0.232456E-02
      0.140000          0.203615E-02
      0.145000          0.177573E-02
      0.150000          0.154198E-02
      0.155000          0.133345E-02
      0.160000          0.114864E-02
      0.165000          0.986046E-03
      0.170000          0.844126E-03
      0.175000          0.721350E-03
      0.180000          0.616197E-03
      0.185000          0.527161E-03
      0.190000          0.452752E-03
      0.195000          0.391507E-03
      0.200000          0.341986E-03
      0.205000          0.302785E-03
      0.210000          0.272539E-03
      0.215000          0.249933E-03
      0.220000          0.233712E-03
      0.225000          0.222694E-03
      0.230000          0.215778E-03
      0.235000          0.211958E-03
      0.240000          0.210332E-03
      0.245000          0.210109E-03
      0.250000          0.210610E-03
      0.255000          0.211279E-03
      0.260000          0.211673E-03
      0.265000          0.211460E-03
      0.270000          0.210417E-03
      0.275000          0.208413E-03
      0.280000          0.205400E-03
      0.285000          0.201402E-03
      0.290000          0.196499E-03
      0.295000          0.190810E-03
      0.300000          0.184485E-03
      0.305000          0.177689E-03
      0.310000          0.170588E-03
      0.315000          0.163345E-03
      0.320000          0.156110E-03
      0.325000          0.149010E-03
      0.330000          0.142154E-03
      0.335000          0.135625E-03
      0.340000          0.129480E-03
      0.345000          0.123756E-03
      0.350000          0.118468E-03
      0.355000          0.113614E-03
      0.360000          0.109179E-03
      0.365000          0.105137E-03
      0.370000          0.101457E-03
      0.375000          0.981061E-04
      0.380000          0.950505E-04
      0.385000          0.922591E-04
      0.390000          0.897050E-04
      0.395000          0.873663E-04
      0.400000          0.852265E-04
      0.405000          0.832744E-04
      0.410000          0.815034E-04
      0.415000          0.799107E-04
      0.420000          0.784960E-04
      0.425000          0.772606E-04
      0.430000          0.762057E-04
      0.435000          0.753318E-04
      0.440000          0.746374E-04
      0.445000          0.741185E-04
      0.450000          0.737681E-04
      0.455000          0.735761E-04
      0.460000          0.735293E-04
      0.465000          0.736117E-04
      0.470000          0.738054E-04
      0.475000          0.740908E-04
      0.480000          0.744476E-04
      0.485000          0.748558E-04
      0.490000          0.752963E-04
      0.495000          0.757517E-04
      0.500000          0.762072E-04
