 I_abs(s)[cm^-1]/c[mg/ml]
       0.00000          0.146240E-01
      0.500000E-02      0.145854E-01
      0.100000E-01      0.144702E-01
      0.150000E-01      0.142801E-01
      0.200000E-01      0.140181E-01
      0.250000E-01      0.136880E-01
      0.300000E-01      0.132950E-01
      0.350000E-01      0.128446E-01
      0.400000E-01      0.123434E-01
      0.450000E-01      0.117985E-01
      0.500000E-01      0.112172E-01
      0.550000E-01      0.106074E-01
      0.600000E-01      0.997669E-02
      0.650000E-01      0.933288E-02
      0.700000E-01      0.868339E-02
      0.750000E-01      0.803534E-02
      0.800000E-01      0.739534E-02
      0.850000E-01      0.676943E-02
      0.900000E-01      0.616298E-02
      0.950000E-01      0.558064E-02
      0.100000          0.502631E-02
      0.105000          0.450310E-02
      0.110000          0.401337E-02
      0.115000          0.355872E-02
      0.120000          0.314006E-02
      0.125000          0.275763E-02
      0.130000          0.241110E-02
      0.135000          0.209962E-02
      0.140000          0.182189E-02
      0.145000          0.157626E-02
      0.150000          0.136081E-02
      0.155000          0.117339E-02
      0.160000          0.101173E-02
      0.165000          0.873487E-03
      0.170000          0.756312E-03
      0.175000          0.657887E-03
      0.180000          0.575974E-03
      0.185000          0.508447E-03
      0.190000          0.453313E-03
      0.195000          0.408733E-03
      0.200000          0.373031E-03
      0.205000          0.344694E-03
      0.210000          0.322377E-03
      0.215000          0.304897E-03
      0.220000          0.291224E-03
      0.225000          0.280470E-03
      0.230000          0.271884E-03
      0.235000          0.264832E-03
      0.240000          0.258795E-03
      0.245000          0.253348E-03
      0.250000          0.248156E-03
      0.255000          0.242962E-03
      0.260000          0.237575E-03
      0.265000          0.231867E-03
      0.270000          0.225758E-03
      0.275000          0.219215E-03
      0.280000          0.212242E-03
      0.285000          0.204874E-03
      0.290000          0.197172E-03
      0.295000          0.189215E-03
      0.300000          0.181099E-03
      0.305000          0.172926E-03
      0.310000          0.164803E-03
      0.315000          0.156836E-03
      0.320000          0.149126E-03
      0.325000          0.141765E-03
      0.330000          0.134834E-03
      0.335000          0.128398E-03
      0.340000          0.122509E-03
      0.345000          0.117198E-03
      0.350000          0.112482E-03
      0.355000          0.108360E-03
      0.360000          0.104816E-03
      0.365000          0.101819E-03
      0.370000          0.993260E-04
      0.375000          0.972860E-04
      0.380000          0.956403E-04
      0.385000          0.943267E-04
      0.390000          0.932818E-04
      0.395000          0.924437E-04
      0.400000          0.917542E-04
      0.405000          0.911607E-04
      0.410000          0.906177E-04
      0.415000          0.900882E-04
      0.420000          0.895436E-04
      0.425000          0.889643E-04
      0.430000          0.883396E-04
      0.435000          0.876663E-04
      0.440000          0.869484E-04
      0.445000          0.861957E-04
      0.450000          0.854226E-04
      0.455000          0.846464E-04
      0.460000          0.838861E-04
      0.465000          0.831611E-04
      0.470000          0.824902E-04
      0.475000          0.818902E-04
      0.480000          0.813755E-04
      0.485000          0.809571E-04
      0.490000          0.806428E-04
      0.495000          0.804365E-04
      0.500000          0.803387E-04
