 I_abs(s)[cm^-1]/c[mg/ml]
       0.00000          0.144733E-01
      0.500000E-02      0.144205E-01
      0.100000E-01      0.142632E-01
      0.150000E-01      0.140053E-01
      0.200000E-01      0.136528E-01
      0.250000E-01      0.132140E-01
      0.300000E-01      0.126988E-01
      0.350000E-01      0.121187E-01
      0.400000E-01      0.114860E-01
      0.450000E-01      0.108136E-01
      0.500000E-01      0.101146E-01
      0.550000E-01      0.940167E-02
      0.600000E-01      0.868675E-02
      0.650000E-01      0.798080E-02
      0.700000E-01      0.729348E-02
      0.750000E-01      0.663294E-02
      0.800000E-01      0.600574E-02
      0.850000E-01      0.541681E-02
      0.900000E-01      0.486947E-02
      0.950000E-01      0.436557E-02
      0.100000          0.390558E-02
      0.105000          0.348884E-02
      0.110000          0.311373E-02
      0.115000          0.277791E-02
      0.120000          0.247853E-02
      0.125000          0.221244E-02
      0.130000          0.197639E-02
      0.135000          0.176714E-02
      0.140000          0.158164E-02
      0.145000          0.141706E-02
      0.150000          0.127089E-02
      0.155000          0.114091E-02
      0.160000          0.102524E-02
      0.165000          0.922294E-03
      0.170000          0.830730E-03
      0.175000          0.749428E-03
      0.180000          0.677427E-03
      0.185000          0.613885E-03
      0.190000          0.558041E-03
      0.195000          0.509178E-03
      0.200000          0.466603E-03
      0.205000          0.429635E-03
      0.210000          0.397603E-03
      0.215000          0.369846E-03
      0.220000          0.345723E-03
      0.225000          0.324629E-03
      0.230000          0.306005E-03
      0.235000          0.289352E-03
      0.240000          0.274243E-03
      0.245000          0.260326E-03
      0.250000          0.247332E-03
      0.255000          0.235069E-03
      0.260000          0.223419E-03
      0.265000          0.212328E-03
      0.270000          0.201792E-03
      0.275000          0.191847E-03
      0.280000          0.182552E-03
      0.285000          0.173980E-03
      0.290000          0.166200E-03
      0.295000          0.159270E-03
      0.300000          0.153229E-03
      0.305000          0.148092E-03
      0.310000          0.143846E-03
      0.315000          0.140453E-03
      0.320000          0.137845E-03
      0.325000          0.135937E-03
      0.330000          0.134625E-03
      0.335000          0.133791E-03
      0.340000          0.133314E-03
      0.345000          0.133072E-03
      0.350000          0.132947E-03
      0.355000          0.132832E-03
      0.360000          0.132633E-03
      0.365000          0.132270E-03
      0.370000          0.131685E-03
      0.375000          0.130836E-03
      0.380000          0.129702E-03
      0.385000          0.128279E-03
      0.390000          0.126582E-03
      0.395000          0.124642E-03
      0.400000          0.122500E-03
      0.405000          0.120209E-03
      0.410000          0.117831E-03
      0.415000          0.115427E-03
      0.420000          0.113063E-03
      0.425000          0.110800E-03
      0.430000          0.108695E-03
      0.435000          0.106795E-03
      0.440000          0.105139E-03
      0.445000          0.103753E-03
      0.450000          0.102651E-03
      0.455000          0.101833E-03
      0.460000          0.101288E-03
      0.465000          0.100991E-03
      0.470000          0.100909E-03
      0.475000          0.101001E-03
      0.480000          0.101217E-03
      0.485000          0.101507E-03
      0.490000          0.101819E-03
      0.495000          0.102101E-03
      0.500000          0.102308E-03
