 I_abs(s)[cm^-1]/c[mg/ml]
       0.00000          0.146479E-01
      0.500000E-02      0.145887E-01
      0.100000E-01      0.144126E-01
      0.150000E-01      0.141245E-01
      0.200000E-01      0.137321E-01
      0.250000E-01      0.132457E-01
      0.300000E-01      0.126779E-01
      0.350000E-01      0.120427E-01
      0.400000E-01      0.113552E-01
      0.450000E-01      0.106310E-01
      0.500000E-01      0.988545E-02
      0.550000E-01      0.913305E-02
      0.600000E-01      0.838723E-02
      0.650000E-01      0.765978E-02
      0.700000E-01      0.696062E-02
      0.750000E-01      0.629765E-02
      0.800000E-01      0.567669E-02
      0.850000E-01      0.510157E-02
      0.900000E-01      0.457419E-02
      0.950000E-01      0.409485E-02
      0.100000          0.366243E-02
      0.105000          0.327472E-02
      0.110000          0.292873E-02
      0.115000          0.262097E-02
      0.120000          0.234770E-02
      0.125000          0.210518E-02
      0.130000          0.188985E-02
      0.135000          0.169840E-02
      0.140000          0.152792E-02
      0.145000          0.137587E-02
      0.150000          0.124010E-02
      0.155000          0.111881E-02
      0.160000          0.101051E-02
      0.165000          0.913919E-03
      0.170000          0.827953E-03
      0.175000          0.751626E-03
      0.180000          0.684024E-03
      0.185000          0.624268E-03
      0.190000          0.571499E-03
      0.195000          0.524872E-03
      0.200000          0.483567E-03
      0.205000          0.446801E-03
      0.210000          0.413849E-03
      0.215000          0.384065E-03
      0.220000          0.356895E-03
      0.225000          0.331892E-03
      0.230000          0.308719E-03
      0.235000          0.287147E-03
      0.240000          0.267042E-03
      0.245000          0.248352E-03
      0.250000          0.231084E-03
      0.255000          0.215284E-03
      0.260000          0.201016E-03
      0.265000          0.188336E-03
      0.270000          0.177281E-03
      0.275000          0.167853E-03
      0.280000          0.160015E-03
      0.285000          0.153686E-03
      0.290000          0.148747E-03
      0.295000          0.145044E-03
      0.300000          0.142399E-03
      0.305000          0.140621E-03
      0.310000          0.139517E-03
      0.315000          0.138901E-03
      0.320000          0.138602E-03
      0.325000          0.138471E-03
      0.330000          0.138386E-03
      0.335000          0.138253E-03
      0.340000          0.138001E-03
      0.345000          0.137589E-03
      0.350000          0.136992E-03
      0.355000          0.136205E-03
      0.360000          0.135234E-03
      0.365000          0.134093E-03
      0.370000          0.132803E-03
      0.375000          0.131388E-03
      0.380000          0.129869E-03
      0.385000          0.128272E-03
      0.390000          0.126619E-03
      0.395000          0.124932E-03
      0.400000          0.123232E-03
      0.405000          0.121541E-03
      0.410000          0.119876E-03
      0.415000          0.118258E-03
      0.420000          0.116703E-03
      0.425000          0.115224E-03
      0.430000          0.113831E-03
      0.435000          0.112530E-03
      0.440000          0.111322E-03
      0.445000          0.110203E-03
      0.450000          0.109161E-03
      0.455000          0.108181E-03
      0.460000          0.107246E-03
      0.465000          0.106332E-03
      0.470000          0.105419E-03
      0.475000          0.104484E-03
      0.480000          0.103509E-03
      0.485000          0.102479E-03
      0.490000          0.101387E-03
      0.495000          0.100229E-03
      0.500000          0.990120E-04
