 I_abs(s)[cm^-1]/c[mg/ml]
       0.00000          0.146002E-01
      0.500000E-02      0.145635E-01
      0.100000E-01      0.144540E-01
      0.150000E-01      0.142733E-01
      0.200000E-01      0.140241E-01
      0.250000E-01      0.137099E-01
      0.300000E-01      0.133353E-01
      0.350000E-01      0.129056E-01
      0.400000E-01      0.124265E-01
      0.450000E-01      0.119047E-01
      0.500000E-01      0.113470E-01
      0.550000E-01      0.107603E-01
      0.600000E-01      0.101520E-01
      0.650000E-01      0.952895E-02
      0.700000E-01      0.889823E-02
      0.750000E-01      0.826642E-02
      0.800000E-01      0.763972E-02
      0.850000E-01      0.702381E-02
      0.900000E-01      0.642383E-02
      0.950000E-01      0.584428E-02
      0.100000          0.528897E-02
      0.105000          0.476109E-02
      0.110000          0.426309E-02
      0.115000          0.379682E-02
      0.120000          0.336346E-02
      0.125000          0.296363E-02
      0.130000          0.259742E-02
      0.135000          0.226442E-02
      0.140000          0.196384E-02
      0.145000          0.169453E-02
      0.150000          0.145507E-02
      0.155000          0.124380E-02
      0.160000          0.105891E-02
      0.165000          0.898494E-03
      0.170000          0.760568E-03
      0.175000          0.643141E-03
      0.180000          0.544240E-03
      0.185000          0.461937E-03
      0.190000          0.394378E-03
      0.195000          0.339793E-03
      0.200000          0.296518E-03
      0.205000          0.262996E-03
      0.210000          0.237784E-03
      0.215000          0.219558E-03
      0.220000          0.207109E-03
      0.225000          0.199340E-03
      0.230000          0.195270E-03
      0.235000          0.194022E-03
      0.240000          0.194823E-03
      0.245000          0.196997E-03
      0.250000          0.199964E-03
      0.255000          0.203232E-03
      0.260000          0.206390E-03
      0.265000          0.209109E-03
      0.270000          0.211131E-03
      0.275000          0.212266E-03
      0.280000          0.212386E-03
      0.285000          0.211419E-03
      0.290000          0.209343E-03
      0.295000          0.206179E-03
      0.300000          0.201984E-03
      0.305000          0.196845E-03
      0.310000          0.190873E-03
      0.315000          0.184197E-03
      0.320000          0.176955E-03
      0.325000          0.169291E-03
      0.330000          0.161351E-03
      0.335000          0.153274E-03
      0.340000          0.145192E-03
      0.345000          0.137226E-03
      0.350000          0.129485E-03
      0.355000          0.122060E-03
      0.360000          0.115029E-03
      0.365000          0.108452E-03
      0.370000          0.102374E-03
      0.375000          0.968240E-04
      0.380000          0.918190E-04
      0.385000          0.873625E-04
      0.390000          0.834475E-04
      0.395000          0.800583E-04
      0.400000          0.771717E-04
      0.405000          0.747592E-04
      0.410000          0.727883E-04
      0.415000          0.712237E-04
      0.420000          0.700288E-04
      0.425000          0.691666E-04
      0.430000          0.686004E-04
      0.435000          0.682944E-04
      0.440000          0.682142E-04
      0.445000          0.683269E-04
      0.450000          0.686016E-04
      0.455000          0.690093E-04
      0.460000          0.695227E-04
      0.465000          0.701166E-04
      0.470000          0.707675E-04
      0.475000          0.714540E-04
      0.480000          0.721563E-04
      0.485000          0.728569E-04
      0.490000          0.735397E-04
      0.495000          0.741910E-04
      0.500000          0.747992E-04
