 I_abs(s)[cm^-1]/c[mg/ml]
       0.00000          0.146479E-01
      0.500000E-02      0.146125E-01
      0.100000E-01      0.145069E-01
      0.150000E-01      0.143326E-01
      0.200000E-01      0.140919E-01
      0.250000E-01      0.137883E-01
      0.300000E-01      0.134258E-01
      0.350000E-01      0.130095E-01
      0.400000E-01      0.125447E-01
      0.450000E-01      0.120375E-01
      0.500000E-01      0.114944E-01
      0.550000E-01      0.109219E-01
      0.600000E-01      0.103269E-01
      0.650000E-01      0.971606E-02
      0.700000E-01      0.909603E-02
      0.750000E-01      0.847321E-02
      0.800000E-01      0.785360E-02
      0.850000E-01      0.724282E-02
      0.900000E-01      0.664593E-02
      0.950000E-01      0.606745E-02
      0.100000          0.551130E-02
      0.105000          0.498076E-02
      0.110000          0.447845E-02
      0.115000          0.400642E-02
      0.120000          0.356604E-02
      0.125000          0.315817E-02
      0.130000          0.278310E-02
      0.135000          0.244065E-02
      0.140000          0.213021E-02
      0.145000          0.185080E-02
      0.150000          0.160114E-02
      0.155000          0.137970E-02
      0.160000          0.118478E-02
      0.165000          0.101451E-02
      0.170000          0.866975E-03
      0.175000          0.740199E-03
      0.180000          0.632217E-03
      0.185000          0.541100E-03
      0.190000          0.464979E-03
      0.195000          0.402073E-03
      0.200000          0.350703E-03
      0.205000          0.309301E-03
      0.210000          0.276421E-03
      0.215000          0.250740E-03
      0.220000          0.231061E-03
      0.225000          0.216309E-03
      0.230000          0.205527E-03
      0.235000          0.197871E-03
      0.240000          0.192606E-03
      0.245000          0.189095E-03
      0.250000          0.186796E-03
      0.255000          0.185254E-03
      0.260000          0.184092E-03
      0.265000          0.183006E-03
      0.270000          0.181758E-03
      0.275000          0.180170E-03
      0.280000          0.178116E-03
      0.285000          0.175518E-03
      0.290000          0.172338E-03
      0.295000          0.168575E-03
      0.300000          0.164256E-03
      0.305000          0.159433E-03
      0.310000          0.154175E-03
      0.315000          0.148567E-03
      0.320000          0.142701E-03
      0.325000          0.136674E-03
      0.330000          0.130584E-03
      0.335000          0.124525E-03
      0.340000          0.118585E-03
      0.345000          0.112844E-03
      0.350000          0.107370E-03
      0.355000          0.102221E-03
      0.360000          0.974421E-04
      0.365000          0.930658E-04
      0.370000          0.891125E-04
      0.375000          0.855912E-04
      0.380000          0.825006E-04
      0.385000          0.798305E-04
      0.390000          0.775631E-04
      0.395000          0.756750E-04
      0.400000          0.741382E-04
      0.405000          0.729223E-04
      0.410000          0.719954E-04
      0.415000          0.713256E-04
      0.420000          0.708819E-04
      0.425000          0.706347E-04
      0.430000          0.705571E-04
      0.435000          0.706243E-04
      0.440000          0.708144E-04
      0.445000          0.711081E-04
      0.450000          0.714885E-04
      0.455000          0.719408E-04
      0.460000          0.724517E-04
      0.465000          0.730095E-04
      0.470000          0.736032E-04
      0.475000          0.742225E-04
      0.480000          0.748572E-04
      0.485000          0.754972E-04
      0.490000          0.761321E-04
      0.495000          0.767515E-04
      0.500000          0.773449E-04
