 I_abs(s)[cm^-1]/c[mg/ml]
       0.00000          0.145288E-01
      0.500000E-02      0.144894E-01
      0.100000E-01      0.143720E-01
      0.150000E-01      0.141783E-01
      0.200000E-01      0.139115E-01
      0.250000E-01      0.135756E-01
      0.300000E-01      0.131760E-01
      0.350000E-01      0.127187E-01
      0.400000E-01      0.122104E-01
      0.450000E-01      0.116586E-01
      0.500000E-01      0.110710E-01
      0.550000E-01      0.104556E-01
      0.600000E-01      0.982043E-02
      0.650000E-01      0.917348E-02
      0.700000E-01      0.852238E-02
      0.750000E-01      0.787434E-02
      0.800000E-01      0.723608E-02
      0.850000E-01      0.661363E-02
      0.900000E-01      0.601233E-02
      0.950000E-01      0.543672E-02
      0.100000          0.489054E-02
      0.105000          0.437673E-02
      0.110000          0.389741E-02
      0.115000          0.345392E-02
      0.120000          0.304691E-02
      0.125000          0.267635E-02
      0.130000          0.234164E-02
      0.135000          0.204167E-02
      0.140000          0.177491E-02
      0.145000          0.153950E-02
      0.150000          0.133335E-02
      0.155000          0.115418E-02
      0.160000          0.999607E-03
      0.165000          0.867247E-03
      0.170000          0.754719E-03
      0.175000          0.659726E-03
      0.180000          0.580077E-03
      0.185000          0.513726E-03
      0.190000          0.458783E-03
      0.195000          0.413535E-03
      0.200000          0.376440E-03
      0.205000          0.346139E-03
      0.210000          0.321437E-03
      0.215000          0.301307E-03
      0.220000          0.284867E-03
      0.225000          0.271373E-03
      0.230000          0.260202E-03
      0.235000          0.250841E-03
      0.240000          0.242869E-03
      0.245000          0.235944E-03
      0.250000          0.229798E-03
      0.255000          0.224215E-03
      0.260000          0.219031E-03
      0.265000          0.214122E-03
      0.270000          0.209397E-03
      0.275000          0.204791E-03
      0.280000          0.200262E-03
      0.285000          0.195785E-03
      0.290000          0.191350E-03
      0.295000          0.186956E-03
      0.300000          0.182609E-03
      0.305000          0.178321E-03
      0.310000          0.174105E-03
      0.315000          0.169976E-03
      0.320000          0.165948E-03
      0.325000          0.162032E-03
      0.330000          0.158236E-03
      0.335000          0.154564E-03
      0.340000          0.151015E-03
      0.345000          0.147586E-03
      0.350000          0.144267E-03
      0.355000          0.141046E-03
      0.360000          0.137911E-03
      0.365000          0.134844E-03
      0.370000          0.131829E-03
      0.375000          0.128850E-03
      0.380000          0.125893E-03
      0.385000          0.122945E-03
      0.390000          0.119999E-03
      0.395000          0.117049E-03
      0.400000          0.114096E-03
      0.405000          0.111143E-03
      0.410000          0.108199E-03
      0.415000          0.105276E-03
      0.420000          0.102392E-03
      0.425000          0.995640E-04
      0.430000          0.968138E-04
      0.435000          0.941633E-04
      0.440000          0.916346E-04
      0.445000          0.892488E-04
      0.450000          0.870251E-04
      0.455000          0.849804E-04
      0.460000          0.831279E-04
      0.465000          0.814770E-04
      0.470000          0.800329E-04
      0.475000          0.787960E-04
      0.480000          0.777625E-04
      0.485000          0.769242E-04
      0.490000          0.762687E-04
      0.495000          0.757803E-04
      0.500000          0.754401E-04
