 I_abs(s)[cm^-1]/c[mg/ml]
       0.00000          0.145446E-01
      0.500000E-02      0.145040E-01
      0.100000E-01      0.143830E-01
      0.150000E-01      0.141838E-01
      0.200000E-01      0.139102E-01
      0.250000E-01      0.135672E-01
      0.300000E-01      0.131609E-01
      0.350000E-01      0.126986E-01
      0.400000E-01      0.121879E-01
      0.450000E-01      0.116371E-01
      0.500000E-01      0.110547E-01
      0.550000E-01      0.104490E-01
      0.600000E-01      0.982836E-02
      0.650000E-01      0.920038E-02
      0.700000E-01      0.857228E-02
      0.750000E-01      0.795052E-02
      0.800000E-01      0.734079E-02
      0.850000E-01      0.674794E-02
      0.900000E-01      0.617601E-02
      0.950000E-01      0.562821E-02
      0.100000          0.510702E-02
      0.105000          0.461422E-02
      0.110000          0.415097E-02
      0.115000          0.371791E-02
      0.120000          0.331526E-02
      0.125000          0.294286E-02
      0.130000          0.260026E-02
      0.135000          0.228680E-02
      0.140000          0.200162E-02
      0.145000          0.174373E-02
      0.150000          0.151202E-02
      0.155000          0.130529E-02
      0.160000          0.112225E-02
      0.165000          0.961527E-03
      0.170000          0.821688E-03
      0.175000          0.701232E-03
      0.180000          0.598603E-03
      0.185000          0.512207E-03
      0.190000          0.440425E-03
      0.195000          0.381636E-03
      0.200000          0.334234E-03
      0.205000          0.296659E-03
      0.210000          0.267416E-03
      0.215000          0.245103E-03
      0.220000          0.228425E-03
      0.225000          0.216215E-03
      0.230000          0.207444E-03
      0.235000          0.201227E-03
      0.240000          0.196823E-03
      0.245000          0.193631E-03
      0.250000          0.191183E-03
      0.255000          0.189128E-03
      0.260000          0.187219E-03
      0.265000          0.185294E-03
      0.270000          0.183262E-03
      0.275000          0.181081E-03
      0.280000          0.178750E-03
      0.285000          0.176289E-03
      0.290000          0.173730E-03
      0.295000          0.171111E-03
      0.300000          0.168467E-03
      0.305000          0.165826E-03
      0.310000          0.163211E-03
      0.315000          0.160635E-03
      0.320000          0.158105E-03
      0.325000          0.155621E-03
      0.330000          0.153179E-03
      0.335000          0.150769E-03
      0.340000          0.148384E-03
      0.345000          0.146011E-03
      0.350000          0.143641E-03
      0.355000          0.141260E-03
      0.360000          0.138860E-03
      0.365000          0.136428E-03
      0.370000          0.133957E-03
      0.375000          0.131436E-03
      0.380000          0.128858E-03
      0.385000          0.126219E-03
      0.390000          0.123517E-03
      0.395000          0.120751E-03
      0.400000          0.117929E-03
      0.405000          0.115060E-03
      0.410000          0.112160E-03
      0.415000          0.109248E-03
      0.420000          0.106349E-03
      0.425000          0.103490E-03
      0.430000          0.100700E-03
      0.435000          0.980106E-04
      0.440000          0.954498E-04
      0.445000          0.930440E-04
      0.450000          0.908152E-04
      0.455000          0.887792E-04
      0.460000          0.869455E-04
      0.465000          0.853157E-04
      0.470000          0.838843E-04
      0.475000          0.826383E-04
      0.480000          0.815588E-04
      0.485000          0.806216E-04
      0.490000          0.797989E-04
      0.495000          0.790612E-04
      0.500000          0.783790E-04
