 I_abs(s)[cm^-1]/c[mg/ml]
       0.00000          0.144180E-01
      0.500000E-02      0.143652E-01
      0.100000E-01      0.142079E-01
      0.150000E-01      0.139500E-01
      0.200000E-01      0.135975E-01
      0.250000E-01      0.131585E-01
      0.300000E-01      0.126431E-01
      0.350000E-01      0.120626E-01
      0.400000E-01      0.114293E-01
      0.450000E-01      0.107561E-01
      0.500000E-01      0.100561E-01
      0.550000E-01      0.934206E-02
      0.600000E-01      0.862597E-02
      0.650000E-01      0.791889E-02
      0.700000E-01      0.723058E-02
      0.750000E-01      0.656933E-02
      0.800000E-01      0.594184E-02
      0.850000E-01      0.535318E-02
      0.900000E-01      0.480681E-02
      0.950000E-01      0.430468E-02
      0.100000          0.384736E-02
      0.105000          0.343421E-02
      0.110000          0.306362E-02
      0.115000          0.273319E-02
      0.120000          0.243999E-02
      0.125000          0.218070E-02
      0.130000          0.195189E-02
      0.135000          0.175010E-02
      0.140000          0.157203E-02
      0.145000          0.141460E-02
      0.150000          0.127504E-02
      0.155000          0.115091E-02
      0.160000          0.104012E-02
      0.165000          0.940942E-03
      0.170000          0.851920E-03
      0.175000          0.771891E-03
      0.180000          0.699914E-03
      0.185000          0.635223E-03
      0.190000          0.577190E-03
      0.195000          0.525280E-03
      0.200000          0.479018E-03
      0.205000          0.437966E-03
      0.210000          0.401702E-03
      0.215000          0.369812E-03
      0.220000          0.341883E-03
      0.225000          0.317504E-03
      0.230000          0.296269E-03
      0.235000          0.277783E-03
      0.240000          0.261668E-03
      0.245000          0.247571E-03
      0.250000          0.235166E-03
      0.255000          0.224165E-03
      0.260000          0.214312E-03
      0.265000          0.205392E-03
      0.270000          0.197227E-03
      0.275000          0.189674E-03
      0.280000          0.182626E-03
      0.285000          0.176005E-03
      0.290000          0.169762E-03
      0.295000          0.163868E-03
      0.300000          0.158315E-03
      0.305000          0.153109E-03
      0.310000          0.148265E-03
      0.315000          0.143806E-03
      0.320000          0.139753E-03
      0.325000          0.136128E-03
      0.330000          0.132946E-03
      0.335000          0.130215E-03
      0.340000          0.127931E-03
      0.345000          0.126078E-03
      0.350000          0.124628E-03
      0.355000          0.123539E-03
      0.360000          0.122758E-03
      0.365000          0.122224E-03
      0.370000          0.121866E-03
      0.375000          0.121610E-03
      0.380000          0.121383E-03
      0.385000          0.121113E-03
      0.390000          0.120736E-03
      0.395000          0.120197E-03
      0.400000          0.119453E-03
      0.405000          0.118474E-03
      0.410000          0.117245E-03
      0.415000          0.115767E-03
      0.420000          0.114053E-03
      0.425000          0.112129E-03
      0.430000          0.110031E-03
      0.435000          0.107801E-03
      0.440000          0.105489E-03
      0.445000          0.103145E-03
      0.450000          0.100817E-03
      0.455000          0.985520E-04
      0.460000          0.963920E-04
      0.465000          0.943719E-04
      0.470000          0.925195E-04
      0.475000          0.908549E-04
      0.480000          0.893906E-04
      0.485000          0.881320E-04
      0.490000          0.870775E-04
      0.495000          0.862200E-04
      0.500000          0.855474E-04
