 I_abs(s)[cm^-1]/c[mg/ml]
       0.00000          0.147675E-01
      0.500000E-02      0.147288E-01
      0.100000E-01      0.146132E-01
      0.150000E-01      0.144226E-01
      0.200000E-01      0.141599E-01
      0.250000E-01      0.138292E-01
      0.300000E-01      0.134355E-01
      0.350000E-01      0.129847E-01
      0.400000E-01      0.124833E-01
      0.450000E-01      0.119386E-01
      0.500000E-01      0.113579E-01
      0.550000E-01      0.107491E-01
      0.600000E-01      0.101198E-01
      0.650000E-01      0.947775E-02
      0.700000E-01      0.883023E-02
      0.750000E-01      0.818421E-02
      0.800000E-01      0.754615E-02
      0.850000E-01      0.692186E-02
      0.900000E-01      0.631651E-02
      0.950000E-01      0.573451E-02
      0.100000          0.517956E-02
      0.105000          0.465456E-02
      0.110000          0.416171E-02
      0.115000          0.370250E-02
      0.120000          0.327776E-02
      0.125000          0.288773E-02
      0.130000          0.253212E-02
      0.135000          0.221018E-02
      0.140000          0.192080E-02
      0.145000          0.166252E-02
      0.150000          0.143367E-02
      0.155000          0.123240E-02
      0.160000          0.105674E-02
      0.165000          0.904656E-03
      0.170000          0.774100E-03
      0.175000          0.663040E-03
      0.180000          0.569491E-03
      0.185000          0.491544E-03
      0.190000          0.427376E-03
      0.195000          0.375267E-03
      0.200000          0.333607E-03
      0.205000          0.300900E-03
      0.210000          0.275769E-03
      0.215000          0.256950E-03
      0.220000          0.243299E-03
      0.225000          0.233784E-03
      0.230000          0.227484E-03
      0.235000          0.223589E-03
      0.240000          0.221391E-03
      0.245000          0.220287E-03
      0.250000          0.219768E-03
      0.255000          0.219421E-03
      0.260000          0.218917E-03
      0.265000          0.218010E-03
      0.270000          0.216527E-03
      0.275000          0.214361E-03
      0.280000          0.211466E-03
      0.285000          0.207842E-03
      0.290000          0.203532E-03
      0.295000          0.198610E-03
      0.300000          0.193174E-03
      0.305000          0.187334E-03
      0.310000          0.181210E-03
      0.315000          0.174920E-03
      0.320000          0.168578E-03
      0.325000          0.162287E-03
      0.330000          0.156138E-03
      0.335000          0.150204E-03
      0.340000          0.144544E-03
      0.345000          0.139201E-03
      0.350000          0.134200E-03
      0.355000          0.129556E-03
      0.360000          0.125270E-03
      0.365000          0.121335E-03
      0.370000          0.117736E-03
      0.375000          0.114455E-03
      0.380000          0.111472E-03
      0.385000          0.108767E-03
      0.390000          0.106321E-03
      0.395000          0.104117E-03
      0.400000          0.102142E-03
      0.405000          0.100383E-03
      0.410000          0.988326E-04
      0.415000          0.974829E-04
      0.420000          0.963280E-04
      0.425000          0.953618E-04
      0.430000          0.945773E-04
      0.435000          0.939654E-04
      0.440000          0.935148E-04
      0.445000          0.932111E-04
      0.450000          0.930365E-04
      0.455000          0.929703E-04
      0.460000          0.929885E-04
      0.465000          0.930647E-04
      0.470000          0.931709E-04
      0.475000          0.932782E-04
      0.480000          0.933576E-04
      0.485000          0.933814E-04
      0.490000          0.933239E-04
      0.495000          0.931624E-04
      0.500000          0.928780E-04
