 I_abs(s)[cm^-1]/c[mg/ml]
       0.00000          0.144180E-01
      0.500000E-02      0.143775E-01
      0.100000E-01      0.142567E-01
      0.150000E-01      0.140575E-01
      0.200000E-01      0.137831E-01
      0.250000E-01      0.134377E-01
      0.300000E-01      0.130268E-01
      0.350000E-01      0.125565E-01
      0.400000E-01      0.120339E-01
      0.450000E-01      0.114668E-01
      0.500000E-01      0.108631E-01
      0.550000E-01      0.102313E-01
      0.600000E-01      0.957978E-02
      0.650000E-01      0.891683E-02
      0.700000E-01      0.825056E-02
      0.750000E-01      0.758861E-02
      0.800000E-01      0.693811E-02
      0.850000E-01      0.630549E-02
      0.900000E-01      0.569646E-02
      0.950000E-01      0.511589E-02
      0.100000          0.456780E-02
      0.105000          0.405532E-02
      0.110000          0.358072E-02
      0.115000          0.314540E-02
      0.120000          0.274997E-02
      0.125000          0.239428E-02
      0.130000          0.207753E-02
      0.135000          0.179833E-02
      0.140000          0.155479E-02
      0.145000          0.134464E-02
      0.150000          0.116529E-02
      0.155000          0.101396E-02
      0.160000          0.887749E-03
      0.165000          0.783710E-03
      0.170000          0.698941E-03
      0.175000          0.630634E-03
      0.180000          0.576133E-03
      0.185000          0.532975E-03
      0.190000          0.498919E-03
      0.195000          0.471965E-03
      0.200000          0.450369E-03
      0.205000          0.432637E-03
      0.210000          0.417528E-03
      0.215000          0.404034E-03
      0.220000          0.391369E-03
      0.225000          0.378943E-03
      0.230000          0.366344E-03
      0.235000          0.353310E-03
      0.240000          0.339705E-03
      0.245000          0.325496E-03
      0.250000          0.310730E-03
      0.255000          0.295513E-03
      0.260000          0.279990E-03
      0.265000          0.264331E-03
      0.270000          0.248717E-03
      0.275000          0.233325E-03
      0.280000          0.218326E-03
      0.285000          0.203873E-03
      0.290000          0.190098E-03
      0.295000          0.177112E-03
      0.300000          0.165000E-03
      0.305000          0.153822E-03
      0.310000          0.143615E-03
      0.315000          0.134396E-03
      0.320000          0.126161E-03
      0.325000          0.118889E-03
      0.330000          0.112546E-03
      0.335000          0.107084E-03
      0.340000          0.102449E-03
      0.345000          0.985782E-04
      0.350000          0.954070E-04
      0.355000          0.928673E-04
      0.360000          0.908911E-04
      0.365000          0.894119E-04
      0.370000          0.883657E-04
      0.375000          0.876921E-04
      0.380000          0.873350E-04
      0.385000          0.872429E-04
      0.390000          0.873695E-04
      0.395000          0.876734E-04
      0.400000          0.881182E-04
      0.405000          0.886718E-04
      0.410000          0.893067E-04
      0.415000          0.899990E-04
      0.420000          0.907279E-04
      0.425000          0.914755E-04
      0.430000          0.922259E-04
      0.435000          0.929650E-04
      0.440000          0.936798E-04
      0.445000          0.943585E-04
      0.450000          0.949898E-04
      0.455000          0.955628E-04
      0.460000          0.960675E-04
      0.465000          0.964940E-04
      0.470000          0.968335E-04
      0.475000          0.970777E-04
      0.480000          0.972196E-04
      0.485000          0.972537E-04
      0.490000          0.971757E-04
      0.495000          0.969837E-04
      0.500000          0.966775E-04
