 I_abs(s)[cm^-1]/c[mg/ml]
       0.00000          0.143391E-01
      0.500000E-02      0.142999E-01
      0.100000E-01      0.141828E-01
      0.150000E-01      0.139897E-01
      0.200000E-01      0.137238E-01
      0.250000E-01      0.133894E-01
      0.300000E-01      0.129918E-01
      0.350000E-01      0.125371E-01
      0.400000E-01      0.120324E-01
      0.450000E-01      0.114850E-01
      0.500000E-01      0.109030E-01
      0.550000E-01      0.102944E-01
      0.600000E-01      0.966720E-02
      0.650000E-01      0.902949E-02
      0.700000E-01      0.838886E-02
      0.750000E-01      0.775251E-02
      0.800000E-01      0.712702E-02
      0.850000E-01      0.651832E-02
      0.900000E-01      0.593157E-02
      0.950000E-01      0.537113E-02
      0.100000          0.484051E-02
      0.105000          0.434243E-02
      0.110000          0.387876E-02
      0.115000          0.345063E-02
      0.120000          0.305845E-02
      0.125000          0.270199E-02
      0.130000          0.238047E-02
      0.135000          0.209264E-02
      0.140000          0.183683E-02
      0.145000          0.161113E-02
      0.150000          0.141338E-02
      0.155000          0.124129E-02
      0.160000          0.109253E-02
      0.165000          0.964737E-03
      0.170000          0.855625E-03
      0.175000          0.762991E-03
      0.180000          0.684760E-03
      0.185000          0.619006E-03
      0.190000          0.563966E-03
      0.195000          0.518043E-03
      0.200000          0.479814E-03
      0.205000          0.448017E-03
      0.210000          0.421547E-03
      0.215000          0.399444E-03
      0.220000          0.380876E-03
      0.225000          0.365132E-03
      0.230000          0.351602E-03
      0.235000          0.339769E-03
      0.240000          0.329196E-03
      0.245000          0.319513E-03
      0.250000          0.310413E-03
      0.255000          0.301642E-03
      0.260000          0.292994E-03
      0.265000          0.284306E-03
      0.270000          0.275454E-03
      0.275000          0.266351E-03
      0.280000          0.256942E-03
      0.285000          0.247204E-03
      0.290000          0.237142E-03
      0.295000          0.226786E-03
      0.300000          0.216188E-03
      0.305000          0.205419E-03
      0.310000          0.194564E-03
      0.315000          0.183720E-03
      0.320000          0.172991E-03
      0.325000          0.162482E-03
      0.330000          0.152300E-03
      0.335000          0.142545E-03
      0.340000          0.133309E-03
      0.345000          0.124672E-03
      0.350000          0.116703E-03
      0.355000          0.109454E-03
      0.360000          0.102961E-03
      0.365000          0.972435E-04
      0.370000          0.923050E-04
      0.375000          0.881332E-04
      0.380000          0.847015E-04
      0.385000          0.819709E-04
      0.390000          0.798921E-04
      0.395000          0.784075E-04
      0.400000          0.774536E-04
      0.405000          0.769637E-04
      0.410000          0.768695E-04
      0.415000          0.771036E-04
      0.420000          0.776011E-04
      0.425000          0.783013E-04
      0.430000          0.791484E-04
      0.435000          0.800927E-04
      0.440000          0.810907E-04
      0.445000          0.821057E-04
      0.450000          0.831070E-04
      0.455000          0.840702E-04
      0.460000          0.849760E-04
      0.465000          0.858098E-04
      0.470000          0.865611E-04
      0.475000          0.872221E-04
      0.480000          0.877875E-04
      0.485000          0.882536E-04
      0.490000          0.886176E-04
      0.495000          0.888775E-04
      0.500000          0.890312E-04
