 I_abs(s)[cm^-1]/c[mg/ml]
       0.00000          0.144022E-01
      0.500000E-02      0.143569E-01
      0.100000E-01      0.142220E-01
      0.150000E-01      0.139999E-01
      0.200000E-01      0.136947E-01
      0.250000E-01      0.133120E-01
      0.300000E-01      0.128587E-01
      0.350000E-01      0.123427E-01
      0.400000E-01      0.117729E-01
      0.450000E-01      0.111588E-01
      0.500000E-01      0.105104E-01
      0.550000E-01      0.983781E-02
      0.600000E-01      0.915088E-02
      0.650000E-01      0.845928E-02
      0.700000E-01      0.777208E-02
      0.750000E-01      0.709762E-02
      0.800000E-01      0.644335E-02
      0.850000E-01      0.581573E-02
      0.900000E-01      0.522015E-02
      0.950000E-01      0.466085E-02
      0.100000          0.414099E-02
      0.105000          0.366262E-02
      0.110000          0.322676E-02
      0.115000          0.283350E-02
      0.120000          0.248206E-02
      0.125000          0.217098E-02
      0.130000          0.189818E-02
      0.135000          0.166111E-02
      0.140000          0.145690E-02
      0.145000          0.128247E-02
      0.150000          0.113462E-02
      0.155000          0.101017E-02
      0.160000          0.906019E-03
      0.165000          0.819215E-03
      0.170000          0.747016E-03
      0.175000          0.686925E-03
      0.180000          0.636712E-03
      0.185000          0.594426E-03
      0.190000          0.558390E-03
      0.195000          0.527195E-03
      0.200000          0.499679E-03
      0.205000          0.474907E-03
      0.210000          0.452145E-03
      0.215000          0.430832E-03
      0.220000          0.410559E-03
      0.225000          0.391034E-03
      0.230000          0.372069E-03
      0.235000          0.353553E-03
      0.240000          0.335437E-03
      0.245000          0.317716E-03
      0.250000          0.300421E-03
      0.255000          0.283604E-03
      0.260000          0.267333E-03
      0.265000          0.251686E-03
      0.270000          0.236742E-03
      0.275000          0.222581E-03
      0.280000          0.209277E-03
      0.285000          0.196896E-03
      0.290000          0.185494E-03
      0.295000          0.175114E-03
      0.300000          0.165784E-03
      0.305000          0.157515E-03
      0.310000          0.150299E-03
      0.315000          0.144112E-03
      0.320000          0.138910E-03
      0.325000          0.134634E-03
      0.330000          0.131207E-03
      0.335000          0.128540E-03
      0.340000          0.126532E-03
      0.345000          0.125075E-03
      0.350000          0.124059E-03
      0.355000          0.123369E-03
      0.360000          0.122899E-03
      0.365000          0.122545E-03
      0.370000          0.122213E-03
      0.375000          0.121823E-03
      0.380000          0.121307E-03
      0.385000          0.120612E-03
      0.390000          0.119701E-03
      0.395000          0.118551E-03
      0.400000          0.117155E-03
      0.405000          0.115518E-03
      0.410000          0.113656E-03
      0.415000          0.111594E-03
      0.420000          0.109367E-03
      0.425000          0.107012E-03
      0.430000          0.104570E-03
      0.435000          0.102083E-03
      0.440000          0.995922E-04
      0.445000          0.971360E-04
      0.450000          0.947502E-04
      0.455000          0.924665E-04
      0.460000          0.903117E-04
      0.465000          0.883084E-04
      0.470000          0.864741E-04
      0.475000          0.848220E-04
      0.480000          0.833611E-04
      0.485000          0.820967E-04
      0.490000          0.810306E-04
      0.495000          0.801616E-04
      0.500000          0.794859E-04
