 I_abs(s)[cm^-1]/c[mg/ml]
       0.00000          0.143391E-01
      0.500000E-02      0.142900E-01
      0.100000E-01      0.141435E-01
      0.150000E-01      0.139030E-01
      0.200000E-01      0.135735E-01
      0.250000E-01      0.131621E-01
      0.300000E-01      0.126773E-01
      0.350000E-01      0.121289E-01
      0.400000E-01      0.115277E-01
      0.450000E-01      0.108849E-01
      0.500000E-01      0.102121E-01
      0.550000E-01      0.952094E-02
      0.600000E-01      0.882227E-02
      0.650000E-01      0.812646E-02
      0.700000E-01      0.744286E-02
      0.750000E-01      0.677967E-02
      0.800000E-01      0.614383E-02
      0.850000E-01      0.554094E-02
      0.900000E-01      0.497523E-02
      0.950000E-01      0.444962E-02
      0.100000          0.396576E-02
      0.105000          0.352421E-02
      0.110000          0.312454E-02
      0.115000          0.276549E-02
      0.120000          0.244515E-02
      0.125000          0.216115E-02
      0.130000          0.191078E-02
      0.135000          0.169114E-02
      0.140000          0.149929E-02
      0.145000          0.133235E-02
      0.150000          0.118753E-02
      0.155000          0.106225E-02
      0.160000          0.954119E-03
      0.165000          0.861000E-03
      0.170000          0.780968E-03
      0.175000          0.712318E-03
      0.180000          0.653543E-03
      0.185000          0.603310E-03
      0.190000          0.560435E-03
      0.195000          0.523858E-03
      0.200000          0.492626E-03
      0.205000          0.465876E-03
      0.210000          0.442825E-03
      0.215000          0.422761E-03
      0.220000          0.405043E-03
      0.225000          0.389101E-03
      0.230000          0.374437E-03
      0.235000          0.360630E-03
      0.240000          0.347336E-03
      0.245000          0.334292E-03
      0.250000          0.321311E-03
      0.255000          0.308281E-03
      0.260000          0.295158E-03
      0.265000          0.281959E-03
      0.270000          0.268749E-03
      0.275000          0.255630E-03
      0.280000          0.242730E-03
      0.285000          0.230190E-03
      0.290000          0.218150E-03
      0.295000          0.206744E-03
      0.300000          0.196085E-03
      0.305000          0.186262E-03
      0.310000          0.177336E-03
      0.315000          0.169338E-03
      0.320000          0.162268E-03
      0.325000          0.156098E-03
      0.330000          0.150773E-03
      0.335000          0.146219E-03
      0.340000          0.142349E-03
      0.345000          0.139061E-03
      0.350000          0.136253E-03
      0.355000          0.133821E-03
      0.360000          0.131666E-03
      0.365000          0.129698E-03
      0.370000          0.127837E-03
      0.375000          0.126016E-03
      0.380000          0.124183E-03
      0.385000          0.122297E-03
      0.390000          0.120333E-03
      0.395000          0.118277E-03
      0.400000          0.116128E-03
      0.405000          0.113891E-03
      0.410000          0.111584E-03
      0.415000          0.109227E-03
      0.420000          0.106846E-03
      0.425000          0.104470E-03
      0.430000          0.102130E-03
      0.435000          0.998539E-04
      0.440000          0.976719E-04
      0.445000          0.956098E-04
      0.450000          0.936905E-04
      0.455000          0.919329E-04
      0.460000          0.903514E-04
      0.465000          0.889555E-04
      0.470000          0.877497E-04
      0.475000          0.867331E-04
      0.480000          0.859002E-04
      0.485000          0.852407E-04
      0.490000          0.847401E-04
      0.495000          0.843806E-04
      0.500000          0.841414E-04
