 I_abs(s)[cm^-1]/c[mg/ml]
       0.00000          0.145050E-01
      0.500000E-02      0.144679E-01
      0.100000E-01      0.143573E-01
      0.150000E-01      0.141749E-01
      0.200000E-01      0.139235E-01
      0.250000E-01      0.136068E-01
      0.300000E-01      0.132298E-01
      0.350000E-01      0.127978E-01
      0.400000E-01      0.123172E-01
      0.450000E-01      0.117947E-01
      0.500000E-01      0.112373E-01
      0.550000E-01      0.106523E-01
      0.600000E-01      0.100471E-01
      0.650000E-01      0.942885E-02
      0.700000E-01      0.880447E-02
      0.750000E-01      0.818056E-02
      0.800000E-01      0.756319E-02
      0.850000E-01      0.695788E-02
      0.900000E-01      0.636952E-02
      0.950000E-01      0.580233E-02
      0.100000          0.525984E-02
      0.105000          0.474486E-02
      0.110000          0.425955E-02
      0.115000          0.380543E-02
      0.120000          0.338340E-02
      0.125000          0.299382E-02
      0.130000          0.263659E-02
      0.135000          0.231116E-02
      0.140000          0.201664E-02
      0.145000          0.175186E-02
      0.150000          0.151542E-02
      0.155000          0.130575E-02
      0.160000          0.112115E-02
      0.165000          0.959869E-03
      0.170000          0.820102E-03
      0.175000          0.700045E-03
      0.180000          0.597917E-03
      0.185000          0.511975E-03
      0.190000          0.440531E-03
      0.195000          0.381964E-03
      0.200000          0.334728E-03
      0.205000          0.297358E-03
      0.210000          0.268474E-03
      0.215000          0.246783E-03
      0.220000          0.231086E-03
      0.225000          0.220277E-03
      0.230000          0.213345E-03
      0.235000          0.209377E-03
      0.240000          0.207560E-03
      0.245000          0.207181E-03
      0.250000          0.207625E-03
      0.255000          0.208376E-03
      0.260000          0.209016E-03
      0.265000          0.209215E-03
      0.270000          0.208734E-03
      0.275000          0.207411E-03
      0.280000          0.205158E-03
      0.285000          0.201950E-03
      0.290000          0.197813E-03
      0.295000          0.192821E-03
      0.300000          0.187077E-03
      0.305000          0.180709E-03
      0.310000          0.173857E-03
      0.315000          0.166667E-03
      0.320000          0.159282E-03
      0.325000          0.151834E-03
      0.330000          0.144446E-03
      0.335000          0.137218E-03
      0.340000          0.130235E-03
      0.345000          0.123561E-03
      0.350000          0.117242E-03
      0.355000          0.111304E-03
      0.360000          0.105762E-03
      0.365000          0.100614E-03
      0.370000          0.958528E-04
      0.375000          0.914615E-04
      0.380000          0.874213E-04
      0.385000          0.837123E-04
      0.390000          0.803152E-04
      0.395000          0.772133E-04
      0.400000          0.743935E-04
      0.405000          0.718461E-04
      0.410000          0.695653E-04
      0.415000          0.675482E-04
      0.420000          0.657943E-04
      0.425000          0.643037E-04
      0.430000          0.630770E-04
      0.435000          0.621131E-04
      0.440000          0.614087E-04
      0.445000          0.609573E-04
      0.450000          0.607488E-04
      0.455000          0.607689E-04
      0.460000          0.609994E-04
      0.465000          0.614182E-04
      0.470000          0.620001E-04
      0.475000          0.627178E-04
      0.480000          0.635422E-04
      0.485000          0.644441E-04
      0.490000          0.653948E-04
      0.495000          0.663673E-04
      0.500000          0.673372E-04
