 I_abs(s)[cm^-1]/c[mg/ml]
       0.00000          0.145525E-01
      0.500000E-02      0.145158E-01
      0.100000E-01      0.144060E-01
      0.150000E-01      0.142247E-01
      0.200000E-01      0.139747E-01
      0.250000E-01      0.136594E-01
      0.300000E-01      0.132833E-01
      0.350000E-01      0.128516E-01
      0.400000E-01      0.123703E-01
      0.450000E-01      0.118456E-01
      0.500000E-01      0.112846E-01
      0.550000E-01      0.106942E-01
      0.600000E-01      0.100816E-01
      0.650000E-01      0.945411E-02
      0.700000E-01      0.881862E-02
      0.750000E-01      0.818190E-02
      0.800000E-01      0.755030E-02
      0.850000E-01      0.692969E-02
      0.900000E-01      0.632537E-02
      0.950000E-01      0.574202E-02
      0.100000          0.518364E-02
      0.105000          0.465357E-02
      0.110000          0.415443E-02
      0.115000          0.368817E-02
      0.120000          0.325606E-02
      0.125000          0.285877E-02
      0.130000          0.249639E-02
      0.135000          0.216848E-02
      0.140000          0.187417E-02
      0.145000          0.161218E-02
      0.150000          0.138092E-02
      0.155000          0.117856E-02
      0.160000          0.100307E-02
      0.165000          0.852320E-03
      0.170000          0.724093E-03
      0.175000          0.616170E-03
      0.180000          0.526356E-03
      0.185000          0.452525E-03
      0.190000          0.392650E-03
      0.195000          0.344820E-03
      0.200000          0.307265E-03
      0.205000          0.278361E-03
      0.210000          0.256638E-03
      0.215000          0.240782E-03
      0.220000          0.229631E-03
      0.225000          0.222167E-03
      0.230000          0.217514E-03
      0.235000          0.214924E-03
      0.240000          0.213768E-03
      0.245000          0.213522E-03
      0.250000          0.213763E-03
      0.255000          0.214149E-03
      0.260000          0.214416E-03
      0.265000          0.214364E-03
      0.270000          0.213848E-03
      0.275000          0.212774E-03
      0.280000          0.211087E-03
      0.285000          0.208763E-03
      0.290000          0.205811E-03
      0.295000          0.202259E-03
      0.300000          0.198153E-03
      0.305000          0.193553E-03
      0.310000          0.188529E-03
      0.315000          0.183155E-03
      0.320000          0.177512E-03
      0.325000          0.171678E-03
      0.330000          0.165731E-03
      0.335000          0.159745E-03
      0.340000          0.153790E-03
      0.345000          0.147927E-03
      0.350000          0.142213E-03
      0.355000          0.136694E-03
      0.360000          0.131410E-03
      0.365000          0.126391E-03
      0.370000          0.121660E-03
      0.375000          0.117233E-03
      0.380000          0.113118E-03
      0.385000          0.109318E-03
      0.390000          0.105828E-03
      0.395000          0.102643E-03
      0.400000          0.997504E-04
      0.405000          0.971378E-04
      0.410000          0.947900E-04
      0.415000          0.926908E-04
      0.420000          0.908239E-04
      0.425000          0.891729E-04
      0.430000          0.877219E-04
      0.435000          0.864560E-04
      0.440000          0.853608E-04
      0.445000          0.844229E-04
      0.450000          0.836301E-04
      0.455000          0.829704E-04
      0.460000          0.824329E-04
      0.465000          0.820066E-04
      0.470000          0.816810E-04
      0.475000          0.814458E-04
      0.480000          0.812903E-04
      0.485000          0.812039E-04
      0.490000          0.811756E-04
      0.495000          0.811944E-04
      0.500000          0.812489E-04
