 I_abs(s)[cm^-1]/c[mg/ml]
       0.00000          0.142919E-01
      0.500000E-02      0.142405E-01
      0.100000E-01      0.140872E-01
      0.150000E-01      0.138358E-01
      0.200000E-01      0.134917E-01
      0.250000E-01      0.130628E-01
      0.300000E-01      0.125583E-01
      0.350000E-01      0.119892E-01
      0.400000E-01      0.113671E-01
      0.450000E-01      0.107045E-01
      0.500000E-01      0.100141E-01
      0.550000E-01      0.930840E-02
      0.600000E-01      0.859931E-02
      0.650000E-01      0.789797E-02
      0.700000E-01      0.721436E-02
      0.750000E-01      0.655713E-02
      0.800000E-01      0.593340E-02
      0.850000E-01      0.534875E-02
      0.900000E-01      0.480713E-02
      0.950000E-01      0.431095E-02
      0.100000          0.386117E-02
      0.105000          0.345742E-02
      0.110000          0.309822E-02
      0.115000          0.278113E-02
      0.120000          0.250303E-02
      0.125000          0.226028E-02
      0.130000          0.204896E-02
      0.135000          0.186506E-02
      0.140000          0.170465E-02
      0.145000          0.156398E-02
      0.150000          0.143967E-02
      0.155000          0.132869E-02
      0.160000          0.122849E-02
      0.165000          0.113694E-02
      0.170000          0.105238E-02
      0.175000          0.973565E-03
      0.180000          0.899598E-03
      0.185000          0.829912E-03
      0.190000          0.764185E-03
      0.195000          0.702280E-03
      0.200000          0.644188E-03
      0.205000          0.589968E-03
      0.210000          0.539710E-03
      0.215000          0.493489E-03
      0.220000          0.451344E-03
      0.225000          0.413261E-03
      0.230000          0.379160E-03
      0.235000          0.348898E-03
      0.240000          0.322274E-03
      0.245000          0.299037E-03
      0.250000          0.278898E-03
      0.255000          0.261544E-03
      0.260000          0.246652E-03
      0.265000          0.233897E-03
      0.270000          0.222969E-03
      0.275000          0.213574E-03
      0.280000          0.205446E-03
      0.285000          0.198347E-03
      0.290000          0.192068E-03
      0.295000          0.186432E-03
      0.300000          0.181290E-03
      0.305000          0.176521E-03
      0.310000          0.172026E-03
      0.315000          0.167729E-03
      0.320000          0.163573E-03
      0.325000          0.159516E-03
      0.330000          0.155529E-03
      0.335000          0.151597E-03
      0.340000          0.147712E-03
      0.345000          0.143878E-03
      0.350000          0.140102E-03
      0.355000          0.136398E-03
      0.360000          0.132785E-03
      0.365000          0.129284E-03
      0.370000          0.125914E-03
      0.375000          0.122698E-03
      0.380000          0.119651E-03
      0.385000          0.116790E-03
      0.390000          0.114125E-03
      0.395000          0.111659E-03
      0.400000          0.109392E-03
      0.405000          0.107316E-03
      0.410000          0.105420E-03
      0.415000          0.103686E-03
      0.420000          0.102094E-03
      0.425000          0.100620E-03
      0.430000          0.992400E-04
      0.435000          0.979302E-04
      0.440000          0.966680E-04
      0.445000          0.954339E-04
      0.450000          0.942116E-04
      0.455000          0.929892E-04
      0.460000          0.917590E-04
      0.465000          0.905178E-04
      0.470000          0.892664E-04
      0.475000          0.880089E-04
      0.480000          0.867519E-04
      0.485000          0.855040E-04
      0.490000          0.842745E-04
      0.495000          0.830726E-04
      0.500000          0.819068E-04
