 I_abs(s)[cm^-1]/c[mg/ml]
       0.00000          0.147037E-01
      0.500000E-02      0.146673E-01
      0.100000E-01      0.145588E-01
      0.150000E-01      0.143796E-01
      0.200000E-01      0.141325E-01
      0.250000E-01      0.138209E-01
      0.300000E-01      0.134493E-01
      0.350000E-01      0.130229E-01
      0.400000E-01      0.125474E-01
      0.450000E-01      0.120294E-01
      0.500000E-01      0.114753E-01
      0.550000E-01      0.108924E-01
      0.600000E-01      0.102874E-01
      0.650000E-01      0.966760E-02
      0.700000E-01      0.903965E-02
      0.750000E-01      0.841009E-02
      0.800000E-01      0.778507E-02
      0.850000E-01      0.717020E-02
      0.900000E-01      0.657055E-02
      0.950000E-01      0.599059E-02
      0.100000          0.543411E-02
      0.105000          0.490428E-02
      0.110000          0.440358E-02
      0.115000          0.393387E-02
      0.120000          0.349638E-02
      0.125000          0.309177E-02
      0.130000          0.272020E-02
      0.135000          0.238134E-02
      0.140000          0.207447E-02
      0.145000          0.179853E-02
      0.150000          0.155217E-02
      0.155000          0.133382E-02
      0.160000          0.114176E-02
      0.165000          0.974139E-03
      0.170000          0.829060E-03
      0.175000          0.704586E-03
      0.180000          0.598795E-03
      0.185000          0.509802E-03
      0.190000          0.435784E-03
      0.195000          0.374997E-03
      0.200000          0.325789E-03
      0.205000          0.286613E-03
      0.210000          0.256026E-03
      0.215000          0.232700E-03
      0.220000          0.215421E-03
      0.225000          0.203084E-03
      0.230000          0.194700E-03
      0.235000          0.189384E-03
      0.240000          0.186362E-03
      0.245000          0.184956E-03
      0.250000          0.184590E-03
      0.255000          0.184779E-03
      0.260000          0.185126E-03
      0.265000          0.185315E-03
      0.270000          0.185110E-03
      0.275000          0.184339E-03
      0.280000          0.182896E-03
      0.285000          0.180731E-03
      0.290000          0.177838E-03
      0.295000          0.174253E-03
      0.300000          0.170045E-03
      0.305000          0.165304E-03
      0.310000          0.160139E-03
      0.315000          0.154666E-03
      0.320000          0.149007E-03
      0.325000          0.143280E-03
      0.330000          0.137595E-03
      0.335000          0.132050E-03
      0.340000          0.126732E-03
      0.345000          0.121708E-03
      0.350000          0.117031E-03
      0.355000          0.112735E-03
      0.360000          0.108837E-03
      0.365000          0.105341E-03
      0.370000          0.102236E-03
      0.375000          0.994991E-04
      0.380000          0.971013E-04
      0.385000          0.950054E-04
      0.390000          0.931713E-04
      0.395000          0.915575E-04
      0.400000          0.901231E-04
      0.405000          0.888300E-04
      0.410000          0.876438E-04
      0.415000          0.865351E-04
      0.420000          0.854802E-04
      0.425000          0.844612E-04
      0.430000          0.834658E-04
      0.435000          0.824874E-04
      0.440000          0.815245E-04
      0.445000          0.805794E-04
      0.450000          0.796583E-04
      0.455000          0.787694E-04
      0.460000          0.779230E-04
      0.465000          0.771301E-04
      0.470000          0.764016E-04
      0.475000          0.757481E-04
      0.480000          0.751787E-04
      0.485000          0.747014E-04
      0.490000          0.743219E-04
      0.495000          0.740441E-04
      0.500000          0.738696E-04
