 I_abs(s)[cm^-1]/c[mg/ml]
       0.00000          0.144180E-01
      0.500000E-02      0.143849E-01
      0.100000E-01      0.142861E-01
      0.150000E-01      0.141227E-01
      0.200000E-01      0.138969E-01
      0.250000E-01      0.136114E-01
      0.300000E-01      0.132697E-01
      0.350000E-01      0.128759E-01
      0.400000E-01      0.124348E-01
      0.450000E-01      0.119515E-01
      0.500000E-01      0.114317E-01
      0.550000E-01      0.108811E-01
      0.600000E-01      0.103059E-01
      0.650000E-01      0.971212E-02
      0.700000E-01      0.910598E-02
      0.750000E-01      0.849348E-02
      0.800000E-01      0.788044E-02
      0.850000E-01      0.727239E-02
      0.900000E-01      0.667451E-02
      0.950000E-01      0.609155E-02
      0.100000          0.552779E-02
      0.105000          0.498698E-02
      0.110000          0.447231E-02
      0.115000          0.398643E-02
      0.120000          0.353139E-02
      0.125000          0.310866E-02
      0.130000          0.271920E-02
      0.135000          0.236340E-02
      0.140000          0.204118E-02
      0.145000          0.175200E-02
      0.150000          0.149491E-02
      0.155000          0.126862E-02
      0.160000          0.107154E-02
      0.165000          0.901815E-03
      0.170000          0.757436E-03
      0.175000          0.636242E-03
      0.180000          0.535998E-03
      0.185000          0.454439E-03
      0.190000          0.389313E-03
      0.195000          0.338424E-03
      0.200000          0.299665E-03
      0.205000          0.271048E-03
      0.210000          0.250727E-03
      0.215000          0.237015E-03
      0.220000          0.228397E-03
      0.225000          0.223536E-03
      0.230000          0.221278E-03
      0.235000          0.220643E-03
      0.240000          0.220825E-03
      0.245000          0.221182E-03
      0.250000          0.221219E-03
      0.255000          0.220581E-03
      0.260000          0.219031E-03
      0.265000          0.216438E-03
      0.270000          0.212761E-03
      0.275000          0.208029E-03
      0.280000          0.202330E-03
      0.285000          0.195791E-03
      0.290000          0.188570E-03
      0.295000          0.180841E-03
      0.300000          0.172784E-03
      0.305000          0.164576E-03
      0.310000          0.156384E-03
      0.315000          0.148361E-03
      0.320000          0.140639E-03
      0.325000          0.133328E-03
      0.330000          0.126515E-03
      0.335000          0.120265E-03
      0.340000          0.114617E-03
      0.345000          0.109592E-03
      0.350000          0.105188E-03
      0.355000          0.101390E-03
      0.360000          0.981661E-04
      0.365000          0.954759E-04
      0.370000          0.932693E-04
      0.375000          0.914910E-04
      0.380000          0.900833E-04
      0.385000          0.889879E-04
      0.390000          0.881482E-04
      0.395000          0.875106E-04
      0.400000          0.870262E-04
      0.405000          0.866518E-04
      0.410000          0.863502E-04
      0.415000          0.860904E-04
      0.420000          0.858482E-04
      0.425000          0.856055E-04
      0.430000          0.853498E-04
      0.435000          0.850740E-04
      0.440000          0.847753E-04
      0.445000          0.844544E-04
      0.450000          0.841152E-04
      0.455000          0.837632E-04
      0.460000          0.834053E-04
      0.465000          0.830487E-04
      0.470000          0.827004E-04
      0.475000          0.823666E-04
      0.480000          0.820523E-04
      0.485000          0.817608E-04
      0.490000          0.814936E-04
      0.495000          0.812504E-04
      0.500000          0.810287E-04
