 I_abs(s)[cm^-1]/c[mg/ml]
       0.00000          0.144022E-01
      0.500000E-02      0.143617E-01
      0.100000E-01      0.142410E-01
      0.150000E-01      0.140423E-01
      0.200000E-01      0.137691E-01
      0.250000E-01      0.134263E-01
      0.300000E-01      0.130198E-01
      0.350000E-01      0.125566E-01
      0.400000E-01      0.120443E-01
      0.450000E-01      0.114911E-01
      0.500000E-01      0.109053E-01
      0.550000E-01      0.102954E-01
      0.600000E-01      0.966978E-02
      0.650000E-01      0.903641E-02
      0.700000E-01      0.840276E-02
      0.750000E-01      0.777564E-02
      0.800000E-01      0.716114E-02
      0.850000E-01      0.656451E-02
      0.900000E-01      0.599015E-02
      0.950000E-01      0.544162E-02
      0.100000          0.492163E-02
      0.105000          0.443210E-02
      0.110000          0.397426E-02
      0.115000          0.354867E-02
      0.120000          0.315537E-02
      0.125000          0.279390E-02
      0.130000          0.246347E-02
      0.135000          0.216299E-02
      0.140000          0.189114E-02
      0.145000          0.164650E-02
      0.150000          0.142751E-02
      0.155000          0.123261E-02
      0.160000          0.106020E-02
      0.165000          0.908706E-03
      0.170000          0.776571E-03
      0.175000          0.662280E-03
      0.180000          0.564359E-03
      0.185000          0.481372E-03
      0.190000          0.411930E-03
      0.195000          0.354682E-03
      0.200000          0.308321E-03
      0.205000          0.271584E-03
      0.210000          0.243256E-03
      0.215000          0.222175E-03
      0.220000          0.207239E-03
      0.225000          0.197409E-03
      0.230000          0.191720E-03
      0.235000          0.189285E-03
      0.240000          0.189302E-03
      0.245000          0.191055E-03
      0.250000          0.193919E-03
      0.255000          0.197360E-03
      0.260000          0.200931E-03
      0.265000          0.204269E-03
      0.270000          0.207093E-03
      0.275000          0.209194E-03
      0.280000          0.210428E-03
      0.285000          0.210711E-03
      0.290000          0.210007E-03
      0.295000          0.208320E-03
      0.300000          0.205691E-03
      0.305000          0.202185E-03
      0.310000          0.197888E-03
      0.315000          0.192899E-03
      0.320000          0.187328E-03
      0.325000          0.181288E-03
      0.330000          0.174895E-03
      0.335000          0.168263E-03
      0.340000          0.161500E-03
      0.345000          0.154709E-03
      0.350000          0.147986E-03
      0.355000          0.141414E-03
      0.360000          0.135069E-03
      0.365000          0.129013E-03
      0.370000          0.123296E-03
      0.375000          0.117956E-03
      0.380000          0.113020E-03
      0.385000          0.108500E-03
      0.390000          0.104401E-03
      0.395000          0.100715E-03
      0.400000          0.974270E-04
      0.405000          0.945148E-04
      0.410000          0.919512E-04
      0.415000          0.897059E-04
      0.420000          0.877470E-04
      0.425000          0.860431E-04
      0.430000          0.845646E-04
      0.435000          0.832848E-04
      0.440000          0.821810E-04
      0.445000          0.812351E-04
      0.450000          0.804333E-04
      0.455000          0.797667E-04
      0.460000          0.792300E-04
      0.465000          0.788211E-04
      0.470000          0.785403E-04
      0.475000          0.783888E-04
      0.480000          0.783677E-04
      0.485000          0.784771E-04
      0.490000          0.787147E-04
      0.495000          0.790754E-04
      0.500000          0.795505E-04
