 I_abs(s)[cm^-1]/c[mg/ml]
       0.00000          0.147276E-01
      0.500000E-02      0.146880E-01
      0.100000E-01      0.145698E-01
      0.150000E-01      0.143748E-01
      0.200000E-01      0.141060E-01
      0.250000E-01      0.137674E-01
      0.300000E-01      0.133642E-01
      0.350000E-01      0.129021E-01
      0.400000E-01      0.123880E-01
      0.450000E-01      0.118290E-01
      0.500000E-01      0.112328E-01
      0.550000E-01      0.106074E-01
      0.600000E-01      0.996075E-02
      0.650000E-01      0.930090E-02
      0.700000E-01      0.863557E-02
      0.750000E-01      0.797213E-02
      0.800000E-01      0.731748E-02
      0.850000E-01      0.667792E-02
      0.900000E-01      0.605905E-02
      0.950000E-01      0.546575E-02
      0.100000          0.490210E-02
      0.105000          0.437134E-02
      0.110000          0.387595E-02
      0.115000          0.341757E-02
      0.120000          0.299713E-02
      0.125000          0.261482E-02
      0.130000          0.227024E-02
      0.135000          0.196238E-02
      0.140000          0.168980E-02
      0.145000          0.145064E-02
      0.150000          0.124273E-02
      0.155000          0.106369E-02
      0.160000          0.910988E-03
      0.165000          0.782027E-03
      0.170000          0.674198E-03
      0.175000          0.584951E-03
      0.180000          0.511833E-03
      0.185000          0.452534E-03
      0.190000          0.404914E-03
      0.195000          0.367020E-03
      0.200000          0.337103E-03
      0.205000          0.313620E-03
      0.210000          0.295230E-03
      0.215000          0.280791E-03
      0.220000          0.269345E-03
      0.225000          0.260103E-03
      0.230000          0.252431E-03
      0.235000          0.245827E-03
      0.240000          0.239909E-03
      0.245000          0.234390E-03
      0.250000          0.229069E-03
      0.255000          0.223806E-03
      0.260000          0.218518E-03
      0.265000          0.213158E-03
      0.270000          0.207712E-03
      0.275000          0.202185E-03
      0.280000          0.196597E-03
      0.285000          0.190979E-03
      0.290000          0.185365E-03
      0.295000          0.179792E-03
      0.300000          0.174296E-03
      0.305000          0.168912E-03
      0.310000          0.163674E-03
      0.315000          0.158611E-03
      0.320000          0.153749E-03
      0.325000          0.149109E-03
      0.330000          0.144710E-03
      0.335000          0.140564E-03
      0.340000          0.136680E-03
      0.345000          0.133062E-03
      0.350000          0.129708E-03
      0.355000          0.126615E-03
      0.360000          0.123770E-03
      0.365000          0.121159E-03
      0.370000          0.118765E-03
      0.375000          0.116566E-03
      0.380000          0.114536E-03
      0.385000          0.112650E-03
      0.390000          0.110880E-03
      0.395000          0.109199E-03
      0.400000          0.107579E-03
      0.405000          0.105995E-03
      0.410000          0.104424E-03
      0.415000          0.102846E-03
      0.420000          0.101244E-03
      0.425000          0.996068E-04
      0.430000          0.979258E-04
      0.435000          0.961978E-04
      0.440000          0.944240E-04
      0.445000          0.926098E-04
      0.450000          0.907646E-04
      0.455000          0.889013E-04
      0.460000          0.870355E-04
      0.465000          0.851854E-04
      0.470000          0.833705E-04
      0.475000          0.816115E-04
      0.480000          0.799289E-04
      0.485000          0.783431E-04
      0.490000          0.768731E-04
      0.495000          0.755364E-04
      0.500000          0.743483E-04
