 I_abs(s)[cm^-1]/c[mg/ml]
       0.00000          0.145208E-01
      0.500000E-02      0.144821E-01
      0.100000E-01      0.143665E-01
      0.150000E-01      0.141760E-01
      0.200000E-01      0.139137E-01
      0.250000E-01      0.135838E-01
      0.300000E-01      0.131915E-01
      0.350000E-01      0.127430E-01
      0.400000E-01      0.122451E-01
      0.450000E-01      0.117051E-01
      0.500000E-01      0.111307E-01
      0.550000E-01      0.105297E-01
      0.600000E-01      0.990998E-02
      0.650000E-01      0.927915E-02
      0.700000E-01      0.864450E-02
      0.750000E-01      0.801287E-02
      0.800000E-01      0.739050E-02
      0.850000E-01      0.678297E-02
      0.900000E-01      0.619515E-02
      0.950000E-01      0.563114E-02
      0.100000          0.509429E-02
      0.105000          0.458718E-02
      0.110000          0.411169E-02
      0.115000          0.366901E-02
      0.120000          0.325973E-02
      0.125000          0.288389E-02
      0.130000          0.254104E-02
      0.135000          0.223036E-02
      0.140000          0.195069E-02
      0.145000          0.170060E-02
      0.150000          0.147850E-02
      0.155000          0.128262E-02
      0.160000          0.111114E-02
      0.165000          0.962185E-03
      0.170000          0.833862E-03
      0.175000          0.724305E-03
      0.180000          0.631683E-03
      0.185000          0.554224E-03
      0.190000          0.490221E-03
      0.195000          0.438047E-03
      0.200000          0.396156E-03
      0.205000          0.363093E-03
      0.210000          0.337496E-03
      0.215000          0.318099E-03
      0.220000          0.303737E-03
      0.225000          0.293349E-03
      0.230000          0.285975E-03
      0.235000          0.280767E-03
      0.240000          0.276983E-03
      0.245000          0.273987E-03
      0.250000          0.271252E-03
      0.255000          0.268355E-03
      0.260000          0.264969E-03
      0.265000          0.260862E-03
      0.270000          0.255888E-03
      0.275000          0.249976E-03
      0.280000          0.243124E-03
      0.285000          0.235384E-03
      0.290000          0.226853E-03
      0.295000          0.217664E-03
      0.300000          0.207972E-03
      0.305000          0.197944E-03
      0.310000          0.187752E-03
      0.315000          0.177565E-03
      0.320000          0.167539E-03
      0.325000          0.157816E-03
      0.330000          0.148516E-03
      0.335000          0.139739E-03
      0.340000          0.131561E-03
      0.345000          0.124035E-03
      0.350000          0.117193E-03
      0.355000          0.111045E-03
      0.360000          0.105586E-03
      0.365000          0.100794E-03
      0.370000          0.966370E-04
      0.375000          0.930734E-04
      0.380000          0.900560E-04
      0.385000          0.875340E-04
      0.390000          0.854559E-04
      0.395000          0.837706E-04
      0.400000          0.824296E-04
      0.405000          0.813871E-04
      0.410000          0.806014E-04
      0.415000          0.800351E-04
      0.420000          0.796546E-04
      0.425000          0.794305E-04
      0.430000          0.793372E-04
      0.435000          0.793519E-04
      0.440000          0.794549E-04
      0.445000          0.796287E-04
      0.450000          0.798573E-04
      0.455000          0.801266E-04
      0.460000          0.804233E-04
      0.465000          0.807351E-04
      0.470000          0.810507E-04
      0.475000          0.813592E-04
      0.480000          0.816509E-04
      0.485000          0.819165E-04
      0.490000          0.821478E-04
      0.495000          0.823375E-04
      0.500000          0.824795E-04
