 I_abs(s)[cm^-1]/c[mg/ml]
       0.00000          0.142762E-01
      0.500000E-02      0.142274E-01
      0.100000E-01      0.140822E-01
      0.150000E-01      0.138435E-01
      0.200000E-01      0.135167E-01
      0.250000E-01      0.131085E-01
      0.300000E-01      0.126276E-01
      0.350000E-01      0.120836E-01
      0.400000E-01      0.114872E-01
      0.450000E-01      0.108499E-01
      0.500000E-01      0.101831E-01
      0.550000E-01      0.949841E-02
      0.600000E-01      0.880691E-02
      0.650000E-01      0.811899E-02
      0.700000E-01      0.744411E-02
      0.750000E-01      0.679057E-02
      0.800000E-01      0.616541E-02
      0.850000E-01      0.557428E-02
      0.900000E-01      0.502142E-02
      0.950000E-01      0.450971E-02
      0.100000          0.404072E-02
      0.105000          0.361483E-02
      0.110000          0.323136E-02
      0.115000          0.288873E-02
      0.120000          0.258468E-02
      0.125000          0.231638E-02
      0.130000          0.208068E-02
      0.135000          0.187421E-02
      0.140000          0.169358E-02
      0.145000          0.153546E-02
      0.150000          0.139670E-02
      0.155000          0.127443E-02
      0.160000          0.116606E-02
      0.165000          0.106933E-02
      0.170000          0.982358E-03
      0.175000          0.903554E-03
      0.180000          0.831653E-03
      0.185000          0.765663E-03
      0.190000          0.704827E-03
      0.195000          0.648581E-03
      0.200000          0.596515E-03
      0.205000          0.548334E-03
      0.210000          0.503822E-03
      0.215000          0.462816E-03
      0.220000          0.425178E-03
      0.225000          0.390784E-03
      0.230000          0.359506E-03
      0.235000          0.331210E-03
      0.240000          0.305749E-03
      0.245000          0.282965E-03
      0.250000          0.262689E-03
      0.255000          0.244748E-03
      0.260000          0.228963E-03
      0.265000          0.215155E-03
      0.270000          0.203150E-03
      0.275000          0.192778E-03
      0.280000          0.183876E-03
      0.285000          0.176290E-03
      0.290000          0.169873E-03
      0.295000          0.164487E-03
      0.300000          0.160002E-03
      0.305000          0.156295E-03
      0.310000          0.153250E-03
      0.315000          0.150756E-03
      0.320000          0.148710E-03
      0.325000          0.147016E-03
      0.330000          0.145582E-03
      0.335000          0.144325E-03
      0.340000          0.143169E-03
      0.345000          0.142046E-03
      0.350000          0.140896E-03
      0.355000          0.139668E-03
      0.360000          0.138320E-03
      0.365000          0.136819E-03
      0.370000          0.135143E-03
      0.375000          0.133276E-03
      0.380000          0.131212E-03
      0.385000          0.128955E-03
      0.390000          0.126513E-03
      0.395000          0.123904E-03
      0.400000          0.121151E-03
      0.405000          0.118282E-03
      0.410000          0.115329E-03
      0.415000          0.112330E-03
      0.420000          0.109320E-03
      0.425000          0.106341E-03
      0.430000          0.103429E-03
      0.435000          0.100621E-03
      0.440000          0.979530E-04
      0.445000          0.954531E-04
      0.450000          0.931465E-04
      0.455000          0.910519E-04
      0.460000          0.891811E-04
      0.465000          0.875389E-04
      0.470000          0.861227E-04
      0.475000          0.849228E-04
      0.480000          0.839231E-04
      0.485000          0.831019E-04
      0.490000          0.824329E-04
      0.495000          0.818868E-04
      0.500000          0.814324E-04
