 I_abs(s)[cm^-1]/c[mg/ml]
       0.00000          0.144575E-01
      0.500000E-02      0.144210E-01
      0.100000E-01      0.143121E-01
      0.150000E-01      0.141324E-01
      0.200000E-01      0.138846E-01
      0.250000E-01      0.135723E-01
      0.300000E-01      0.132001E-01
      0.350000E-01      0.127733E-01
      0.400000E-01      0.122978E-01
      0.450000E-01      0.117801E-01
      0.500000E-01      0.112272E-01
      0.550000E-01      0.106460E-01
      0.600000E-01      0.100438E-01
      0.650000E-01      0.942765E-02
      0.700000E-01      0.880446E-02
      0.750000E-01      0.818080E-02
      0.800000E-01      0.756282E-02
      0.850000E-01      0.695615E-02
      0.900000E-01      0.636582E-02
      0.950000E-01      0.579624E-02
      0.100000          0.525113E-02
      0.105000          0.473352E-02
      0.110000          0.424576E-02
      0.115000          0.378956E-02
      0.120000          0.336599E-02
      0.125000          0.297553E-02
      0.130000          0.261815E-02
      0.135000          0.229336E-02
      0.140000          0.200025E-02
      0.145000          0.173761E-02
      0.150000          0.150395E-02
      0.155000          0.129756E-02
      0.160000          0.111662E-02
      0.165000          0.959202E-03
      0.170000          0.823327E-03
      0.175000          0.707027E-03
      0.180000          0.608361E-03
      0.185000          0.525448E-03
      0.190000          0.456487E-03
      0.195000          0.399774E-03
      0.200000          0.353711E-03
      0.205000          0.316817E-03
      0.210000          0.287726E-03
      0.215000          0.265192E-03
      0.220000          0.248084E-03
      0.225000          0.235386E-03
      0.230000          0.226193E-03
      0.235000          0.219705E-03
      0.240000          0.215223E-03
      0.245000          0.212145E-03
      0.250000          0.209959E-03
      0.255000          0.208238E-03
      0.260000          0.206638E-03
      0.265000          0.204885E-03
      0.270000          0.202778E-03
      0.275000          0.200175E-03
      0.280000          0.196990E-03
      0.285000          0.193189E-03
      0.290000          0.188776E-03
      0.295000          0.183790E-03
      0.300000          0.178299E-03
      0.305000          0.172391E-03
      0.310000          0.166164E-03
      0.315000          0.159727E-03
      0.320000          0.153188E-03
      0.325000          0.146650E-03
      0.330000          0.140210E-03
      0.335000          0.133951E-03
      0.340000          0.127944E-03
      0.345000          0.122242E-03
      0.350000          0.116886E-03
      0.355000          0.111897E-03
      0.360000          0.107286E-03
      0.365000          0.103047E-03
      0.370000          0.991662E-04
      0.375000          0.956195E-04
      0.380000          0.923777E-04
      0.385000          0.894078E-04
      0.390000          0.866755E-04
      0.395000          0.841477E-04
      0.400000          0.817935E-04
      0.405000          0.795864E-04
      0.410000          0.775045E-04
      0.415000          0.755315E-04
      0.420000          0.736568E-04
      0.425000          0.718752E-04
      0.430000          0.701864E-04
      0.435000          0.685944E-04
      0.440000          0.671066E-04
      0.445000          0.657327E-04
      0.450000          0.644841E-04
      0.455000          0.633725E-04
      0.460000          0.624092E-04
      0.465000          0.616043E-04
      0.470000          0.609664E-04
      0.475000          0.605018E-04
      0.480000          0.602142E-04
      0.485000          0.601048E-04
      0.490000          0.601723E-04
      0.495000          0.604126E-04
      0.500000          0.608195E-04
