 I_abs(s)[cm^-1]/c[mg/ml]
       0.00000          0.148476E-01
      0.500000E-02      0.148093E-01
      0.100000E-01      0.146951E-01
      0.150000E-01      0.145066E-01
      0.200000E-01      0.142466E-01
      0.250000E-01      0.139186E-01
      0.300000E-01      0.135273E-01
      0.350000E-01      0.130781E-01
      0.400000E-01      0.125772E-01
      0.450000E-01      0.120312E-01
      0.500000E-01      0.114472E-01
      0.550000E-01      0.108327E-01
      0.600000E-01      0.101950E-01
      0.650000E-01      0.954181E-02
      0.700000E-01      0.888042E-02
      0.750000E-01      0.821795E-02
      0.800000E-01      0.756109E-02
      0.850000E-01      0.691605E-02
      0.900000E-01      0.628846E-02
      0.950000E-01      0.568332E-02
      0.100000          0.510491E-02
      0.105000          0.455680E-02
      0.110000          0.404181E-02
      0.115000          0.356206E-02
      0.120000          0.311892E-02
      0.125000          0.271312E-02
      0.130000          0.234475E-02
      0.135000          0.201332E-02
      0.140000          0.171786E-02
      0.145000          0.145696E-02
      0.150000          0.122884E-02
      0.155000          0.103146E-02
      0.160000          0.862559E-03
      0.165000          0.719721E-03
      0.170000          0.600469E-03
      0.175000          0.502303E-03
      0.180000          0.422758E-03
      0.185000          0.359446E-03
      0.190000          0.310097E-03
      0.195000          0.272581E-03
      0.200000          0.244940E-03
      0.205000          0.225391E-03
      0.210000          0.212341E-03
      0.215000          0.204387E-03
      0.220000          0.200314E-03
      0.225000          0.199084E-03
      0.230000          0.199830E-03
      0.235000          0.201840E-03
      0.240000          0.204544E-03
      0.245000          0.207497E-03
      0.250000          0.210362E-03
      0.255000          0.212898E-03
      0.260000          0.214940E-03
      0.265000          0.216389E-03
      0.270000          0.217193E-03
      0.275000          0.217344E-03
      0.280000          0.216859E-03
      0.285000          0.215778E-03
      0.290000          0.214153E-03
      0.295000          0.212042E-03
      0.300000          0.209508E-03
      0.305000          0.206612E-03
      0.310000          0.203413E-03
      0.315000          0.199964E-03
      0.320000          0.196313E-03
      0.325000          0.192502E-03
      0.330000          0.188568E-03
      0.335000          0.184541E-03
      0.340000          0.180447E-03
      0.345000          0.176308E-03
      0.350000          0.172142E-03
      0.355000          0.167964E-03
      0.360000          0.163789E-03
      0.365000          0.159628E-03
      0.370000          0.155494E-03
      0.375000          0.151398E-03
      0.380000          0.147350E-03
      0.385000          0.143363E-03
      0.390000          0.139449E-03
      0.395000          0.135621E-03
      0.400000          0.131890E-03
      0.405000          0.128271E-03
      0.410000          0.124777E-03
      0.415000          0.121420E-03
      0.420000          0.118214E-03
      0.425000          0.115171E-03
      0.430000          0.112301E-03
      0.435000          0.109614E-03
      0.440000          0.107119E-03
      0.445000          0.104820E-03
      0.450000          0.102724E-03
      0.455000          0.100831E-03
      0.460000          0.991405E-04
      0.465000          0.976501E-04
      0.470000          0.963542E-04
      0.475000          0.952448E-04
      0.480000          0.943115E-04
      0.485000          0.935419E-04
      0.490000          0.929213E-04
      0.495000          0.924332E-04
      0.500000          0.920599E-04
