 I_abs(s)[cm^-1]/c[mg/ml]
       0.00000          0.142448E-01
      0.500000E-02      0.142058E-01
      0.100000E-01      0.140893E-01
      0.150000E-01      0.138972E-01
      0.200000E-01      0.136327E-01
      0.250000E-01      0.132998E-01
      0.300000E-01      0.129038E-01
      0.350000E-01      0.124507E-01
      0.400000E-01      0.119474E-01
      0.450000E-01      0.114013E-01
      0.500000E-01      0.108201E-01
      0.550000E-01      0.102119E-01
      0.600000E-01      0.958466E-02
      0.650000E-01      0.894642E-02
      0.700000E-01      0.830480E-02
      0.750000E-01      0.766704E-02
      0.800000E-01      0.703982E-02
      0.850000E-01      0.642917E-02
      0.900000E-01      0.584040E-02
      0.950000E-01      0.527801E-02
      0.100000          0.474569E-02
      0.105000          0.424631E-02
      0.110000          0.378189E-02
      0.115000          0.335371E-02
      0.120000          0.296228E-02
      0.125000          0.260747E-02
      0.130000          0.228854E-02
      0.135000          0.200424E-02
      0.140000          0.175292E-02
      0.145000          0.153259E-02
      0.150000          0.134099E-02
      0.155000          0.117574E-02
      0.160000          0.103434E-02
      0.165000          0.914293E-03
      0.170000          0.813133E-03
      0.175000          0.728490E-03
      0.180000          0.658119E-03
      0.185000          0.599936E-03
      0.190000          0.552034E-03
      0.195000          0.512693E-03
      0.200000          0.480388E-03
      0.205000          0.453783E-03
      0.210000          0.431721E-03
      0.215000          0.413219E-03
      0.220000          0.397446E-03
      0.225000          0.383711E-03
      0.230000          0.371450E-03
      0.235000          0.360201E-03
      0.240000          0.349597E-03
      0.245000          0.339350E-03
      0.250000          0.329235E-03
      0.255000          0.319084E-03
      0.260000          0.308776E-03
      0.265000          0.298228E-03
      0.270000          0.287391E-03
      0.275000          0.276246E-03
      0.280000          0.264797E-03
      0.285000          0.253072E-03
      0.290000          0.241119E-03
      0.295000          0.229002E-03
      0.300000          0.216799E-03
      0.305000          0.204601E-03
      0.310000          0.192506E-03
      0.315000          0.180620E-03
      0.320000          0.169050E-03
      0.325000          0.157904E-03
      0.330000          0.147282E-03
      0.335000          0.137280E-03
      0.340000          0.127982E-03
      0.345000          0.119460E-03
      0.350000          0.111769E-03
      0.355000          0.104948E-03
      0.360000          0.990174E-04
      0.365000          0.939801E-04
      0.370000          0.898202E-04
      0.375000          0.865050E-04
      0.380000          0.839860E-04
      0.385000          0.822013E-04
      0.390000          0.810774E-04
      0.395000          0.805326E-04
      0.400000          0.804791E-04
      0.405000          0.808265E-04
      0.410000          0.814841E-04
      0.415000          0.823638E-04
      0.420000          0.833826E-04
      0.425000          0.844640E-04
      0.430000          0.855406E-04
      0.435000          0.865542E-04
      0.440000          0.874575E-04
      0.445000          0.882137E-04
      0.450000          0.887969E-04
      0.455000          0.891915E-04
      0.460000          0.893911E-04
      0.465000          0.893979E-04
      0.470000          0.892211E-04
      0.475000          0.888761E-04
      0.480000          0.883821E-04
      0.485000          0.877620E-04
      0.490000          0.870398E-04
      0.495000          0.862403E-04
      0.500000          0.853877E-04
