 I_abs(s)[cm^-1]/c[mg/ml]
       0.00000          0.146161E-01
      0.500000E-02      0.145789E-01
      0.100000E-01      0.144678E-01
      0.150000E-01      0.142848E-01
      0.200000E-01      0.140329E-01
      0.250000E-01      0.137161E-01
      0.300000E-01      0.133397E-01
      0.350000E-01      0.129094E-01
      0.400000E-01      0.124319E-01
      0.450000E-01      0.119141E-01
      0.500000E-01      0.113633E-01
      0.550000E-01      0.107868E-01
      0.600000E-01      0.101920E-01
      0.650000E-01      0.958596E-02
      0.700000E-01      0.897531E-02
      0.750000E-01      0.836625E-02
      0.800000E-01      0.776440E-02
      0.850000E-01      0.717473E-02
      0.900000E-01      0.660153E-02
      0.950000E-01      0.604842E-02
      0.100000          0.551833E-02
      0.105000          0.501355E-02
      0.110000          0.453578E-02
      0.115000          0.408617E-02
      0.120000          0.366536E-02
      0.125000          0.327361E-02
      0.130000          0.291079E-02
      0.135000          0.257650E-02
      0.140000          0.227009E-02
      0.145000          0.199069E-02
      0.150000          0.173732E-02
      0.155000          0.150884E-02
      0.160000          0.130404E-02
      0.165000          0.112164E-02
      0.170000          0.960302E-03
      0.175000          0.818639E-03
      0.180000          0.695249E-03
      0.185000          0.588706E-03
      0.190000          0.497582E-03
      0.195000          0.420451E-03
      0.200000          0.355908E-03
      0.205000          0.302575E-03
      0.210000          0.259122E-03
      0.215000          0.224272E-03
      0.220000          0.196818E-03
      0.225000          0.175636E-03
      0.230000          0.159690E-03
      0.235000          0.148042E-03
      0.240000          0.139857E-03
      0.245000          0.134401E-03
      0.250000          0.131043E-03
      0.255000          0.129252E-03
      0.260000          0.128585E-03
      0.265000          0.128686E-03
      0.270000          0.129271E-03
      0.275000          0.130119E-03
      0.280000          0.131064E-03
      0.285000          0.131980E-03
      0.290000          0.132779E-03
      0.295000          0.133397E-03
      0.300000          0.133787E-03
      0.305000          0.133920E-03
      0.310000          0.133776E-03
      0.315000          0.133341E-03
      0.320000          0.132609E-03
      0.325000          0.131581E-03
      0.330000          0.130263E-03
      0.335000          0.128666E-03
      0.340000          0.126808E-03
      0.345000          0.124715E-03
      0.350000          0.122415E-03
      0.355000          0.119944E-03
      0.360000          0.117342E-03
      0.365000          0.114650E-03
      0.370000          0.111910E-03
      0.375000          0.109165E-03
      0.380000          0.106453E-03
      0.385000          0.103809E-03
      0.390000          0.101261E-03
      0.395000          0.988330E-04
      0.400000          0.965395E-04
      0.405000          0.943895E-04
      0.410000          0.923854E-04
      0.415000          0.905239E-04
      0.420000          0.887972E-04
      0.425000          0.871944E-04
      0.430000          0.857028E-04
      0.435000          0.843091E-04
      0.440000          0.830009E-04
      0.445000          0.817675E-04
      0.450000          0.806002E-04
      0.455000          0.794936E-04
      0.460000          0.784447E-04
      0.465000          0.774533E-04
      0.470000          0.765215E-04
      0.475000          0.756527E-04
      0.480000          0.748516E-04
      0.485000          0.741227E-04
      0.490000          0.734703E-04
      0.495000          0.728974E-04
      0.500000          0.724055E-04
