 I_abs(s)[cm^-1]/c[mg/ml]
       0.00000          0.145843E-01
      0.500000E-02      0.145446E-01
      0.100000E-01      0.144263E-01
      0.150000E-01      0.142312E-01
      0.200000E-01      0.139627E-01
      0.250000E-01      0.136250E-01
      0.300000E-01      0.132237E-01
      0.350000E-01      0.127650E-01
      0.400000E-01      0.122559E-01
      0.450000E-01      0.117041E-01
      0.500000E-01      0.111175E-01
      0.550000E-01      0.105042E-01
      0.600000E-01      0.987219E-02
      0.650000E-01      0.922944E-02
      0.700000E-01      0.858344E-02
      0.750000E-01      0.794121E-02
      0.800000E-01      0.730914E-02
      0.850000E-01      0.669297E-02
      0.900000E-01      0.609765E-02
      0.950000E-01      0.552735E-02
      0.100000          0.498543E-02
      0.105000          0.447448E-02
      0.110000          0.399634E-02
      0.115000          0.355214E-02
      0.120000          0.314238E-02
      0.125000          0.276700E-02
      0.130000          0.242545E-02
      0.135000          0.211679E-02
      0.140000          0.183973E-02
      0.145000          0.159274E-02
      0.150000          0.137411E-02
      0.155000          0.118200E-02
      0.160000          0.101450E-02
      0.165000          0.869660E-03
      0.170000          0.745542E-03
      0.175000          0.640237E-03
      0.180000          0.551890E-03
      0.185000          0.478708E-03
      0.190000          0.418976E-03
      0.195000          0.371060E-03
      0.200000          0.333414E-03
      0.205000          0.304579E-03
      0.210000          0.283190E-03
      0.215000          0.267975E-03
      0.220000          0.257759E-03
      0.225000          0.251465E-03
      0.230000          0.248119E-03
      0.235000          0.246848E-03
      0.240000          0.246889E-03
      0.245000          0.247584E-03
      0.250000          0.248382E-03
      0.255000          0.248839E-03
      0.260000          0.248610E-03
      0.265000          0.247453E-03
      0.270000          0.245210E-03
      0.275000          0.241811E-03
      0.280000          0.237253E-03
      0.285000          0.231598E-03
      0.290000          0.224953E-03
      0.295000          0.217467E-03
      0.300000          0.209311E-03
      0.305000          0.200670E-03
      0.310000          0.191733E-03
      0.315000          0.182684E-03
      0.320000          0.173694E-03
      0.325000          0.164914E-03
      0.330000          0.156474E-03
      0.335000          0.148476E-03
      0.340000          0.140998E-03
      0.345000          0.134089E-03
      0.350000          0.127778E-03
      0.355000          0.122069E-03
      0.360000          0.116950E-03
      0.365000          0.112393E-03
      0.370000          0.108361E-03
      0.375000          0.104808E-03
      0.380000          0.101687E-03
      0.385000          0.989462E-04
      0.390000          0.965400E-04
      0.395000          0.944242E-04
      0.400000          0.925598E-04
      0.405000          0.909137E-04
      0.410000          0.894585E-04
      0.415000          0.881726E-04
      0.420000          0.870392E-04
      0.425000          0.860459E-04
      0.430000          0.851837E-04
      0.435000          0.844457E-04
      0.440000          0.838265E-04
      0.445000          0.833212E-04
      0.450000          0.829244E-04
      0.455000          0.826302E-04
      0.460000          0.824313E-04
      0.465000          0.823192E-04
      0.470000          0.822839E-04
      0.475000          0.823141E-04
      0.480000          0.823980E-04
      0.485000          0.825228E-04
      0.490000          0.826757E-04
      0.495000          0.828444E-04
      0.500000          0.830172E-04
