 I_abs(s)[cm^-1]/c[mg/ml]
       0.00000          0.142998E-01
      0.500000E-02      0.142390E-01
      0.100000E-01      0.140583E-01
      0.150000E-01      0.137632E-01
      0.200000E-01      0.133622E-01
      0.250000E-01      0.128668E-01
      0.300000E-01      0.122909E-01
      0.350000E-01      0.116500E-01
      0.400000E-01      0.109604E-01
      0.450000E-01      0.102390E-01
      0.500000E-01      0.950196E-02
      0.550000E-01      0.876461E-02
      0.600000E-01      0.804060E-02
      0.650000E-01      0.734161E-02
      0.700000E-01      0.667708E-02
      0.750000E-01      0.605405E-02
      0.800000E-01      0.547716E-02
      0.850000E-01      0.494881E-02
      0.900000E-01      0.446939E-02
      0.950000E-01      0.403753E-02
      0.100000          0.365056E-02
      0.105000          0.330481E-02
      0.110000          0.299606E-02
      0.115000          0.271984E-02
      0.120000          0.247175E-02
      0.125000          0.224774E-02
      0.130000          0.204424E-02
      0.135000          0.185826E-02
      0.140000          0.168748E-02
      0.145000          0.153016E-02
      0.150000          0.138512E-02
      0.155000          0.125162E-02
      0.160000          0.112924E-02
      0.165000          0.101776E-02
      0.170000          0.917028E-03
      0.175000          0.826879E-03
      0.180000          0.747051E-03
      0.185000          0.677132E-03
      0.190000          0.616546E-03
      0.195000          0.564549E-03
      0.200000          0.520259E-03
      0.205000          0.482696E-03
      0.210000          0.450831E-03
      0.215000          0.423637E-03
      0.220000          0.400142E-03
      0.225000          0.379470E-03
      0.230000          0.360871E-03
      0.235000          0.343742E-03
      0.240000          0.327630E-03
      0.245000          0.312230E-03
      0.250000          0.297367E-03
      0.255000          0.282973E-03
      0.260000          0.269059E-03
      0.265000          0.255689E-03
      0.270000          0.242952E-03
      0.275000          0.230937E-03
      0.280000          0.219720E-03
      0.285000          0.209347E-03
      0.290000          0.199833E-03
      0.295000          0.191159E-03
      0.300000          0.183276E-03
      0.305000          0.176117E-03
      0.310000          0.169599E-03
      0.315000          0.163639E-03
      0.320000          0.158160E-03
      0.325000          0.153095E-03
      0.330000          0.148397E-03
      0.335000          0.144032E-03
      0.340000          0.139986E-03
      0.345000          0.136256E-03
      0.350000          0.132848E-03
      0.355000          0.129769E-03
      0.360000          0.127025E-03
      0.365000          0.124614E-03
      0.370000          0.122521E-03
      0.375000          0.120722E-03
      0.380000          0.119179E-03
      0.385000          0.117841E-03
      0.390000          0.116652E-03
      0.395000          0.115552E-03
      0.400000          0.114482E-03
      0.405000          0.113389E-03
      0.410000          0.112227E-03
      0.415000          0.110967E-03
      0.420000          0.109590E-03
      0.425000          0.108095E-03
      0.430000          0.106491E-03
      0.435000          0.104801E-03
      0.440000          0.103056E-03
      0.445000          0.101290E-03
      0.450000          0.995399E-04
      0.455000          0.978378E-04
      0.460000          0.962122E-04
      0.465000          0.946834E-04
      0.470000          0.932635E-04
      0.475000          0.919562E-04
      0.480000          0.907581E-04
      0.485000          0.896599E-04
      0.490000          0.886493E-04
      0.495000          0.877129E-04
      0.500000          0.868389E-04
