 I_abs(s)[cm^-1]/c[mg/ml]
       0.00000          0.143785E-01
      0.500000E-02      0.143195E-01
      0.100000E-01      0.141440E-01
      0.150000E-01      0.138573E-01
      0.200000E-01      0.134677E-01
      0.250000E-01      0.129865E-01
      0.300000E-01      0.124269E-01
      0.350000E-01      0.118039E-01
      0.400000E-01      0.111334E-01
      0.450000E-01      0.104313E-01
      0.500000E-01      0.971314E-02
      0.550000E-01      0.899353E-02
      0.600000E-01      0.828535E-02
      0.650000E-01      0.759960E-02
      0.700000E-01      0.694509E-02
      0.750000E-01      0.632838E-02
      0.800000E-01      0.575377E-02
      0.850000E-01      0.522347E-02
      0.900000E-01      0.473787E-02
      0.950000E-01      0.429579E-02
      0.100000          0.389493E-02
      0.105000          0.353214E-02
      0.110000          0.320385E-02
      0.115000          0.290631E-02
      0.120000          0.263593E-02
      0.125000          0.238943E-02
      0.130000          0.216396E-02
      0.135000          0.195718E-02
      0.140000          0.176728E-02
      0.145000          0.159289E-02
      0.150000          0.143304E-02
      0.155000          0.128702E-02
      0.160000          0.115430E-02
      0.165000          0.103443E-02
      0.170000          0.926923E-03
      0.175000          0.831220E-03
      0.180000          0.746643E-03
      0.185000          0.672380E-03
      0.190000          0.607503E-03
      0.195000          0.550993E-03
      0.200000          0.501787E-03
      0.205000          0.458826E-03
      0.210000          0.421107E-03
      0.215000          0.387722E-03
      0.220000          0.357893E-03
      0.225000          0.330991E-03
      0.230000          0.306546E-03
      0.235000          0.284233E-03
      0.240000          0.263862E-03
      0.245000          0.245343E-03
      0.250000          0.228662E-03
      0.255000          0.213843E-03
      0.260000          0.200921E-03
      0.265000          0.189912E-03
      0.270000          0.180799E-03
      0.275000          0.173511E-03
      0.280000          0.167927E-03
      0.285000          0.163874E-03
      0.290000          0.161136E-03
      0.295000          0.159465E-03
      0.300000          0.158597E-03
      0.305000          0.158267E-03
      0.310000          0.158223E-03
      0.315000          0.158235E-03
      0.320000          0.158110E-03
      0.325000          0.157693E-03
      0.330000          0.156870E-03
      0.335000          0.155569E-03
      0.340000          0.153757E-03
      0.345000          0.151434E-03
      0.350000          0.148630E-03
      0.355000          0.145397E-03
      0.360000          0.141803E-03
      0.365000          0.137927E-03
      0.370000          0.133857E-03
      0.375000          0.129682E-03
      0.380000          0.125491E-03
      0.385000          0.121367E-03
      0.390000          0.117391E-03
      0.395000          0.113634E-03
      0.400000          0.110155E-03
      0.405000          0.107005E-03
      0.410000          0.104219E-03
      0.415000          0.101819E-03
      0.420000          0.998097E-04
      0.425000          0.981831E-04
      0.430000          0.969158E-04
      0.435000          0.959711E-04
      0.440000          0.953021E-04
      0.445000          0.948535E-04
      0.450000          0.945656E-04
      0.455000          0.943779E-04
      0.460000          0.942326E-04
      0.465000          0.940782E-04
      0.470000          0.938722E-04
      0.475000          0.935836E-04
      0.480000          0.931941E-04
      0.485000          0.926981E-04
      0.490000          0.921027E-04
      0.495000          0.914254E-04
      0.500000          0.906925E-04
