 I_abs(s)[cm^-1]/c[mg/ml]
       0.00000          0.147276E-01
      0.500000E-02      0.146913E-01
      0.100000E-01      0.145829E-01
      0.150000E-01      0.144038E-01
      0.200000E-01      0.141568E-01
      0.250000E-01      0.138451E-01
      0.300000E-01      0.134730E-01
      0.350000E-01      0.130457E-01
      0.400000E-01      0.125688E-01
      0.450000E-01      0.120486E-01
      0.500000E-01      0.114916E-01
      0.550000E-01      0.109048E-01
      0.600000E-01      0.102951E-01
      0.650000E-01      0.966952E-02
      0.700000E-01      0.903497E-02
      0.750000E-01      0.839803E-02
      0.800000E-01      0.776497E-02
      0.850000E-01      0.714157E-02
      0.900000E-01      0.653312E-02
      0.950000E-01      0.594431E-02
      0.100000          0.537920E-02
      0.105000          0.484118E-02
      0.110000          0.433300E-02
      0.115000          0.385672E-02
      0.120000          0.341381E-02
      0.125000          0.300507E-02
      0.130000          0.263078E-02
      0.135000          0.229070E-02
      0.140000          0.198412E-02
      0.145000          0.170996E-02
      0.150000          0.146678E-02
      0.155000          0.125290E-02
      0.160000          0.106644E-02
      0.165000          0.905336E-03
      0.170000          0.767481E-03
      0.175000          0.650701E-03
      0.180000          0.552835E-03
      0.185000          0.471764E-03
      0.190000          0.405443E-03
      0.195000          0.351928E-03
      0.200000          0.309393E-03
      0.205000          0.276150E-03
      0.210000          0.250654E-03
      0.215000          0.231509E-03
      0.220000          0.217469E-03
      0.225000          0.207436E-03
      0.230000          0.200457E-03
      0.235000          0.195716E-03
      0.240000          0.192523E-03
      0.245000          0.190312E-03
      0.250000          0.188623E-03
      0.255000          0.187095E-03
      0.260000          0.185457E-03
      0.265000          0.183514E-03
      0.270000          0.181142E-03
      0.275000          0.178269E-03
      0.280000          0.174877E-03
      0.285000          0.170983E-03
      0.290000          0.166636E-03
      0.295000          0.161910E-03
      0.300000          0.156892E-03
      0.305000          0.151681E-03
      0.310000          0.146378E-03
      0.315000          0.141083E-03
      0.320000          0.135893E-03
      0.325000          0.130892E-03
      0.330000          0.126157E-03
      0.335000          0.121749E-03
      0.340000          0.117713E-03
      0.345000          0.114081E-03
      0.350000          0.110869E-03
      0.355000          0.108078E-03
      0.360000          0.105696E-03
      0.365000          0.103699E-03
      0.370000          0.102053E-03
      0.375000          0.100715E-03
      0.380000          0.996379E-04
      0.385000          0.987707E-04
      0.390000          0.980610E-04
      0.395000          0.974577E-04
      0.400000          0.969124E-04
      0.405000          0.963811E-04
      0.410000          0.958257E-04
      0.415000          0.952149E-04
      0.420000          0.945248E-04
      0.425000          0.937392E-04
      0.430000          0.928498E-04
      0.435000          0.918553E-04
      0.440000          0.907617E-04
      0.445000          0.895806E-04
      0.450000          0.883287E-04
      0.455000          0.870268E-04
      0.460000          0.856982E-04
      0.465000          0.843677E-04
      0.470000          0.830608E-04
      0.475000          0.818021E-04
      0.480000          0.806146E-04
      0.485000          0.795188E-04
      0.490000          0.785323E-04
      0.495000          0.776688E-04
      0.500000          0.769385E-04
