 I_abs(s)[cm^-1]/c[mg/ml]
       0.00000          0.146559E-01
      0.500000E-02      0.146036E-01
      0.100000E-01      0.144482E-01
      0.150000E-01      0.141930E-01
      0.200000E-01      0.138438E-01
      0.250000E-01      0.134084E-01
      0.300000E-01      0.128962E-01
      0.350000E-01      0.123179E-01
      0.400000E-01      0.116855E-01
      0.450000E-01      0.110113E-01
      0.500000E-01      0.103079E-01
      0.550000E-01      0.958778E-02
      0.600000E-01      0.886270E-02
      0.650000E-01      0.814365E-02
      0.700000E-01      0.744043E-02
      0.750000E-01      0.676153E-02
      0.800000E-01      0.611392E-02
      0.850000E-01      0.550307E-02
      0.900000E-01      0.493291E-02
      0.950000E-01      0.440587E-02
      0.100000          0.392306E-02
      0.105000          0.348436E-02
      0.110000          0.308867E-02
      0.115000          0.273404E-02
      0.120000          0.241793E-02
      0.125000          0.213742E-02
      0.130000          0.188934E-02
      0.135000          0.167048E-02
      0.140000          0.147773E-02
      0.145000          0.130814E-02
      0.150000          0.115905E-02
      0.155000          0.102807E-02
      0.160000          0.913142E-03
      0.165000          0.812509E-03
      0.170000          0.724682E-03
      0.175000          0.648408E-03
      0.180000          0.582616E-03
      0.185000          0.526368E-03
      0.190000          0.478812E-03
      0.195000          0.439142E-03
      0.200000          0.406567E-03
      0.205000          0.380290E-03
      0.210000          0.359501E-03
      0.215000          0.343373E-03
      0.220000          0.331078E-03
      0.225000          0.321800E-03
      0.230000          0.314753E-03
      0.235000          0.309208E-03
      0.240000          0.304512E-03
      0.245000          0.300106E-03
      0.250000          0.295535E-03
      0.255000          0.290463E-03
      0.260000          0.284668E-03
      0.265000          0.278039E-03
      0.270000          0.270566E-03
      0.275000          0.262324E-03
      0.280000          0.253454E-03
      0.285000          0.244144E-03
      0.290000          0.234607E-03
      0.295000          0.225059E-03
      0.300000          0.215708E-03
      0.305000          0.206732E-03
      0.310000          0.198273E-03
      0.315000          0.190431E-03
      0.320000          0.183260E-03
      0.325000          0.176769E-03
      0.330000          0.170928E-03
      0.335000          0.165677E-03
      0.340000          0.160929E-03
      0.345000          0.156587E-03
      0.350000          0.152548E-03
      0.355000          0.148711E-03
      0.360000          0.144990E-03
      0.365000          0.141314E-03
      0.370000          0.137633E-03
      0.375000          0.133918E-03
      0.380000          0.130161E-03
      0.385000          0.126376E-03
      0.390000          0.122592E-03
      0.395000          0.118849E-03
      0.400000          0.115195E-03
      0.405000          0.111683E-03
      0.410000          0.108362E-03
      0.415000          0.105278E-03
      0.420000          0.102466E-03
      0.425000          0.999541E-04
      0.430000          0.977569E-04
      0.435000          0.958782E-04
      0.440000          0.943106E-04
      0.445000          0.930369E-04
      0.450000          0.920318E-04
      0.455000          0.912639E-04
      0.460000          0.906973E-04
      0.465000          0.902946E-04
      0.470000          0.900178E-04
      0.475000          0.898303E-04
      0.480000          0.896983E-04
      0.485000          0.895915E-04
      0.490000          0.894838E-04
      0.495000          0.893538E-04
      0.500000          0.891841E-04
