 I_abs(s)[cm^-1]/c[mg/ml]
       0.00000          0.144654E-01
      0.500000E-02      0.144207E-01
      0.100000E-01      0.142876E-01
      0.150000E-01      0.140687E-01
      0.200000E-01      0.137683E-01
      0.250000E-01      0.133921E-01
      0.300000E-01      0.129475E-01
      0.350000E-01      0.124426E-01
      0.400000E-01      0.118865E-01
      0.450000E-01      0.112889E-01
      0.500000E-01      0.106596E-01
      0.550000E-01      0.100085E-01
      0.600000E-01      0.934537E-02
      0.650000E-01      0.867917E-02
      0.700000E-01      0.801835E-02
      0.750000E-01      0.737044E-02
      0.800000E-01      0.674198E-02
      0.850000E-01      0.613844E-02
      0.900000E-01      0.556419E-02
      0.950000E-01      0.502254E-02
      0.100000          0.451574E-02
      0.105000          0.404513E-02
      0.110000          0.361115E-02
      0.115000          0.321356E-02
      0.120000          0.285148E-02
      0.125000          0.252358E-02
      0.130000          0.222817E-02
      0.135000          0.196334E-02
      0.140000          0.172704E-02
      0.145000          0.151716E-02
      0.150000          0.133163E-02
      0.155000          0.116843E-02
      0.160000          0.102564E-02
      0.165000          0.901459E-03
      0.170000          0.794189E-03
      0.175000          0.702253E-03
      0.180000          0.624170E-03
      0.185000          0.558544E-03
      0.190000          0.504047E-03
      0.195000          0.459408E-03
      0.200000          0.423398E-03
      0.205000          0.394831E-03
      0.210000          0.372561E-03
      0.215000          0.355483E-03
      0.220000          0.342547E-03
      0.225000          0.332764E-03
      0.230000          0.325224E-03
      0.235000          0.319106E-03
      0.240000          0.313690E-03
      0.245000          0.308372E-03
      0.250000          0.302666E-03
      0.255000          0.296207E-03
      0.260000          0.288754E-03
      0.265000          0.280178E-03
      0.270000          0.270459E-03
      0.275000          0.259665E-03
      0.280000          0.247944E-03
      0.285000          0.235499E-03
      0.290000          0.222574E-03
      0.295000          0.209435E-03
      0.300000          0.196349E-03
      0.305000          0.183575E-03
      0.310000          0.171345E-03
      0.315000          0.159857E-03
      0.320000          0.149269E-03
      0.325000          0.139691E-03
      0.330000          0.131192E-03
      0.335000          0.123792E-03
      0.340000          0.117474E-03
      0.345000          0.112186E-03
      0.350000          0.107848E-03
      0.355000          0.104360E-03
      0.360000          0.101609E-03
      0.365000          0.994757E-04
      0.370000          0.978406E-04
      0.375000          0.965905E-04
      0.380000          0.956215E-04
      0.385000          0.948423E-04
      0.390000          0.941760E-04
      0.395000          0.935609E-04
      0.400000          0.929500E-04
      0.405000          0.923103E-04
      0.410000          0.916212E-04
      0.415000          0.908729E-04
      0.420000          0.900638E-04
      0.425000          0.891991E-04
      0.430000          0.882883E-04
      0.435000          0.873439E-04
      0.440000          0.863800E-04
      0.445000          0.854108E-04
      0.450000          0.844499E-04
      0.455000          0.835099E-04
      0.460000          0.826021E-04
      0.465000          0.817360E-04
      0.470000          0.809195E-04
      0.475000          0.801591E-04
      0.480000          0.794599E-04
      0.485000          0.788257E-04
      0.490000          0.782590E-04
      0.495000          0.777614E-04
      0.500000          0.773331E-04
