 I_abs(s)[cm^-1]/c[mg/ml]
       0.00000          0.144180E-01
      0.500000E-02      0.143804E-01
      0.100000E-01      0.142681E-01
      0.150000E-01      0.140829E-01
      0.200000E-01      0.138274E-01
      0.250000E-01      0.135056E-01
      0.300000E-01      0.131220E-01
      0.350000E-01      0.126823E-01
      0.400000E-01      0.121927E-01
      0.450000E-01      0.116599E-01
      0.500000E-01      0.110911E-01
      0.550000E-01      0.104938E-01
      0.600000E-01      0.987544E-02
      0.650000E-01      0.924362E-02
      0.700000E-01      0.860559E-02
      0.750000E-01      0.796832E-02
      0.800000E-01      0.733833E-02
      0.850000E-01      0.672162E-02
      0.900000E-01      0.612355E-02
      0.950000E-01      0.554881E-02
      0.100000          0.500135E-02
      0.105000          0.448437E-02
      0.110000          0.400034E-02
      0.115000          0.355097E-02
      0.120000          0.313729E-02
      0.125000          0.275967E-02
      0.130000          0.241787E-02
      0.135000          0.211113E-02
      0.140000          0.183820E-02
      0.145000          0.159749E-02
      0.150000          0.138706E-02
      0.155000          0.120477E-02
      0.160000          0.104830E-02
      0.165000          0.915232E-03
      0.170000          0.803143E-03
      0.175000          0.709615E-03
      0.180000          0.632306E-03
      0.185000          0.568979E-03
      0.190000          0.517541E-03
      0.195000          0.476057E-03
      0.200000          0.442768E-03
      0.205000          0.416101E-03
      0.210000          0.394668E-03
      0.215000          0.377266E-03
      0.220000          0.362869E-03
      0.225000          0.350615E-03
      0.230000          0.339800E-03
      0.235000          0.329857E-03
      0.240000          0.320346E-03
      0.245000          0.310936E-03
      0.250000          0.301393E-03
      0.255000          0.291561E-03
      0.260000          0.281353E-03
      0.265000          0.270737E-03
      0.270000          0.259725E-03
      0.275000          0.248365E-03
      0.280000          0.236728E-03
      0.285000          0.224905E-03
      0.290000          0.213000E-03
      0.295000          0.201123E-03
      0.300000          0.189386E-03
      0.305000          0.177900E-03
      0.310000          0.166773E-03
      0.315000          0.156103E-03
      0.320000          0.145982E-03
      0.325000          0.136487E-03
      0.330000          0.127688E-03
      0.335000          0.119637E-03
      0.340000          0.112376E-03
      0.345000          0.105930E-03
      0.350000          0.100312E-03
      0.355000          0.955204E-04
      0.360000          0.915393E-04
      0.365000          0.883416E-04
      0.370000          0.858884E-04
      0.375000          0.841308E-04
      0.380000          0.830111E-04
      0.385000          0.824648E-04
      0.390000          0.824223E-04
      0.395000          0.828102E-04
      0.400000          0.835540E-04
      0.405000          0.845789E-04
      0.410000          0.858120E-04
      0.415000          0.871838E-04
      0.420000          0.886293E-04
      0.425000          0.900893E-04
      0.430000          0.915114E-04
      0.435000          0.928504E-04
      0.440000          0.940687E-04
      0.445000          0.951367E-04
      0.450000          0.960325E-04
      0.455000          0.967416E-04
      0.460000          0.972565E-04
      0.465000          0.975760E-04
      0.470000          0.977041E-04
      0.475000          0.976497E-04
      0.480000          0.974249E-04
      0.485000          0.970448E-04
      0.490000          0.965260E-04
      0.495000          0.958860E-04
      0.500000          0.951423E-04
