 I_abs(s)[cm^-1]/c[mg/ml]
       0.00000          0.142841E-01
      0.500000E-02      0.142351E-01
      0.100000E-01      0.140893E-01
      0.150000E-01      0.138498E-01
      0.200000E-01      0.135216E-01
      0.250000E-01      0.131114E-01
      0.300000E-01      0.126276E-01
      0.350000E-01      0.120799E-01
      0.400000E-01      0.114789E-01
      0.450000E-01      0.108358E-01
      0.500000E-01      0.101622E-01
      0.550000E-01      0.946972E-02
      0.600000E-01      0.876944E-02
      0.650000E-01      0.807196E-02
      0.700000E-01      0.738696E-02
      0.750000E-01      0.672302E-02
      0.800000E-01      0.608746E-02
      0.850000E-01      0.548624E-02
      0.900000E-01      0.492395E-02
      0.950000E-01      0.440374E-02
      0.100000          0.392746E-02
      0.105000          0.349567E-02
      0.110000          0.310786E-02
      0.115000          0.276252E-02
      0.120000          0.245738E-02
      0.125000          0.218955E-02
      0.130000          0.195574E-02
      0.135000          0.175239E-02
      0.140000          0.157589E-02
      0.145000          0.142266E-02
      0.150000          0.128931E-02
      0.155000          0.117270E-02
      0.160000          0.107005E-02
      0.165000          0.978915E-03
      0.170000          0.897271E-03
      0.175000          0.823457E-03
      0.180000          0.756176E-03
      0.185000          0.694453E-03
      0.190000          0.637590E-03
      0.195000          0.585111E-03
      0.200000          0.536716E-03
      0.205000          0.492225E-03
      0.210000          0.451531E-03
      0.215000          0.414564E-03
      0.220000          0.381254E-03
      0.225000          0.351508E-03
      0.230000          0.325197E-03
      0.235000          0.302146E-03
      0.240000          0.282131E-03
      0.245000          0.264890E-03
      0.250000          0.250125E-03
      0.255000          0.237519E-03
      0.260000          0.226748E-03
      0.265000          0.217492E-03
      0.270000          0.209451E-03
      0.275000          0.202350E-03
      0.280000          0.195954E-03
      0.285000          0.190066E-03
      0.290000          0.184533E-03
      0.295000          0.179245E-03
      0.300000          0.174133E-03
      0.305000          0.169160E-03
      0.310000          0.164321E-03
      0.315000          0.159630E-03
      0.320000          0.155119E-03
      0.325000          0.150826E-03
      0.330000          0.146790E-03
      0.335000          0.143048E-03
      0.340000          0.139627E-03
      0.345000          0.136545E-03
      0.350000          0.133807E-03
      0.355000          0.131405E-03
      0.360000          0.129317E-03
      0.365000          0.127515E-03
      0.370000          0.125957E-03
      0.375000          0.124599E-03
      0.380000          0.123391E-03
      0.385000          0.122284E-03
      0.390000          0.121230E-03
      0.395000          0.120185E-03
      0.400000          0.119110E-03
      0.405000          0.117974E-03
      0.410000          0.116751E-03
      0.415000          0.115426E-03
      0.420000          0.113990E-03
      0.425000          0.112439E-03
      0.430000          0.110778E-03
      0.435000          0.109016E-03
      0.440000          0.107166E-03
      0.445000          0.105244E-03
      0.450000          0.103268E-03
      0.455000          0.101257E-03
      0.460000          0.992297E-04
      0.465000          0.972055E-04
      0.470000          0.952014E-04
      0.475000          0.932336E-04
      0.480000          0.913164E-04
      0.485000          0.894627E-04
      0.490000          0.876832E-04
      0.495000          0.859874E-04
      0.500000          0.843826E-04
