 I_abs(s)[cm^-1]/c[mg/ml]
       0.00000          0.144496E-01
      0.500000E-02      0.144116E-01
      0.100000E-01      0.142983E-01
      0.150000E-01      0.141112E-01
      0.200000E-01      0.138533E-01
      0.250000E-01      0.135282E-01
      0.300000E-01      0.131408E-01
      0.350000E-01      0.126966E-01
      0.400000E-01      0.122019E-01
      0.450000E-01      0.116634E-01
      0.500000E-01      0.110884E-01
      0.550000E-01      0.104846E-01
      0.600000E-01      0.985935E-02
      0.650000E-01      0.922041E-02
      0.700000E-01      0.857513E-02
      0.750000E-01      0.793062E-02
      0.800000E-01      0.729351E-02
      0.850000E-01      0.666994E-02
      0.900000E-01      0.606540E-02
      0.950000E-01      0.548469E-02
      0.100000          0.493189E-02
      0.105000          0.441031E-02
      0.110000          0.392251E-02
      0.115000          0.347029E-02
      0.120000          0.305472E-02
      0.125000          0.267620E-02
      0.130000          0.233450E-02
      0.135000          0.202885E-02
      0.140000          0.175797E-02
      0.145000          0.152020E-02
      0.150000          0.131353E-02
      0.155000          0.113571E-02
      0.160000          0.984326E-03
      0.165000          0.856841E-03
      0.170000          0.750699E-03
      0.175000          0.663362E-03
      0.180000          0.592365E-03
      0.185000          0.535358E-03
      0.190000          0.490138E-03
      0.195000          0.454675E-03
      0.200000          0.427131E-03
      0.205000          0.405865E-03
      0.210000          0.389438E-03
      0.215000          0.376611E-03
      0.220000          0.366338E-03
      0.225000          0.357749E-03
      0.230000          0.350144E-03
      0.235000          0.342971E-03
      0.240000          0.335811E-03
      0.245000          0.328360E-03
      0.250000          0.320413E-03
      0.255000          0.311848E-03
      0.260000          0.302607E-03
      0.265000          0.292689E-03
      0.270000          0.282133E-03
      0.275000          0.271007E-03
      0.280000          0.259404E-03
      0.285000          0.247432E-03
      0.290000          0.235204E-03
      0.295000          0.222841E-03
      0.300000          0.210464E-03
      0.305000          0.198189E-03
      0.310000          0.186130E-03
      0.315000          0.174394E-03
      0.320000          0.163079E-03
      0.325000          0.152276E-03
      0.330000          0.142065E-03
      0.335000          0.132515E-03
      0.340000          0.123686E-03
      0.345000          0.115625E-03
      0.350000          0.108366E-03
      0.355000          0.101932E-03
      0.360000          0.963310E-04
      0.365000          0.915610E-04
      0.370000          0.876057E-04
      0.375000          0.844372E-04
      0.380000          0.820161E-04
      0.385000          0.802929E-04
      0.390000          0.792086E-04
      0.395000          0.786966E-04
      0.400000          0.786843E-04
      0.405000          0.790947E-04
      0.410000          0.798484E-04
      0.415000          0.808656E-04
      0.420000          0.820677E-04
      0.425000          0.833796E-04
      0.430000          0.847309E-04
      0.435000          0.860579E-04
      0.440000          0.873043E-04
      0.445000          0.884226E-04
      0.450000          0.893747E-04
      0.455000          0.901321E-04
      0.460000          0.906764E-04
      0.465000          0.909984E-04
      0.470000          0.910981E-04
      0.475000          0.909838E-04
      0.480000          0.906710E-04
      0.485000          0.901811E-04
      0.490000          0.895405E-04
      0.495000          0.887788E-04
      0.500000          0.879278E-04
