 I_abs(s)[cm^-1]/c[mg/ml]
       0.00000          0.148876E-01
      0.500000E-02      0.148478E-01
      0.100000E-01      0.147288E-01
      0.150000E-01      0.145327E-01
      0.200000E-01      0.142625E-01
      0.250000E-01      0.139224E-01
      0.300000E-01      0.135177E-01
      0.350000E-01      0.130545E-01
      0.400000E-01      0.125397E-01
      0.450000E-01      0.119807E-01
      0.500000E-01      0.113852E-01
      0.550000E-01      0.107613E-01
      0.600000E-01      0.101171E-01
      0.650000E-01      0.946042E-02
      0.700000E-01      0.879887E-02
      0.750000E-01      0.813965E-02
      0.800000E-01      0.748940E-02
      0.850000E-01      0.685409E-02
      0.900000E-01      0.623902E-02
      0.950000E-01      0.564870E-02
      0.100000          0.508685E-02
      0.105000          0.455644E-02
      0.110000          0.405966E-02
      0.115000          0.359794E-02
      0.120000          0.317209E-02
      0.125000          0.278226E-02
      0.130000          0.242808E-02
      0.135000          0.210870E-02
      0.140000          0.182287E-02
      0.145000          0.156903E-02
      0.150000          0.134538E-02
      0.155000          0.114994E-02
      0.160000          0.980606E-03
      0.165000          0.835212E-03
      0.170000          0.711579E-03
      0.175000          0.607551E-03
      0.180000          0.521022E-03
      0.185000          0.449968E-03
      0.190000          0.392460E-03
      0.195000          0.346683E-03
      0.200000          0.310942E-03
      0.205000          0.283668E-03
      0.210000          0.263423E-03
      0.215000          0.248901E-03
      0.220000          0.238925E-03
      0.225000          0.232450E-03
      0.230000          0.228556E-03
      0.235000          0.226445E-03
      0.240000          0.225440E-03
      0.245000          0.224977E-03
      0.250000          0.224600E-03
      0.255000          0.223957E-03
      0.260000          0.222788E-03
      0.265000          0.220918E-03
      0.270000          0.218252E-03
      0.275000          0.214759E-03
      0.280000          0.210466E-03
      0.285000          0.205445E-03
      0.290000          0.199806E-03
      0.295000          0.193681E-03
      0.300000          0.187216E-03
      0.305000          0.180565E-03
      0.310000          0.173878E-03
      0.315000          0.167294E-03
      0.320000          0.160937E-03
      0.325000          0.154910E-03
      0.330000          0.149296E-03
      0.335000          0.144149E-03
      0.340000          0.139501E-03
      0.345000          0.135360E-03
      0.350000          0.131713E-03
      0.355000          0.128527E-03
      0.360000          0.125757E-03
      0.365000          0.123345E-03
      0.370000          0.121224E-03
      0.375000          0.119329E-03
      0.380000          0.117590E-03
      0.385000          0.115944E-03
      0.390000          0.114333E-03
      0.395000          0.112709E-03
      0.400000          0.111034E-03
      0.405000          0.109278E-03
      0.410000          0.107425E-03
      0.415000          0.105470E-03
      0.420000          0.103415E-03
      0.425000          0.101275E-03
      0.430000          0.990686E-04
      0.435000          0.968228E-04
      0.440000          0.945676E-04
      0.445000          0.923354E-04
      0.450000          0.901596E-04
      0.455000          0.880729E-04
      0.460000          0.861056E-04
      0.465000          0.842852E-04
      0.470000          0.826353E-04
      0.475000          0.811749E-04
      0.480000          0.799179E-04
      0.485000          0.788736E-04
      0.490000          0.780461E-04
      0.495000          0.774349E-04
      0.500000          0.770349E-04
