 I_abs(s)[cm^-1]/c[mg/ml]
       0.00000          0.143391E-01
      0.500000E-02      0.142988E-01
      0.100000E-01      0.141784E-01
      0.150000E-01      0.139799E-01
      0.200000E-01      0.137067E-01
      0.250000E-01      0.133633E-01
      0.300000E-01      0.129552E-01
      0.350000E-01      0.124890E-01
      0.400000E-01      0.119718E-01
      0.450000E-01      0.114115E-01
      0.500000E-01      0.108165E-01
      0.550000E-01      0.101950E-01
      0.600000E-01      0.955556E-02
      0.650000E-01      0.890639E-02
      0.700000E-01      0.825538E-02
      0.750000E-01      0.760993E-02
      0.800000E-01      0.697680E-02
      0.850000E-01      0.636204E-02
      0.900000E-01      0.577086E-02
      0.950000E-01      0.520764E-02
      0.100000          0.467589E-02
      0.105000          0.417822E-02
      0.110000          0.371643E-02
      0.115000          0.329149E-02
      0.120000          0.290366E-02
      0.125000          0.255253E-02
      0.130000          0.223714E-02
      0.135000          0.195604E-02
      0.140000          0.170740E-02
      0.145000          0.148910E-02
      0.150000          0.129883E-02
      0.155000          0.113414E-02
      0.160000          0.992556E-03
      0.165000          0.871620E-03
      0.170000          0.768943E-03
      0.175000          0.682253E-03
      0.180000          0.609427E-03
      0.185000          0.548512E-03
      0.190000          0.497738E-03
      0.195000          0.455525E-03
      0.200000          0.420477E-03
      0.205000          0.391381E-03
      0.210000          0.367192E-03
      0.215000          0.347020E-03
      0.220000          0.330112E-03
      0.225000          0.315841E-03
      0.230000          0.303684E-03
      0.235000          0.293208E-03
      0.240000          0.284057E-03
      0.245000          0.275939E-03
      0.250000          0.268612E-03
      0.255000          0.261876E-03
      0.260000          0.255569E-03
      0.265000          0.249555E-03
      0.270000          0.243721E-03
      0.275000          0.237977E-03
      0.280000          0.232248E-03
      0.285000          0.226478E-03
      0.290000          0.220622E-03
      0.295000          0.214650E-03
      0.300000          0.208546E-03
      0.305000          0.202301E-03
      0.310000          0.195922E-03
      0.315000          0.189423E-03
      0.320000          0.182826E-03
      0.325000          0.176162E-03
      0.330000          0.169467E-03
      0.335000          0.162780E-03
      0.340000          0.156147E-03
      0.345000          0.149610E-03
      0.350000          0.143216E-03
      0.355000          0.137006E-03
      0.360000          0.131022E-03
      0.365000          0.125301E-03
      0.370000          0.119873E-03
      0.375000          0.114765E-03
      0.380000          0.109999E-03
      0.385000          0.105587E-03
      0.390000          0.101538E-03
      0.395000          0.978535E-04
      0.400000          0.945301E-04
      0.405000          0.915581E-04
      0.410000          0.889236E-04
      0.415000          0.866085E-04
      0.420000          0.845916E-04
      0.425000          0.828493E-04
      0.430000          0.813562E-04
      0.435000          0.800864E-04
      0.440000          0.790138E-04
      0.445000          0.781129E-04
      0.450000          0.773595E-04
      0.455000          0.767311E-04
      0.460000          0.762074E-04
      0.465000          0.757704E-04
      0.470000          0.754045E-04
      0.475000          0.750968E-04
      0.480000          0.748368E-04
      0.485000          0.746160E-04
      0.490000          0.744284E-04
      0.495000          0.742692E-04
      0.500000          0.741353E-04
