 I_abs(s)[cm^-1]/c[mg/ml]
       0.00000          0.144733E-01
      0.500000E-02      0.144342E-01
      0.100000E-01      0.143176E-01
      0.150000E-01      0.141253E-01
      0.200000E-01      0.138603E-01
      0.250000E-01      0.135267E-01
      0.300000E-01      0.131296E-01
      0.350000E-01      0.126751E-01
      0.400000E-01      0.121698E-01
      0.450000E-01      0.116211E-01
      0.500000E-01      0.110366E-01
      0.550000E-01      0.104242E-01
      0.600000E-01      0.979199E-02
      0.650000E-01      0.914779E-02
      0.700000E-01      0.849922E-02
      0.750000E-01      0.785351E-02
      0.800000E-01      0.721734E-02
      0.850000E-01      0.659677E-02
      0.900000E-01      0.599717E-02
      0.950000E-01      0.542312E-02
      0.100000          0.487841E-02
      0.105000          0.436602E-02
      0.110000          0.388812E-02
      0.115000          0.344612E-02
      0.120000          0.304072E-02
      0.125000          0.267192E-02
      0.130000          0.233916E-02
      0.135000          0.204137E-02
      0.140000          0.177703E-02
      0.145000          0.154429E-02
      0.150000          0.134104E-02
      0.155000          0.116501E-02
      0.160000          0.101378E-02
      0.165000          0.884937E-03
      0.170000          0.776067E-03
      0.175000          0.684830E-03
      0.180000          0.608992E-03
      0.185000          0.546457E-03
      0.190000          0.495290E-03
      0.195000          0.453725E-03
      0.200000          0.420174E-03
      0.205000          0.393226E-03
      0.210000          0.371641E-03
      0.215000          0.354343E-03
      0.220000          0.340404E-03
      0.225000          0.329037E-03
      0.230000          0.319576E-03
      0.235000          0.311468E-03
      0.240000          0.304256E-03
      0.245000          0.297566E-03
      0.250000          0.291100E-03
      0.255000          0.284624E-03
      0.260000          0.277961E-03
      0.265000          0.270980E-03
      0.270000          0.263597E-03
      0.275000          0.255762E-03
      0.280000          0.247462E-03
      0.285000          0.238710E-03
      0.290000          0.229547E-03
      0.295000          0.220031E-03
      0.300000          0.210243E-03
      0.305000          0.200272E-03
      0.310000          0.190220E-03
      0.315000          0.180192E-03
      0.320000          0.170294E-03
      0.325000          0.160632E-03
      0.330000          0.151303E-03
      0.335000          0.142395E-03
      0.340000          0.133984E-03
      0.345000          0.126134E-03
      0.350000          0.118890E-03
      0.355000          0.112283E-03
      0.360000          0.106328E-03
      0.365000          0.101024E-03
      0.370000          0.963557E-04
      0.375000          0.922968E-04
      0.380000          0.888096E-04
      0.385000          0.858490E-04
      0.390000          0.833649E-04
      0.395000          0.813043E-04
      0.400000          0.796142E-04
      0.405000          0.782432E-04
      0.410000          0.771435E-04
      0.415000          0.762725E-04
      0.420000          0.755936E-04
      0.425000          0.750765E-04
      0.430000          0.746977E-04
      0.435000          0.744399E-04
      0.440000          0.742914E-04
      0.445000          0.742454E-04
      0.450000          0.742985E-04
      0.455000          0.744497E-04
      0.460000          0.746992E-04
      0.465000          0.750469E-04
      0.470000          0.754918E-04
      0.475000          0.760305E-04
      0.480000          0.766570E-04
      0.485000          0.773621E-04
      0.490000          0.781332E-04
      0.495000          0.789541E-04
      0.500000          0.798062E-04
