 I_abs(s)[cm^-1]/c[mg/ml]
       0.00000          0.146559E-01
      0.500000E-02      0.146192E-01
      0.100000E-01      0.145099E-01
      0.150000E-01      0.143293E-01
      0.200000E-01      0.140799E-01
      0.250000E-01      0.137649E-01
      0.300000E-01      0.133886E-01
      0.350000E-01      0.129558E-01
      0.400000E-01      0.124720E-01
      0.450000E-01      0.119435E-01
      0.500000E-01      0.113766E-01
      0.550000E-01      0.107783E-01
      0.600000E-01      0.101557E-01
      0.650000E-01      0.951569E-02
      0.700000E-01      0.886547E-02
      0.750000E-01      0.821186E-02
      0.800000E-01      0.756144E-02
      0.850000E-01      0.692040E-02
      0.900000E-01      0.629444E-02
      0.950000E-01      0.568875E-02
      0.100000          0.510786E-02
      0.105000          0.455569E-02
      0.110000          0.403546E-02
      0.115000          0.354969E-02
      0.120000          0.310021E-02
      0.125000          0.268819E-02
      0.130000          0.231413E-02
      0.135000          0.197793E-02
      0.140000          0.167893E-02
      0.145000          0.141598E-02
      0.150000          0.118749E-02
      0.155000          0.991493E-03
      0.160000          0.825753E-03
      0.165000          0.687794E-03
      0.170000          0.574993E-03
      0.175000          0.484640E-03
      0.180000          0.414003E-03
      0.185000          0.360387E-03
      0.190000          0.321179E-03
      0.195000          0.293900E-03
      0.200000          0.276232E-03
      0.205000          0.266054E-03
      0.210000          0.261457E-03
      0.215000          0.260760E-03
      0.220000          0.262517E-03
      0.225000          0.265511E-03
      0.230000          0.268756E-03
      0.235000          0.271479E-03
      0.240000          0.273107E-03
      0.245000          0.273250E-03
      0.250000          0.271678E-03
      0.255000          0.268302E-03
      0.260000          0.263147E-03
      0.265000          0.256331E-03
      0.270000          0.248045E-03
      0.275000          0.238529E-03
      0.280000          0.228056E-03
      0.285000          0.216914E-03
      0.290000          0.205388E-03
      0.295000          0.193754E-03
      0.300000          0.182266E-03
      0.305000          0.171146E-03
      0.310000          0.160586E-03
      0.315000          0.150737E-03
      0.320000          0.141715E-03
      0.325000          0.133596E-03
      0.330000          0.126421E-03
      0.335000          0.120201E-03
      0.340000          0.114916E-03
      0.345000          0.110522E-03
      0.350000          0.106957E-03
      0.355000          0.104143E-03
      0.360000          0.101994E-03
      0.365000          0.100415E-03
      0.370000          0.993138E-04
      0.375000          0.985966E-04
      0.380000          0.981756E-04
      0.385000          0.979702E-04
      0.390000          0.979083E-04
      0.395000          0.979281E-04
      0.400000          0.979780E-04
      0.405000          0.980176E-04
      0.410000          0.980166E-04
      0.415000          0.979547E-04
      0.420000          0.978207E-04
      0.425000          0.976111E-04
      0.430000          0.973290E-04
      0.435000          0.969830E-04
      0.440000          0.965853E-04
      0.445000          0.961513E-04
      0.450000          0.956972E-04
      0.455000          0.952401E-04
      0.460000          0.947962E-04
      0.465000          0.943800E-04
      0.470000          0.940042E-04
      0.475000          0.936786E-04
      0.480000          0.934099E-04
      0.485000          0.932018E-04
      0.490000          0.930544E-04
      0.495000          0.929648E-04
      0.500000          0.929269E-04
