 I_abs(s)[cm^-1]/c[mg/ml]
       0.00000          0.147915E-01
      0.500000E-02      0.147521E-01
      0.100000E-01      0.146345E-01
      0.150000E-01      0.144405E-01
      0.200000E-01      0.141733E-01
      0.250000E-01      0.138370E-01
      0.300000E-01      0.134368E-01
      0.350000E-01      0.129787E-01
      0.400000E-01      0.124697E-01
      0.450000E-01      0.119168E-01
      0.500000E-01      0.113280E-01
      0.550000E-01      0.107109E-01
      0.600000E-01      0.100737E-01
      0.650000E-01      0.942396E-02
      0.700000E-01      0.876923E-02
      0.750000E-01      0.811656E-02
      0.800000E-01      0.747243E-02
      0.850000E-01      0.684272E-02
      0.900000E-01      0.623260E-02
      0.950000E-01      0.564648E-02
      0.100000          0.508804E-02
      0.105000          0.456018E-02
      0.110000          0.406506E-02
      0.115000          0.360415E-02
      0.120000          0.317826E-02
      0.125000          0.278762E-02
      0.130000          0.243191E-02
      0.135000          0.211041E-02
      0.140000          0.182198E-02
      0.145000          0.156519E-02
      0.150000          0.133836E-02
      0.155000          0.113964E-02
      0.160000          0.967050E-03
      0.165000          0.818551E-03
      0.170000          0.692060E-03
      0.175000          0.585502E-03
      0.180000          0.496838E-03
      0.185000          0.424084E-03
      0.190000          0.365334E-03
      0.195000          0.318773E-03
      0.200000          0.282689E-03
      0.205000          0.255480E-03
      0.210000          0.235663E-03
      0.215000          0.221875E-03
      0.220000          0.212880E-03
      0.225000          0.207569E-03
      0.230000          0.204962E-03
      0.235000          0.204204E-03
      0.240000          0.204570E-03
      0.245000          0.205454E-03
      0.250000          0.206370E-03
      0.255000          0.206944E-03
      0.260000          0.206906E-03
      0.265000          0.206081E-03
      0.270000          0.204379E-03
      0.275000          0.201781E-03
      0.280000          0.198333E-03
      0.285000          0.194125E-03
      0.290000          0.189286E-03
      0.295000          0.183968E-03
      0.300000          0.178332E-03
      0.305000          0.172545E-03
      0.310000          0.166762E-03
      0.315000          0.161127E-03
      0.320000          0.155759E-03
      0.325000          0.150755E-03
      0.330000          0.146184E-03
      0.335000          0.142087E-03
      0.340000          0.138477E-03
      0.345000          0.135345E-03
      0.350000          0.132658E-03
      0.355000          0.130367E-03
      0.360000          0.128410E-03
      0.365000          0.126714E-03
      0.370000          0.125207E-03
      0.375000          0.123813E-03
      0.380000          0.122463E-03
      0.385000          0.121096E-03
      0.390000          0.119659E-03
      0.395000          0.118112E-03
      0.400000          0.116429E-03
      0.405000          0.114596E-03
      0.410000          0.112610E-03
      0.415000          0.110483E-03
      0.420000          0.108234E-03
      0.425000          0.105893E-03
      0.430000          0.103493E-03
      0.435000          0.101073E-03
      0.440000          0.986743E-04
      0.445000          0.963367E-04
      0.450000          0.940987E-04
      0.455000          0.919946E-04
      0.460000          0.900543E-04
      0.465000          0.883015E-04
      0.470000          0.867537E-04
      0.475000          0.854213E-04
      0.480000          0.843084E-04
      0.485000          0.834124E-04
      0.490000          0.827250E-04
      0.495000          0.822328E-04
      0.500000          0.819179E-04
