 I_abs(s)[cm^-1]/c[mg/ml]
       0.00000          0.147595E-01
      0.500000E-02      0.147224E-01
      0.100000E-01      0.146116E-01
      0.150000E-01      0.144287E-01
      0.200000E-01      0.141764E-01
      0.250000E-01      0.138585E-01
      0.300000E-01      0.134794E-01
      0.350000E-01      0.130446E-01
      0.400000E-01      0.125601E-01
      0.450000E-01      0.120324E-01
      0.500000E-01      0.114686E-01
      0.550000E-01      0.108758E-01
      0.600000E-01      0.102613E-01
      0.650000E-01      0.963232E-02
      0.700000E-01      0.899600E-02
      0.750000E-01      0.835902E-02
      0.800000E-01      0.772770E-02
      0.850000E-01      0.710783E-02
      0.900000E-01      0.650462E-02
      0.950000E-01      0.592260E-02
      0.100000          0.536565E-02
      0.105000          0.483692E-02
      0.110000          0.433885E-02
      0.115000          0.387322E-02
      0.120000          0.344115E-02
      0.125000          0.304314E-02
      0.130000          0.267914E-02
      0.135000          0.234863E-02
      0.140000          0.205064E-02
      0.145000          0.178387E-02
      0.150000          0.154673E-02
      0.155000          0.133740E-02
      0.160000          0.115394E-02
      0.165000          0.994293E-03
      0.170000          0.856378E-03
      0.175000          0.738114E-03
      0.180000          0.637465E-03
      0.185000          0.552473E-03
      0.190000          0.481277E-03
      0.195000          0.422137E-03
      0.200000          0.373436E-03
      0.205000          0.333697E-03
      0.210000          0.301574E-03
      0.215000          0.275858E-03
      0.220000          0.255470E-03
      0.225000          0.239452E-03
      0.230000          0.226965E-03
      0.235000          0.217274E-03
      0.240000          0.209745E-03
      0.245000          0.203834E-03
      0.250000          0.199080E-03
      0.255000          0.195096E-03
      0.260000          0.191565E-03
      0.265000          0.188228E-03
      0.270000          0.184886E-03
      0.275000          0.181388E-03
      0.280000          0.177628E-03
      0.285000          0.173542E-03
      0.290000          0.169097E-03
      0.295000          0.164295E-03
      0.300000          0.159158E-03
      0.305000          0.153734E-03
      0.310000          0.148081E-03
      0.315000          0.142273E-03
      0.320000          0.136387E-03
      0.325000          0.130504E-03
      0.330000          0.124703E-03
      0.335000          0.119059E-03
      0.340000          0.113640E-03
      0.345000          0.108503E-03
      0.350000          0.103697E-03
      0.355000          0.992570E-04
      0.360000          0.952056E-04
      0.365000          0.915549E-04
      0.370000          0.883053E-04
      0.375000          0.854477E-04
      0.380000          0.829644E-04
      0.385000          0.808310E-04
      0.390000          0.790181E-04
      0.395000          0.774934E-04
      0.400000          0.762230E-04
      0.405000          0.751730E-04
      0.410000          0.743112E-04
      0.415000          0.736077E-04
      0.420000          0.730360E-04
      0.425000          0.725734E-04
      0.430000          0.722011E-04
      0.435000          0.719044E-04
      0.440000          0.716722E-04
      0.445000          0.714971E-04
      0.450000          0.713740E-04
      0.455000          0.713004E-04
      0.460000          0.712752E-04
      0.465000          0.712982E-04
      0.470000          0.713696E-04
      0.475000          0.714895E-04
      0.480000          0.716574E-04
      0.485000          0.718722E-04
      0.490000          0.721314E-04
      0.495000          0.724319E-04
      0.500000          0.727692E-04
