 I_abs(s)[cm^-1]/c[mg/ml]
       0.00000          0.124108E-01
      0.500000E-02      0.121567E-01
      0.100000E-01      0.114402E-01
      0.150000E-01      0.103863E-01
      0.200000E-01      0.916361E-02
      0.250000E-01      0.793974E-02
      0.300000E-01      0.684260E-02
      0.350000E-01      0.593884E-02
      0.400000E-01      0.523418E-02
      0.450000E-01      0.469160E-02
      0.500000E-01      0.425756E-02
      0.550000E-01      0.388539E-02
      0.600000E-01      0.354828E-02
      0.650000E-01      0.323991E-02
      0.700000E-01      0.296617E-02
      0.750000E-01      0.273417E-02
      0.800000E-01      0.254435E-02
      0.850000E-01      0.238860E-02
      0.900000E-01      0.225366E-02
      0.950000E-01      0.212681E-02
      0.100000          0.200050E-02
      0.105000          0.187379E-02
      0.110000          0.175051E-02
      0.115000          0.163586E-02
      0.120000          0.153332E-02
      0.125000          0.144331E-02
      0.130000          0.136370E-02
      0.135000          0.129135E-02
      0.140000          0.122373E-02
      0.145000          0.115955E-02
      0.150000          0.109869E-02
      0.155000          0.104152E-02
      0.160000          0.988362E-03
      0.165000          0.939273E-03
      0.170000          0.894174E-03
      0.175000          0.853022E-03
      0.180000          0.815779E-03
      0.185000          0.782182E-03
      0.190000          0.751470E-03
      0.195000          0.722333E-03
      0.200000          0.693172E-03
      0.205000          0.662583E-03
      0.210000          0.629815E-03
      0.215000          0.594957E-03
      0.220000          0.558794E-03
      0.225000          0.522417E-03
      0.230000          0.486828E-03
      0.235000          0.452718E-03
      0.240000          0.420484E-03
      0.245000          0.390376E-03
      0.250000          0.362637E-03
      0.255000          0.337516E-03
      0.260000          0.315155E-03
      0.265000          0.295443E-03
      0.270000          0.277960E-03
      0.275000          0.262071E-03
      0.280000          0.247129E-03
      0.285000          0.232684E-03
      0.290000          0.218599E-03
      0.295000          0.205018E-03
      0.300000          0.192228E-03
      0.305000          0.180504E-03
      0.310000          0.170001E-03
      0.315000          0.160737E-03
      0.320000          0.152641E-03
      0.325000          0.145612E-03
      0.330000          0.139556E-03
      0.335000          0.134383E-03
      0.340000          0.129982E-03
      0.345000          0.126213E-03
      0.350000          0.122918E-03
      0.355000          0.119951E-03
      0.360000          0.117214E-03
      0.365000          0.114668E-03
      0.370000          0.112326E-03
      0.375000          0.110211E-03
      0.380000          0.108322E-03
      0.385000          0.106603E-03
      0.390000          0.104942E-03
      0.395000          0.103189E-03
      0.400000          0.101204E-03
      0.405000          0.989004E-04
      0.410000          0.962689E-04
      0.415000          0.933803E-04
      0.420000          0.903570E-04
      0.425000          0.873338E-04
      0.430000          0.844243E-04
      0.435000          0.817044E-04
      0.440000          0.792133E-04
      0.445000          0.769609E-04
      0.450000          0.749337E-04
      0.455000          0.730968E-04
      0.460000          0.713964E-04
      0.465000          0.697722E-04
      0.470000          0.681759E-04
      0.475000          0.665884E-04
      0.480000          0.650237E-04
      0.485000          0.635164E-04
      0.490000          0.621010E-04
      0.495000          0.607959E-04
      0.500000          0.596025E-04
