 I_abs(s)[cm^-1]/c[mg/ml]
       0.00000          0.117520E-01
      0.500000E-02      0.114736E-01
      0.100000E-01      0.106926E-01
      0.150000E-01      0.955574E-02
      0.200000E-01      0.825952E-02
      0.250000E-01      0.699627E-02
      0.300000E-01      0.590792E-02
      0.350000E-01      0.506145E-02
      0.400000E-01      0.445091E-02
      0.450000E-01      0.402089E-02
      0.500000E-01      0.369912E-02
      0.550000E-01      0.342488E-02
      0.600000E-01      0.316439E-02
      0.650000E-01      0.291108E-02
      0.700000E-01      0.267514E-02
      0.750000E-01      0.247002E-02
      0.800000E-01      0.230232E-02
      0.850000E-01      0.216865E-02
      0.900000E-01      0.205844E-02
      0.950000E-01      0.195959E-02
      0.100000          0.186334E-02
      0.105000          0.176616E-02
      0.110000          0.166878E-02
      0.115000          0.157372E-02
      0.120000          0.148308E-02
      0.125000          0.139761E-02
      0.130000          0.131704E-02
      0.135000          0.124096E-02
      0.140000          0.116941E-02
      0.145000          0.110293E-02
      0.150000          0.104209E-02
      0.155000          0.987048E-03
      0.160000          0.937377E-03
      0.165000          0.892256E-03
      0.170000          0.850802E-03
      0.175000          0.812265E-03
      0.180000          0.776004E-03
      0.185000          0.741323E-03
      0.190000          0.707368E-03
      0.195000          0.673232E-03
      0.200000          0.638242E-03
      0.205000          0.602255E-03
      0.210000          0.565785E-03
      0.215000          0.529850E-03
      0.220000          0.495620E-03
      0.225000          0.464039E-03
      0.230000          0.435580E-03
      0.235000          0.410232E-03
      0.240000          0.387654E-03
      0.245000          0.367393E-03
      0.250000          0.349040E-03
      0.255000          0.332274E-03
      0.260000          0.316829E-03
      0.265000          0.302428E-03
      0.270000          0.288763E-03
      0.275000          0.275516E-03
      0.280000          0.262419E-03
      0.285000          0.249313E-03
      0.290000          0.236187E-03
      0.295000          0.223176E-03
      0.300000          0.210537E-03
      0.305000          0.198601E-03
      0.310000          0.187701E-03
      0.315000          0.178097E-03
      0.320000          0.169912E-03
      0.325000          0.163100E-03
      0.330000          0.157456E-03
      0.335000          0.152671E-03
      0.340000          0.148405E-03
      0.345000          0.144349E-03
      0.350000          0.140268E-03
      0.355000          0.136011E-03
      0.360000          0.131506E-03
      0.365000          0.126749E-03
      0.370000          0.121809E-03
      0.375000          0.116815E-03
      0.380000          0.111953E-03
      0.385000          0.107430E-03
      0.390000          0.103443E-03
      0.395000          0.100138E-03
      0.400000          0.975789E-04
      0.405000          0.957300E-04
      0.410000          0.944555E-04
      0.415000          0.935339E-04
      0.420000          0.926951E-04
      0.425000          0.916741E-04
      0.430000          0.902727E-04
      0.435000          0.884062E-04
      0.440000          0.861192E-04
      0.445000          0.835586E-04
      0.450000          0.809190E-04
      0.455000          0.783800E-04
      0.460000          0.760639E-04
      0.465000          0.740222E-04
      0.470000          0.722474E-04
      0.475000          0.706949E-04
      0.480000          0.692998E-04
      0.485000          0.679871E-04
      0.490000          0.666805E-04
      0.495000          0.653160E-04
      0.500000          0.638599E-04
