 I_abs(s)[cm^-1]/c[mg/ml]
       0.00000          0.117306E-01
      0.500000E-02      0.114561E-01
      0.100000E-01      0.106867E-01
      0.150000E-01      0.956796E-02
      0.200000E-01      0.829378E-02
      0.250000E-01      0.705204E-02
      0.300000E-01      0.597935E-02
      0.350000E-01      0.513838E-02
      0.400000E-01      0.452193E-02
      0.450000E-01      0.407738E-02
      0.500000E-01      0.373828E-02
      0.550000E-01      0.345031E-02
      0.600000E-01      0.318364E-02
      0.650000E-01      0.293140E-02
      0.700000E-01      0.269955E-02
      0.750000E-01      0.249558E-02
      0.800000E-01      0.232156E-02
      0.850000E-01      0.217312E-02
      0.900000E-01      0.204272E-02
      0.950000E-01      0.192364E-02
      0.100000          0.181228E-02
      0.105000          0.170789E-02
      0.110000          0.161082E-02
      0.115000          0.152079E-02
      0.120000          0.143641E-02
      0.125000          0.135581E-02
      0.130000          0.127779E-02
      0.135000          0.120235E-02
      0.140000          0.113057E-02
      0.145000          0.106377E-02
      0.150000          0.100276E-02
      0.155000          0.947525E-03
      0.160000          0.897504E-03
      0.165000          0.852002E-03
      0.170000          0.810502E-03
      0.175000          0.772621E-03
      0.180000          0.737841E-03
      0.185000          0.705293E-03
      0.190000          0.673812E-03
      0.195000          0.642264E-03
      0.200000          0.609944E-03
      0.205000          0.576813E-03
      0.210000          0.543442E-03
      0.215000          0.510715E-03
      0.220000          0.479478E-03
      0.225000          0.450294E-03
      0.230000          0.423389E-03
      0.235000          0.398736E-03
      0.240000          0.376175E-03
      0.245000          0.355491E-03
      0.250000          0.336438E-03
      0.255000          0.318731E-03
      0.260000          0.302079E-03
      0.265000          0.286230E-03
      0.270000          0.271033E-03
      0.275000          0.256462E-03
      0.280000          0.242580E-03
      0.285000          0.229484E-03
      0.290000          0.217241E-03
      0.295000          0.205848E-03
      0.300000          0.195243E-03
      0.305000          0.185333E-03
      0.310000          0.176029E-03
      0.315000          0.167281E-03
      0.320000          0.159082E-03
      0.325000          0.151473E-03
      0.330000          0.144507E-03
      0.335000          0.138226E-03
      0.340000          0.132623E-03
      0.345000          0.127630E-03
      0.350000          0.123134E-03
      0.355000          0.119010E-03
      0.360000          0.115165E-03
      0.365000          0.111561E-03
      0.370000          0.108209E-03
      0.375000          0.105135E-03
      0.380000          0.102338E-03
      0.385000          0.997655E-04
      0.390000          0.973212E-04
      0.395000          0.949002E-04
      0.400000          0.924333E-04
      0.405000          0.899183E-04
      0.410000          0.874193E-04
      0.415000          0.850382E-04
      0.420000          0.828691E-04
      0.425000          0.809596E-04
      0.430000          0.792925E-04
      0.435000          0.777930E-04
      0.440000          0.763569E-04
      0.445000          0.748884E-04
      0.450000          0.733344E-04
      0.455000          0.717033E-04
      0.460000          0.700606E-04
      0.465000          0.684977E-04
      0.470000          0.670876E-04
      0.475000          0.658463E-04
      0.480000          0.647242E-04
      0.485000          0.636329E-04
      0.490000          0.624939E-04
      0.495000          0.612782E-04
      0.500000          0.600109E-04
