 I_abs(s)[cm^-1]/c[mg/ml]
       0.00000          0.116167E-01
      0.500000E-02      0.113387E-01
      0.100000E-01      0.105618E-01
      0.150000E-01      0.943872E-02
      0.200000E-01      0.817063E-02
      0.250000E-01      0.694854E-02
      0.300000E-01      0.590602E-02
      0.350000E-01      0.509789E-02
      0.400000E-01      0.450818E-02
      0.450000E-01      0.407875E-02
      0.500000E-01      0.374335E-02
      0.550000E-01      0.345287E-02
      0.600000E-01      0.318467E-02
      0.650000E-01      0.293723E-02
      0.700000E-01      0.271757E-02
      0.750000E-01      0.252973E-02
      0.800000E-01      0.236981E-02
      0.850000E-01      0.222784E-02
      0.900000E-01      0.209338E-02
      0.950000E-01      0.196038E-02
      0.100000          0.182882E-02
      0.105000          0.170284E-02
      0.110000          0.158732E-02
      0.115000          0.148504E-02
      0.120000          0.139579E-02
      0.125000          0.131713E-02
      0.130000          0.124603E-02
      0.135000          0.118006E-02
      0.140000          0.111785E-02
      0.145000          0.105885E-02
      0.150000          0.100285E-02
      0.155000          0.949797E-03
      0.160000          0.899679E-03
      0.165000          0.852553E-03
      0.170000          0.808446E-03
      0.175000          0.767207E-03
      0.180000          0.728409E-03
      0.185000          0.691457E-03
      0.190000          0.655827E-03
      0.195000          0.621312E-03
      0.200000          0.588068E-03
      0.205000          0.556426E-03
      0.210000          0.526598E-03
      0.215000          0.498459E-03
      0.220000          0.471558E-03
      0.225000          0.445343E-03
      0.230000          0.419455E-03
      0.235000          0.393914E-03
      0.240000          0.369103E-03
      0.245000          0.345572E-03
      0.250000          0.323794E-03
      0.255000          0.303999E-03
      0.260000          0.286142E-03
      0.265000          0.269997E-03
      0.270000          0.255285E-03
      0.275000          0.241773E-03
      0.280000          0.229310E-03
      0.285000          0.217806E-03
      0.290000          0.207200E-03
      0.295000          0.197436E-03
      0.300000          0.188465E-03
      0.305000          0.180251E-03
      0.310000          0.172781E-03
      0.315000          0.166058E-03
      0.320000          0.160093E-03
      0.325000          0.154893E-03
      0.330000          0.150451E-03
      0.335000          0.146725E-03
      0.340000          0.143628E-03
      0.345000          0.141001E-03
      0.350000          0.138631E-03
      0.355000          0.136278E-03
      0.360000          0.133741E-03
      0.365000          0.130910E-03
      0.370000          0.127788E-03
      0.375000          0.124469E-03
      0.380000          0.121078E-03
      0.385000          0.117721E-03
      0.390000          0.114456E-03
      0.395000          0.111297E-03
      0.400000          0.108236E-03
      0.405000          0.105267E-03
      0.410000          0.102393E-03
      0.415000          0.996209E-04
      0.420000          0.969607E-04
      0.425000          0.944150E-04
      0.430000          0.919764E-04
      0.435000          0.896235E-04
      0.440000          0.873230E-04
      0.445000          0.850415E-04
      0.450000          0.827653E-04
      0.455000          0.805188E-04
      0.460000          0.783687E-04
      0.465000          0.764041E-04
      0.470000          0.747002E-04
      0.475000          0.732811E-04
      0.480000          0.721025E-04
      0.485000          0.710639E-04
      0.490000          0.700473E-04
      0.495000          0.689630E-04
      0.500000          0.677811E-04
