 I_abs(s)[cm^-1]/c[mg/ml]
       0.00000          0.120611E-01
      0.500000E-02      0.117981E-01
      0.100000E-01      0.110595E-01
      0.150000E-01      0.998146E-02
      0.200000E-01      0.874627E-02
      0.250000E-01      0.753221E-02
      0.300000E-01      0.647115E-02
      0.350000E-01      0.562627E-02
      0.400000E-01      0.499447E-02
      0.450000E-01      0.452794E-02
      0.500000E-01      0.416358E-02
      0.550000E-01      0.384810E-02
      0.600000E-01      0.355107E-02
      0.650000E-01      0.326484E-02
      0.700000E-01      0.299562E-02
      0.750000E-01      0.275243E-02
      0.800000E-01      0.253958E-02
      0.850000E-01      0.235468E-02
      0.900000E-01      0.219130E-02
      0.950000E-01      0.204295E-02
      0.100000          0.190588E-02
      0.105000          0.177939E-02
      0.110000          0.166426E-02
      0.115000          0.156080E-02
      0.120000          0.146776E-02
      0.125000          0.138262E-02
      0.130000          0.130267E-02
      0.135000          0.122606E-02
      0.140000          0.115222E-02
      0.145000          0.108159E-02
      0.150000          0.101498E-02
      0.155000          0.953027E-03
      0.160000          0.896069E-03
      0.165000          0.844235E-03
      0.170000          0.797575E-03
      0.175000          0.756020E-03
      0.180000          0.719177E-03
      0.185000          0.686157E-03
      0.190000          0.655627E-03
      0.195000          0.626130E-03
      0.200000          0.596544E-03
      0.205000          0.566437E-03
      0.210000          0.536140E-03
      0.215000          0.506506E-03
      0.220000          0.478502E-03
      0.225000          0.452817E-03
      0.230000          0.429650E-03
      0.235000          0.408735E-03
      0.240000          0.389508E-03
      0.245000          0.371344E-03
      0.250000          0.353730E-03
      0.255000          0.336370E-03
      0.260000          0.319189E-03
      0.265000          0.302290E-03
      0.270000          0.285869E-03
      0.275000          0.270134E-03
      0.280000          0.255234E-03
      0.285000          0.241236E-03
      0.290000          0.228141E-03
      0.295000          0.215934E-03
      0.300000          0.204622E-03
      0.305000          0.194254E-03
      0.310000          0.184883E-03
      0.315000          0.176512E-03
      0.320000          0.169061E-03
      0.325000          0.162368E-03
      0.330000          0.156232E-03
      0.335000          0.150479E-03
      0.340000          0.145003E-03
      0.345000          0.139773E-03
      0.350000          0.134801E-03
      0.355000          0.130111E-03
      0.360000          0.125715E-03
      0.365000          0.121613E-03
      0.370000          0.117801E-03
      0.375000          0.114281E-03
      0.380000          0.111051E-03
      0.385000          0.108091E-03
      0.390000          0.105360E-03
      0.395000          0.102798E-03
      0.400000          0.100357E-03
      0.405000          0.980200E-04
      0.410000          0.958063E-04
      0.415000          0.937573E-04
      0.420000          0.919021E-04
      0.425000          0.902253E-04
      0.430000          0.886558E-04
      0.435000          0.870803E-04
      0.440000          0.853791E-04
      0.445000          0.834664E-04
      0.450000          0.813181E-04
      0.455000          0.789797E-04
      0.460000          0.765539E-04
      0.465000          0.741747E-04
      0.470000          0.719760E-04
      0.475000          0.700621E-04
      0.480000          0.684842E-04
      0.485000          0.672304E-04
      0.490000          0.662333E-04
      0.495000          0.653959E-04
      0.500000          0.646274E-04
