 I_abs(s)[cm^-1]/c[mg/ml]
       0.00000          0.121844E-01
      0.500000E-02      0.119231E-01
      0.100000E-01      0.111886E-01
      0.150000E-01      0.101135E-01
      0.200000E-01      0.887447E-02
      0.250000E-01      0.764390E-02
      0.300000E-01      0.654869E-02
      0.350000E-01      0.565013E-02
      0.400000E-01      0.494772E-02
      0.450000E-01      0.440103E-02
      0.500000E-01      0.395775E-02
      0.550000E-01      0.357623E-02
      0.600000E-01      0.323541E-02
      0.650000E-01      0.293243E-02
      0.700000E-01      0.267278E-02
      0.750000E-01      0.246021E-02
      0.800000E-01      0.229123E-02
      0.850000E-01      0.215553E-02
      0.900000E-01      0.204034E-02
      0.950000E-01      0.193518E-02
      0.100000          0.183441E-02
      0.105000          0.173684E-02
      0.110000          0.164353E-02
      0.115000          0.155547E-02
      0.120000          0.147248E-02
      0.125000          0.139344E-02
      0.130000          0.131725E-02
      0.135000          0.124354E-02
      0.140000          0.117270E-02
      0.145000          0.110547E-02
      0.150000          0.104237E-02
      0.155000          0.983536E-03
      0.160000          0.928834E-03
      0.165000          0.878190E-03
      0.170000          0.831634E-03
      0.175000          0.789104E-03
      0.180000          0.750130E-03
      0.185000          0.713715E-03
      0.190000          0.678566E-03
      0.195000          0.643581E-03
      0.200000          0.608303E-03
      0.205000          0.573057E-03
      0.210000          0.538705E-03
      0.215000          0.506154E-03
      0.220000          0.475940E-03
      0.225000          0.448086E-03
      0.230000          0.422284E-03
      0.235000          0.398218E-03
      0.240000          0.375798E-03
      0.245000          0.355168E-03
      0.250000          0.336505E-03
      0.255000          0.319781E-03
      0.260000          0.304637E-03
      0.265000          0.290462E-03
      0.270000          0.276617E-03
      0.275000          0.262667E-03
      0.280000          0.248508E-03
      0.285000          0.234344E-03
      0.290000          0.220549E-03
      0.295000          0.207501E-03
      0.300000          0.195473E-03
      0.305000          0.184585E-03
      0.310000          0.174823E-03
      0.315000          0.166081E-03
      0.320000          0.158213E-03
      0.325000          0.151080E-03
      0.330000          0.144592E-03
      0.335000          0.138727E-03
      0.340000          0.133532E-03
      0.345000          0.129076E-03
      0.350000          0.125390E-03
      0.355000          0.122403E-03
      0.360000          0.119926E-03
      0.365000          0.117687E-03
      0.370000          0.115418E-03
      0.375000          0.112953E-03
      0.380000          0.110282E-03
      0.385000          0.107540E-03
      0.390000          0.104932E-03
      0.395000          0.102630E-03
      0.400000          0.100702E-03
      0.405000          0.990889E-04
      0.410000          0.976456E-04
      0.415000          0.962085E-04
      0.420000          0.946503E-04
      0.425000          0.929049E-04
      0.430000          0.909626E-04
      0.435000          0.888530E-04
      0.440000          0.866288E-04
      0.445000          0.843568E-04
      0.450000          0.821068E-04
      0.455000          0.799393E-04
      0.460000          0.778950E-04
      0.465000          0.759952E-04
      0.470000          0.742562E-04
      0.475000          0.727043E-04
      0.480000          0.713777E-04
      0.485000          0.703055E-04
      0.490000          0.694741E-04
      0.495000          0.688071E-04
      0.500000          0.681773E-04
