 I_abs(s)[cm^-1]/c[mg/ml]
       0.00000          0.120394E-01
      0.500000E-02      0.117993E-01
      0.100000E-01      0.111210E-01
      0.150000E-01      0.101189E-01
      0.200000E-01      0.894977E-02
      0.250000E-01      0.777289E-02
      0.300000E-01      0.671476E-02
      0.350000E-01      0.584683E-02
      0.400000E-01      0.518215E-02
      0.450000E-01      0.468853E-02
      0.500000E-01      0.431114E-02
      0.550000E-01      0.399550E-02
      0.600000E-01      0.370348E-02
      0.650000E-01      0.341873E-02
      0.700000E-01      0.314280E-02
      0.750000E-01      0.288607E-02
      0.800000E-01      0.265844E-02
      0.850000E-01      0.246360E-02
      0.900000E-01      0.229795E-02
      0.950000E-01      0.215332E-02
      0.100000          0.202094E-02
      0.105000          0.189466E-02
      0.110000          0.177215E-02
      0.115000          0.165414E-02
      0.120000          0.154271E-02
      0.125000          0.143964E-02
      0.130000          0.134558E-02
      0.135000          0.126005E-02
      0.140000          0.118200E-02
      0.145000          0.111043E-02
      0.150000          0.104468E-02
      0.155000          0.984435E-03
      0.160000          0.929536E-03
      0.165000          0.879781E-03
      0.170000          0.834832E-03
      0.175000          0.794198E-03
      0.180000          0.757256E-03
      0.185000          0.723249E-03
      0.190000          0.691307E-03
      0.195000          0.660527E-03
      0.200000          0.630132E-03
      0.205000          0.599668E-03
      0.210000          0.569141E-03
      0.215000          0.538999E-03
      0.220000          0.509945E-03
      0.225000          0.482653E-03
      0.230000          0.457506E-03
      0.235000          0.434492E-03
      0.240000          0.413289E-03
      0.245000          0.393471E-03
      0.250000          0.374736E-03
      0.255000          0.357016E-03
      0.260000          0.340433E-03
      0.265000          0.325137E-03
      0.270000          0.311124E-03
      0.275000          0.298153E-03
      0.280000          0.285789E-03
      0.285000          0.273570E-03
      0.290000          0.261197E-03
      0.295000          0.248659E-03
      0.300000          0.236242E-03
      0.305000          0.224407E-03
      0.310000          0.213614E-03
      0.315000          0.204154E-03
      0.320000          0.196065E-03
      0.325000          0.189142E-03
      0.330000          0.183041E-03
      0.335000          0.177403E-03
      0.340000          0.171970E-03
      0.345000          0.166633E-03
      0.350000          0.161417E-03
      0.355000          0.156423E-03
      0.360000          0.151741E-03
      0.365000          0.147405E-03
      0.370000          0.143365E-03
      0.375000          0.139522E-03
      0.380000          0.135771E-03
      0.385000          0.132055E-03
      0.390000          0.128382E-03
      0.395000          0.124816E-03
      0.400000          0.121443E-03
      0.405000          0.118329E-03
      0.410000          0.115492E-03
      0.415000          0.112904E-03
      0.420000          0.110510E-03
      0.425000          0.108259E-03
      0.430000          0.106125E-03
      0.435000          0.104112E-03
      0.440000          0.102239E-03
      0.445000          0.100515E-03
      0.450000          0.989215E-04
      0.455000          0.974054E-04
      0.460000          0.958929E-04
      0.465000          0.943123E-04
      0.470000          0.926165E-04
      0.475000          0.907963E-04
      0.480000          0.888797E-04
      0.485000          0.869188E-04
      0.490000          0.849728E-04
      0.495000          0.830918E-04
      0.500000          0.813076E-04
