 I_abs(s)[cm^-1]/c[mg/ml]
       0.00000          0.121626E-01
      0.500000E-02      0.119102E-01
      0.100000E-01      0.111974E-01
      0.150000E-01      0.101448E-01
      0.200000E-01      0.891733E-02
      0.250000E-01      0.768233E-02
      0.300000E-01      0.657173E-02
      0.350000E-01      0.565887E-02
      0.400000E-01      0.495527E-02
      0.450000E-01      0.442531E-02
      0.500000E-01      0.401107E-02
      0.550000E-01      0.365729E-02
      0.600000E-01      0.332830E-02
      0.650000E-01      0.301300E-02
      0.700000E-01      0.271911E-02
      0.750000E-01      0.246176E-02
      0.800000E-01      0.225220E-02
      0.850000E-01      0.209138E-02
      0.900000E-01      0.196971E-02
      0.950000E-01      0.187173E-02
      0.100000          0.178241E-02
      0.105000          0.169206E-02
      0.110000          0.159798E-02
      0.115000          0.150298E-02
      0.120000          0.141211E-02
      0.125000          0.132947E-02
      0.130000          0.125655E-02
      0.135000          0.119219E-02
      0.140000          0.113384E-02
      0.145000          0.107895E-02
      0.150000          0.102592E-02
      0.155000          0.974212E-03
      0.160000          0.923868E-03
      0.165000          0.875035E-03
      0.170000          0.827721E-03
      0.175000          0.781940E-03
      0.180000          0.737996E-03
      0.185000          0.696629E-03
      0.190000          0.658831E-03
      0.195000          0.625409E-03
      0.200000          0.596520E-03
      0.205000          0.571457E-03
      0.210000          0.548831E-03
      0.215000          0.527045E-03
      0.220000          0.504858E-03
      0.225000          0.481750E-03
      0.230000          0.457963E-03
      0.235000          0.434223E-03
      0.240000          0.411337E-03
      0.245000          0.389857E-03
      0.250000          0.369969E-03
      0.255000          0.351586E-03
      0.260000          0.334560E-03
      0.265000          0.318854E-03
      0.270000          0.304579E-03
      0.275000          0.291883E-03
      0.280000          0.280781E-03
      0.285000          0.271028E-03
      0.290000          0.262116E-03
      0.295000          0.253414E-03
      0.300000          0.244367E-03
      0.305000          0.234679E-03
      0.310000          0.224386E-03
      0.315000          0.213811E-03
      0.320000          0.203408E-03
      0.325000          0.193594E-03
      0.330000          0.184614E-03
      0.335000          0.176507E-03
      0.340000          0.169153E-03
      0.345000          0.162376E-03
      0.350000          0.156040E-03
      0.355000          0.150111E-03
      0.360000          0.144641E-03
      0.365000          0.139716E-03
      0.370000          0.135379E-03
      0.375000          0.131585E-03
      0.380000          0.128202E-03
      0.385000          0.125066E-03
      0.390000          0.122044E-03
      0.395000          0.119095E-03
      0.400000          0.116269E-03
      0.405000          0.113672E-03
      0.410000          0.111388E-03
      0.415000          0.109420E-03
      0.420000          0.107668E-03
      0.425000          0.105955E-03
      0.430000          0.104100E-03
      0.435000          0.101977E-03
      0.440000          0.995615E-04
      0.445000          0.969166E-04
      0.450000          0.941532E-04
      0.455000          0.913762E-04
      0.460000          0.886483E-04
      0.465000          0.859828E-04
      0.470000          0.833618E-04
      0.475000          0.807637E-04
      0.480000          0.781830E-04
      0.485000          0.756351E-04
      0.490000          0.731512E-04
      0.495000          0.707703E-04
      0.500000          0.685358E-04
