 I_abs(s)[cm^-1]/c[mg/ml]
       0.00000          0.116807E-01
      0.500000E-02      0.114317E-01
      0.100000E-01      0.107275E-01
      0.150000E-01      0.968618E-02
      0.200000E-01      0.847073E-02
      0.250000E-01      0.725012E-02
      0.300000E-01      0.616218E-02
      0.350000E-01      0.528918E-02
      0.400000E-01      0.465111E-02
      0.450000E-01      0.421609E-02
      0.500000E-01      0.392208E-02
      0.550000E-01      0.370137E-02
      0.600000E-01      0.350007E-02
      0.650000E-01      0.328808E-02
      0.700000E-01      0.305893E-02
      0.750000E-01      0.282236E-02
      0.800000E-01      0.259422E-02
      0.850000E-01      0.238790E-02
      0.900000E-01      0.220972E-02
      0.950000E-01      0.205861E-02
      0.100000          0.192866E-02
      0.105000          0.181263E-02
      0.110000          0.170466E-02
      0.115000          0.160159E-02
      0.120000          0.150273E-02
      0.125000          0.140898E-02
      0.130000          0.132173E-02
      0.135000          0.124214E-02
      0.140000          0.117069E-02
      0.145000          0.110707E-02
      0.150000          0.105026E-02
      0.155000          0.998627E-03
      0.160000          0.950278E-03
      0.165000          0.903462E-03
      0.170000          0.857044E-03
      0.175000          0.810824E-03
      0.180000          0.765540E-03
      0.185000          0.722508E-03
      0.190000          0.683026E-03
      0.195000          0.647777E-03
      0.200000          0.616508E-03
      0.205000          0.588109E-03
      0.210000          0.561062E-03
      0.215000          0.534032E-03
      0.220000          0.506352E-03
      0.225000          0.478190E-03
      0.230000          0.450375E-03
      0.235000          0.423980E-03
      0.240000          0.399883E-03
      0.245000          0.378473E-03
      0.250000          0.359608E-03
      0.255000          0.342782E-03
      0.260000          0.327384E-03
      0.265000          0.312931E-03
      0.270000          0.299167E-03
      0.275000          0.286041E-03
      0.280000          0.273605E-03
      0.285000          0.261906E-03
      0.290000          0.250929E-03
      0.295000          0.240602E-03
      0.300000          0.230845E-03
      0.305000          0.221614E-03
      0.310000          0.212923E-03
      0.315000          0.204827E-03
      0.320000          0.197377E-03
      0.325000          0.190585E-03
      0.330000          0.184399E-03
      0.335000          0.178707E-03
      0.340000          0.173360E-03
      0.345000          0.168201E-03
      0.350000          0.163105E-03
      0.355000          0.158011E-03
      0.360000          0.152943E-03
      0.365000          0.148012E-03
      0.370000          0.143388E-03
      0.375000          0.139243E-03
      0.380000          0.135677E-03
      0.385000          0.132664E-03
      0.390000          0.130050E-03
      0.395000          0.127592E-03
      0.400000          0.125063E-03
      0.405000          0.122333E-03
      0.410000          0.119429E-03
      0.415000          0.116510E-03
      0.420000          0.113790E-03
      0.425000          0.111443E-03
      0.430000          0.109528E-03
      0.435000          0.107971E-03
      0.440000          0.106605E-03
      0.445000          0.105233E-03
      0.450000          0.103696E-03
      0.455000          0.101920E-03
      0.460000          0.999230E-04
      0.465000          0.977996E-04
      0.470000          0.956857E-04
      0.475000          0.937159E-04
      0.480000          0.919834E-04
      0.485000          0.905137E-04
      0.490000          0.892614E-04
      0.495000          0.881301E-04
      0.500000          0.870074E-04
