 I_abs(s)[cm^-1]/c[mg/ml]
       0.00000          0.115175E-01
      0.500000E-02      0.112425E-01
      0.100000E-01      0.104682E-01
      0.150000E-01      0.933264E-02
      0.200000E-01      0.802413E-02
      0.250000E-01      0.673313E-02
      0.300000E-01      0.560914E-02
      0.350000E-01      0.473466E-02
      0.400000E-01      0.412158E-02
      0.450000E-01      0.372721E-02
      0.500000E-01      0.348092E-02
      0.550000E-01      0.331088E-02
      0.600000E-01      0.316253E-02
      0.650000E-01      0.300570E-02
      0.700000E-01      0.283176E-02
      0.750000E-01      0.264561E-02
      0.800000E-01      0.245718E-02
      0.850000E-01      0.227578E-02
      0.900000E-01      0.210788E-02
      0.950000E-01      0.195721E-02
      0.100000          0.182556E-02
      0.105000          0.171316E-02
      0.110000          0.161856E-02
      0.115000          0.153851E-02
      0.120000          0.146835E-02
      0.125000          0.140312E-02
      0.130000          0.133886E-02
      0.135000          0.127356E-02
      0.140000          0.120727E-02
      0.145000          0.114147E-02
      0.150000          0.107806E-02
      0.155000          0.101851E-02
      0.160000          0.963515E-03
      0.165000          0.913036E-03
      0.170000          0.866652E-03
      0.175000          0.823798E-03
      0.180000          0.783865E-03
      0.185000          0.746182E-03
      0.190000          0.710057E-03
      0.195000          0.674917E-03
      0.200000          0.640523E-03
      0.205000          0.607080E-03
      0.210000          0.575144E-03
      0.215000          0.545306E-03
      0.220000          0.517832E-03
      0.225000          0.492441E-03
      0.230000          0.468377E-03
      0.235000          0.444731E-03
      0.240000          0.420849E-03
      0.245000          0.396625E-03
      0.250000          0.372513E-03
      0.255000          0.349299E-03
      0.260000          0.327746E-03
      0.265000          0.308303E-03
      0.270000          0.290993E-03
      0.275000          0.275487E-03
      0.280000          0.261297E-03
      0.285000          0.247965E-03
      0.290000          0.235180E-03
      0.295000          0.222805E-03
      0.300000          0.210845E-03
      0.305000          0.199397E-03
      0.310000          0.188603E-03
      0.315000          0.178606E-03
      0.320000          0.169504E-03
      0.325000          0.161308E-03
      0.330000          0.153926E-03
      0.335000          0.147190E-03
      0.340000          0.140918E-03
      0.345000          0.134990E-03
      0.350000          0.129385E-03
      0.355000          0.124161E-03
      0.360000          0.119386E-03
      0.365000          0.115067E-03
      0.370000          0.111112E-03
      0.375000          0.107359E-03
      0.380000          0.103645E-03
      0.385000          0.998812E-04
      0.390000          0.960877E-04
      0.395000          0.923643E-04
      0.400000          0.888289E-04
      0.405000          0.855532E-04
      0.410000          0.825360E-04
      0.415000          0.797209E-04
      0.420000          0.770429E-04
      0.425000          0.744705E-04
      0.430000          0.720192E-04
      0.435000          0.697356E-04
      0.440000          0.676662E-04
      0.445000          0.658351E-04
      0.450000          0.642433E-04
      0.455000          0.628862E-04
      0.460000          0.617710E-04
      0.465000          0.609175E-04
      0.470000          0.603361E-04
      0.475000          0.599933E-04
      0.480000          0.597863E-04
      0.485000          0.595468E-04
      0.490000          0.590803E-04
      0.495000          0.582284E-04
      0.500000          0.569293E-04
