 I_abs(s)[cm^-1]/c[mg/ml]
       0.00000          0.115671E-01
      0.500000E-02      0.112928E-01
      0.100000E-01      0.105253E-01
      0.150000E-01      0.941300E-02
      0.200000E-01      0.815312E-02
      0.250000E-01      0.693623E-02
      0.300000E-01      0.589943E-02
      0.350000E-01      0.510311E-02
      0.400000E-01      0.453551E-02
      0.450000E-01      0.413832E-02
      0.500000E-01      0.384013E-02
      0.550000E-01      0.358376E-02
      0.600000E-01      0.333916E-02
      0.650000E-01      0.310126E-02
      0.700000E-01      0.287841E-02
      0.750000E-01      0.267949E-02
      0.800000E-01      0.250624E-02
      0.850000E-01      0.235254E-02
      0.900000E-01      0.220895E-02
      0.950000E-01      0.206830E-02
      0.100000          0.192888E-02
      0.105000          0.179403E-02
      0.110000          0.166908E-02
      0.115000          0.155802E-02
      0.120000          0.146159E-02
      0.125000          0.137754E-02
      0.130000          0.130228E-02
      0.135000          0.123267E-02
      0.140000          0.116698E-02
      0.145000          0.110473E-02
      0.150000          0.104601E-02
      0.155000          0.990746E-03
      0.160000          0.938576E-03
      0.165000          0.889068E-03
      0.170000          0.842101E-03
      0.175000          0.797973E-03
      0.180000          0.757169E-03
      0.185000          0.719945E-03
      0.190000          0.686033E-03
      0.195000          0.654637E-03
      0.200000          0.624727E-03
      0.205000          0.595421E-03
      0.210000          0.566257E-03
      0.215000          0.537235E-03
      0.220000          0.508665E-03
      0.225000          0.480952E-03
      0.230000          0.454435E-03
      0.235000          0.429335E-03
      0.240000          0.405768E-03
      0.245000          0.383782E-03
      0.250000          0.363367E-03
      0.255000          0.344458E-03
      0.260000          0.326941E-03
      0.265000          0.310684E-03
      0.270000          0.295577E-03
      0.275000          0.281550E-03
      0.280000          0.268549E-03
      0.285000          0.256499E-03
      0.290000          0.245265E-03
      0.295000          0.234664E-03
      0.300000          0.224527E-03
      0.305000          0.214759E-03
      0.310000          0.205379E-03
      0.315000          0.196492E-03
      0.320000          0.188208E-03
      0.325000          0.180563E-03
      0.330000          0.173474E-03
      0.335000          0.166776E-03
      0.340000          0.160304E-03
      0.345000          0.153984E-03
      0.350000          0.147877E-03
      0.355000          0.142148E-03
      0.360000          0.136980E-03
      0.365000          0.132486E-03
      0.370000          0.128657E-03
      0.375000          0.125379E-03
      0.380000          0.122485E-03
      0.385000          0.119820E-03
      0.390000          0.117262E-03
      0.395000          0.114728E-03
      0.400000          0.112148E-03
      0.405000          0.109470E-03
      0.410000          0.106681E-03
      0.415000          0.103840E-03
      0.420000          0.101084E-03
      0.425000          0.985907E-04
      0.430000          0.965155E-04
      0.435000          0.949229E-04
      0.440000          0.937567E-04
      0.445000          0.928606E-04
      0.450000          0.920384E-04
      0.455000          0.911207E-04
      0.460000          0.900094E-04
      0.465000          0.886853E-04
      0.470000          0.871833E-04
      0.475000          0.855558E-04
      0.480000          0.838412E-04
      0.485000          0.820513E-04
      0.490000          0.801798E-04
      0.495000          0.782233E-04
      0.500000          0.762041E-04
