 I_abs(s)[cm^-1]/c[mg/ml]
       0.00000          0.121844E-01
      0.500000E-02      0.119187E-01
      0.100000E-01      0.111729E-01
      0.150000E-01      0.100852E-01
      0.200000E-01      0.884055E-02
      0.250000E-01      0.761958E-02
      0.300000E-01      0.655511E-02
      0.350000E-01      0.570945E-02
      0.400000E-01      0.507689E-02
      0.450000E-01      0.460613E-02
      0.500000E-01      0.423091E-02
      0.550000E-01      0.389634E-02
      0.600000E-01      0.357259E-02
      0.650000E-01      0.325463E-02
      0.700000E-01      0.295236E-02
      0.750000E-01      0.267835E-02
      0.800000E-01      0.243930E-02
      0.850000E-01      0.223374E-02
      0.900000E-01      0.205490E-02
      0.950000E-01      0.189545E-02
      0.100000          0.175089E-02
      0.105000          0.162013E-02
      0.110000          0.150376E-02
      0.115000          0.140177E-02
      0.120000          0.131232E-02
      0.125000          0.123202E-02
      0.130000          0.115743E-02
      0.135000          0.108641E-02
      0.140000          0.101863E-02
      0.145000          0.955016E-03
      0.150000          0.896671E-03
      0.155000          0.844034E-03
      0.160000          0.796681E-03
      0.165000          0.753761E-03
      0.170000          0.714588E-03
      0.175000          0.678945E-03
      0.180000          0.646909E-03
      0.185000          0.618388E-03
      0.190000          0.592756E-03
      0.195000          0.568874E-03
      0.200000          0.545506E-03
      0.205000          0.521861E-03
      0.210000          0.497927E-03
      0.215000          0.474375E-03
      0.220000          0.452115E-03
      0.225000          0.431749E-03
      0.230000          0.413235E-03
      0.235000          0.395917E-03
      0.240000          0.378871E-03
      0.245000          0.361347E-03
      0.250000          0.343077E-03
      0.255000          0.324319E-03
      0.260000          0.305678E-03
      0.265000          0.287818E-03
      0.270000          0.271240E-03
      0.275000          0.256192E-03
      0.280000          0.242705E-03
      0.285000          0.230694E-03
      0.290000          0.220041E-03
      0.295000          0.210626E-03
      0.300000          0.202320E-03
      0.305000          0.194968E-03
      0.310000          0.188382E-03
      0.315000          0.182382E-03
      0.320000          0.176834E-03
      0.325000          0.171679E-03
      0.330000          0.166935E-03
      0.335000          0.162652E-03
      0.340000          0.158857E-03
      0.345000          0.155503E-03
      0.350000          0.152453E-03
      0.355000          0.149511E-03
      0.360000          0.146493E-03
      0.365000          0.143284E-03
      0.370000          0.139879E-03
      0.375000          0.136356E-03
      0.380000          0.132822E-03
      0.385000          0.129344E-03
      0.390000          0.125927E-03
      0.395000          0.122525E-03
      0.400000          0.119109E-03
      0.405000          0.115711E-03
      0.410000          0.112441E-03
      0.415000          0.109441E-03
      0.420000          0.106812E-03
      0.425000          0.104545E-03
      0.430000          0.102502E-03
      0.435000          0.100464E-03
      0.440000          0.982117E-04
      0.445000          0.956228E-04
      0.450000          0.927216E-04
      0.455000          0.896745E-04
      0.460000          0.867303E-04
      0.465000          0.841339E-04
      0.470000          0.820475E-04
      0.475000          0.805087E-04
      0.480000          0.794327E-04
      0.485000          0.786526E-04
      0.490000          0.779749E-04
      0.495000          0.772287E-04
      0.500000          0.762941E-04
