 I_abs(s)[cm^-1]/c[mg/ml]
       0.00000          0.116096E-01
      0.500000E-02      0.113496E-01
      0.100000E-01      0.106143E-01
      0.150000E-01      0.952689E-02
      0.200000E-01      0.825787E-02
      0.250000E-01      0.698434E-02
      0.300000E-01      0.585147E-02
      0.350000E-01      0.494674E-02
      0.400000E-01      0.429251E-02
      0.450000E-01      0.385649E-02
      0.500000E-01      0.357391E-02
      0.550000E-01      0.337303E-02
      0.600000E-01      0.319572E-02
      0.650000E-01      0.300827E-02
      0.700000E-01      0.280179E-02
      0.750000E-01      0.258486E-02
      0.800000E-01      0.237328E-02
      0.850000E-01      0.218106E-02
      0.900000E-01      0.201538E-02
      0.950000E-01      0.187597E-02
      0.100000          0.175751E-02
      0.105000          0.165308E-02
      0.110000          0.155699E-02
      0.115000          0.146599E-02
      0.120000          0.137915E-02
      0.125000          0.129689E-02
      0.130000          0.121988E-02
      0.135000          0.114846E-02
      0.140000          0.108239E-02
      0.145000          0.102108E-02
      0.150000          0.963828E-03
      0.155000          0.910077E-03
      0.160000          0.859538E-03
      0.165000          0.812215E-03
      0.170000          0.768350E-03
      0.175000          0.728280E-03
      0.180000          0.692226E-03
      0.185000          0.660079E-03
      0.190000          0.631262E-03
      0.195000          0.604784E-03
      0.200000          0.579498E-03
      0.205000          0.554473E-03
      0.210000          0.529332E-03
      0.215000          0.504356E-03
      0.220000          0.480304E-03
      0.225000          0.457997E-03
      0.230000          0.437876E-03
      0.235000          0.419742E-03
      0.240000          0.402824E-03
      0.245000          0.386140E-03
      0.250000          0.368977E-03
      0.255000          0.351246E-03
      0.260000          0.333523E-03
      0.265000          0.316769E-03
      0.270000          0.301845E-03
      0.275000          0.289078E-03
      0.280000          0.278088E-03
      0.285000          0.267945E-03
      0.290000          0.257585E-03
      0.295000          0.246289E-03
      0.300000          0.233993E-03
      0.305000          0.221293E-03
      0.310000          0.209179E-03
      0.315000          0.198603E-03
      0.320000          0.190100E-03
      0.325000          0.183600E-03
      0.330000          0.178506E-03
      0.335000          0.173953E-03
      0.340000          0.169142E-03
      0.345000          0.163597E-03
      0.350000          0.157255E-03
      0.355000          0.150395E-03
      0.360000          0.143461E-03
      0.365000          0.136867E-03
      0.370000          0.130867E-03
      0.375000          0.125516E-03
      0.380000          0.120730E-03
      0.385000          0.116375E-03
      0.390000          0.112368E-03
      0.395000          0.108720E-03
      0.400000          0.105535E-03
      0.405000          0.102952E-03
      0.410000          0.101072E-03
      0.415000          0.998844E-04
      0.420000          0.992363E-04
      0.425000          0.988524E-04
      0.430000          0.984017E-04
      0.435000          0.975907E-04
      0.440000          0.962486E-04
      0.445000          0.943712E-04
      0.450000          0.921058E-04
      0.455000          0.896827E-04
      0.460000          0.873246E-04
      0.465000          0.851696E-04
      0.470000          0.832417E-04
      0.475000          0.814749E-04
      0.480000          0.797740E-04
      0.485000          0.780784E-04
      0.490000          0.763943E-04
      0.495000          0.747832E-04
      0.500000          0.733148E-04
