 I_abs(s)[cm^-1]/c[mg/ml]
       0.00000          0.124476E-01
      0.500000E-02      0.121893E-01
      0.100000E-01      0.114648E-01
      0.150000E-01      0.104094E-01
      0.200000E-01      0.920375E-02
      0.250000E-01      0.802403E-02
      0.300000E-01      0.699927E-02
      0.350000E-01      0.618911E-02
      0.400000E-01      0.558654E-02
      0.450000E-01      0.513998E-02
      0.500000E-01      0.478333E-02
      0.550000E-01      0.446174E-02
      0.600000E-01      0.414507E-02
      0.650000E-01      0.382772E-02
      0.700000E-01      0.351920E-02
      0.750000E-01      0.323235E-02
      0.800000E-01      0.297497E-02
      0.850000E-01      0.274740E-02
      0.900000E-01      0.254487E-02
      0.950000E-01      0.236166E-02
      0.100000          0.219411E-02
      0.105000          0.204117E-02
      0.110000          0.190296E-02
      0.115000          0.177897E-02
      0.120000          0.166712E-02
      0.125000          0.156431E-02
      0.130000          0.146768E-02
      0.135000          0.137577E-02
      0.140000          0.128873E-02
      0.145000          0.120761E-02
      0.150000          0.113330E-02
      0.155000          0.106573E-02
      0.160000          0.100381E-02
      0.165000          0.945979E-03
      0.170000          0.890958E-03
      0.175000          0.838165E-03
      0.180000          0.787683E-03
      0.185000          0.739853E-03
      0.190000          0.694829E-03
      0.195000          0.652388E-03
      0.200000          0.612067E-03
      0.205000          0.573481E-03
      0.210000          0.536579E-03
      0.215000          0.501668E-03
      0.220000          0.469203E-03
      0.225000          0.439488E-03
      0.230000          0.412464E-03
      0.235000          0.387713E-03
      0.240000          0.364642E-03
      0.245000          0.342735E-03
      0.250000          0.321744E-03
      0.255000          0.301718E-03
      0.260000          0.282886E-03
      0.265000          0.265476E-03
      0.270000          0.249566E-03
      0.275000          0.235032E-03
      0.280000          0.221602E-03
      0.285000          0.208966E-03
      0.290000          0.196896E-03
      0.295000          0.185301E-03
      0.300000          0.174221E-03
      0.305000          0.163770E-03
      0.310000          0.154061E-03
      0.315000          0.145158E-03
      0.320000          0.137073E-03
      0.325000          0.129779E-03
      0.330000          0.123238E-03
      0.335000          0.117416E-03
      0.340000          0.112274E-03
      0.345000          0.107765E-03
      0.350000          0.103827E-03
      0.355000          0.100397E-03
      0.360000          0.974208E-04
      0.365000          0.948550E-04
      0.370000          0.926545E-04
      0.375000          0.907560E-04
      0.380000          0.890747E-04
      0.385000          0.875215E-04
      0.390000          0.860318E-04
      0.395000          0.845856E-04
      0.400000          0.832051E-04
      0.405000          0.819296E-04
      0.410000          0.807869E-04
      0.415000          0.797803E-04
      0.420000          0.788985E-04
      0.425000          0.781347E-04
      0.430000          0.774969E-04
      0.435000          0.769973E-04
      0.440000          0.766299E-04
      0.445000          0.763524E-04
      0.450000          0.760905E-04
      0.455000          0.757618E-04
      0.460000          0.753075E-04
      0.465000          0.747128E-04
      0.470000          0.740066E-04
      0.475000          0.732466E-04
      0.480000          0.724972E-04
      0.485000          0.718110E-04
      0.490000          0.712157E-04
      0.495000          0.707073E-04
      0.500000          0.702496E-04
