 I_abs(s)[cm^-1]/c[mg/ml]
       0.00000          0.125654E-01
      0.500000E-02      0.123025E-01
      0.100000E-01      0.115652E-01
      0.150000E-01      0.104912E-01
      0.200000E-01      0.926409E-02
      0.250000E-01      0.806195E-02
      0.300000E-01      0.701428E-02
      0.350000E-01      0.618076E-02
      0.400000E-01      0.555507E-02
      0.450000E-01      0.508776E-02
      0.500000E-01      0.471602E-02
      0.550000E-01      0.438800E-02
      0.600000E-01      0.407469E-02
      0.650000E-01      0.376887E-02
      0.700000E-01      0.347611E-02
      0.750000E-01      0.320462E-02
      0.800000E-01      0.295872E-02
      0.850000E-01      0.273758E-02
      0.900000E-01      0.253749E-02
      0.950000E-01      0.235485E-02
      0.100000          0.218780E-02
      0.105000          0.203588E-02
      0.110000          0.189874E-02
      0.115000          0.177500E-02
      0.120000          0.166227E-02
      0.125000          0.155792E-02
      0.130000          0.146005E-02
      0.135000          0.136788E-02
      0.140000          0.128155E-02
      0.145000          0.120132E-02
      0.150000          0.112712E-02
      0.155000          0.105836E-02
      0.160000          0.994236E-03
      0.165000          0.934078E-03
      0.170000          0.877538E-03
      0.175000          0.824483E-03
      0.180000          0.774773E-03
      0.185000          0.728118E-03
      0.190000          0.684128E-03
      0.195000          0.642509E-03
      0.200000          0.603212E-03
      0.205000          0.566433E-03
      0.210000          0.532425E-03
      0.215000          0.501270E-03
      0.220000          0.472741E-03
      0.225000          0.446345E-03
      0.230000          0.421497E-03
      0.235000          0.397718E-03
      0.240000          0.374746E-03
      0.245000          0.352533E-03
      0.250000          0.331153E-03
      0.255000          0.310714E-03
      0.260000          0.291301E-03
      0.265000          0.272975E-03
      0.270000          0.255784E-03
      0.275000          0.239769E-03
      0.280000          0.224956E-03
      0.285000          0.211339E-03
      0.290000          0.198892E-03
      0.295000          0.187585E-03
      0.300000          0.177398E-03
      0.305000          0.168324E-03
      0.310000          0.160339E-03
      0.315000          0.153371E-03
      0.320000          0.147282E-03
      0.325000          0.141878E-03
      0.330000          0.136960E-03
      0.335000          0.132364E-03
      0.340000          0.127996E-03
      0.345000          0.123827E-03
      0.350000          0.119865E-03
      0.355000          0.116121E-03
      0.360000          0.112591E-03
      0.365000          0.109262E-03
      0.370000          0.106116E-03
      0.375000          0.103154E-03
      0.380000          0.100382E-03
      0.385000          0.978072E-04
      0.390000          0.954266E-04
      0.395000          0.932237E-04
      0.400000          0.911757E-04
      0.405000          0.892586E-04
      0.410000          0.874471E-04
      0.415000          0.857111E-04
      0.420000          0.840164E-04
      0.425000          0.823338E-04
      0.430000          0.806499E-04
      0.435000          0.789707E-04
      0.440000          0.773118E-04
      0.445000          0.756824E-04
      0.450000          0.740758E-04
      0.455000          0.724763E-04
      0.460000          0.708768E-04
      0.465000          0.692926E-04
      0.470000          0.677569E-04
      0.475000          0.662988E-04
      0.480000          0.649175E-04
      0.485000          0.635749E-04
      0.490000          0.622119E-04
      0.495000          0.607832E-04
      0.500000          0.592872E-04
