 I_abs(s)[cm^-1]/c[mg/ml]
       0.00000          0.118164E-01
      0.500000E-02      0.115614E-01
      0.100000E-01      0.108439E-01
      0.150000E-01      0.979267E-02
      0.200000E-01      0.858128E-02
      0.250000E-01      0.738233E-02
      0.300000E-01      0.632689E-02
      0.350000E-01      0.548181E-02
      0.400000E-01      0.484952E-02
      0.450000E-01      0.438648E-02
      0.500000E-01      0.403053E-02
      0.550000E-01      0.372612E-02
      0.600000E-01      0.343925E-02
      0.650000E-01      0.315977E-02
      0.700000E-01      0.289402E-02
      0.750000E-01      0.265361E-02
      0.800000E-01      0.244622E-02
      0.850000E-01      0.227165E-02
      0.900000E-01      0.212315E-02
      0.950000E-01      0.199153E-02
      0.100000          0.186933E-02
      0.105000          0.175290E-02
      0.110000          0.164203E-02
      0.115000          0.153818E-02
      0.120000          0.144258E-02
      0.125000          0.135533E-02
      0.130000          0.127555E-02
      0.135000          0.120207E-02
      0.140000          0.113411E-02
      0.145000          0.107145E-02
      0.150000          0.101406E-02
      0.155000          0.961790E-03
      0.160000          0.914065E-03
      0.165000          0.870050E-03
      0.170000          0.828911E-03
      0.175000          0.790054E-03
      0.180000          0.753141E-03
      0.185000          0.717933E-03
      0.190000          0.684100E-03
      0.195000          0.651168E-03
      0.200000          0.618652E-03
      0.205000          0.586290E-03
      0.210000          0.554196E-03
      0.215000          0.522853E-03
      0.220000          0.492917E-03
      0.225000          0.464957E-03
      0.230000          0.439270E-03
      0.235000          0.415851E-03
      0.240000          0.394504E-03
      0.245000          0.374994E-03
      0.250000          0.357145E-03
      0.255000          0.340839E-03
      0.260000          0.325935E-03
      0.265000          0.312194E-03
      0.270000          0.299269E-03
      0.275000          0.286775E-03
      0.280000          0.274403E-03
      0.285000          0.262015E-03
      0.290000          0.249660E-03
      0.295000          0.237531E-03
      0.300000          0.225862E-03
      0.305000          0.214856E-03
      0.310000          0.204640E-03
      0.315000          0.195282E-03
      0.320000          0.186819E-03
      0.325000          0.179280E-03
      0.330000          0.172678E-03
      0.335000          0.166976E-03
      0.340000          0.162062E-03
      0.345000          0.157751E-03
      0.350000          0.153815E-03
      0.355000          0.150043E-03
      0.360000          0.146284E-03
      0.365000          0.142473E-03
      0.370000          0.138614E-03
      0.375000          0.134755E-03
      0.380000          0.130950E-03
      0.385000          0.127248E-03
      0.390000          0.123680E-03
      0.395000          0.120263E-03
      0.400000          0.117001E-03
      0.405000          0.113881E-03
      0.410000          0.110891E-03
      0.415000          0.108027E-03
      0.420000          0.105309E-03
      0.425000          0.102781E-03
      0.430000          0.100488E-03
      0.435000          0.984546E-04
      0.440000          0.966611E-04
      0.445000          0.950479E-04
      0.450000          0.935369E-04
      0.455000          0.920590E-04
      0.460000          0.905712E-04
      0.465000          0.890542E-04
      0.470000          0.874989E-04
      0.475000          0.858953E-04
      0.480000          0.842330E-04
      0.485000          0.825139E-04
      0.490000          0.807634E-04
      0.495000          0.790297E-04
      0.500000          0.773673E-04
