 I_abs(s)[cm^-1]/c[mg/ml]
       0.00000          0.116025E-01
      0.500000E-02      0.113332E-01
      0.100000E-01      0.105772E-01
      0.150000E-01      0.947555E-02
      0.200000E-01      0.821641E-02
      0.250000E-01      0.698388E-02
      0.300000E-01      0.591357E-02
      0.350000E-01      0.506953E-02
      0.400000E-01      0.444690E-02
      0.450000E-01      0.399487E-02
      0.500000E-01      0.364794E-02
      0.550000E-01      0.335242E-02
      0.600000E-01      0.307996E-02
      0.650000E-01      0.282637E-02
      0.700000E-01      0.260076E-02
      0.750000E-01      0.241254E-02
      0.800000E-01      0.226279E-02
      0.850000E-01      0.214288E-02
      0.900000E-01      0.203889E-02
      0.950000E-01      0.193813E-02
      0.100000          0.183376E-02
      0.105000          0.172577E-02
      0.110000          0.161865E-02
      0.115000          0.151771E-02
      0.120000          0.142627E-02
      0.125000          0.134482E-02
      0.130000          0.127185E-02
      0.135000          0.120534E-02
      0.140000          0.114381E-02
      0.145000          0.108644E-02
      0.150000          0.103269E-02
      0.155000          0.981784E-03
      0.160000          0.932719E-03
      0.165000          0.884713E-03
      0.170000          0.837647E-03
      0.175000          0.792157E-03
      0.180000          0.749204E-03
      0.185000          0.709404E-03
      0.190000          0.672554E-03
      0.195000          0.637712E-03
      0.200000          0.603771E-03
      0.205000          0.570187E-03
      0.210000          0.537380E-03
      0.215000          0.506542E-03
      0.220000          0.478948E-03
      0.225000          0.455179E-03
      0.230000          0.434700E-03
      0.235000          0.416040E-03
      0.240000          0.397458E-03
      0.245000          0.377729E-03
      0.250000          0.356631E-03
      0.255000          0.334920E-03
      0.260000          0.313857E-03
      0.265000          0.294591E-03
      0.270000          0.277725E-03
      0.275000          0.263219E-03
      0.280000          0.250622E-03
      0.285000          0.239398E-03
      0.290000          0.229151E-03
      0.295000          0.219652E-03
      0.300000          0.210709E-03
      0.305000          0.202038E-03
      0.310000          0.193258E-03
      0.315000          0.184029E-03
      0.320000          0.174248E-03
      0.325000          0.164170E-03
      0.330000          0.154360E-03
      0.335000          0.145486E-03
      0.340000          0.138066E-03
      0.345000          0.132277E-03
      0.350000          0.127926E-03
      0.355000          0.124566E-03
      0.360000          0.121687E-03
      0.365000          0.118874E-03
      0.370000          0.115874E-03
      0.375000          0.112580E-03
      0.380000          0.108968E-03
      0.385000          0.105055E-03
      0.390000          0.100887E-03
      0.395000          0.965646E-04
      0.400000          0.922543E-04
      0.405000          0.881677E-04
      0.410000          0.845138E-04
      0.415000          0.814446E-04
      0.420000          0.790271E-04
      0.425000          0.772491E-04
      0.430000          0.760468E-04
      0.435000          0.753275E-04
      0.440000          0.749711E-04
      0.445000          0.748176E-04
      0.450000          0.746608E-04
      0.455000          0.742730E-04
      0.460000          0.734602E-04
      0.465000          0.721256E-04
      0.470000          0.703064E-04
      0.475000          0.681618E-04
      0.480000          0.659144E-04
      0.485000          0.637753E-04
      0.490000          0.618882E-04
      0.495000          0.603125E-04
      0.500000          0.590423E-04
