 I_abs(s)[cm^-1]/c[mg/ml]
       0.00000          0.113695E-01
      0.500000E-02      0.111064E-01
      0.100000E-01      0.103648E-01
      0.150000E-01      0.927497E-02
      0.200000E-01      0.801426E-02
      0.250000E-01      0.676164E-02
      0.300000E-01      0.565747E-02
      0.350000E-01      0.477975E-02
      0.400000E-01      0.414173E-02
      0.450000E-01      0.370753E-02
      0.500000E-01      0.341698E-02
      0.550000E-01      0.320949E-02
      0.600000E-01      0.303949E-02
      0.650000E-01      0.288126E-02
      0.700000E-01      0.272514E-02
      0.750000E-01      0.257020E-02
      0.800000E-01      0.241778E-02
      0.850000E-01      0.226839E-02
      0.900000E-01      0.212181E-02
      0.950000E-01      0.197861E-02
      0.100000          0.184107E-02
      0.105000          0.171276E-02
      0.110000          0.159695E-02
      0.115000          0.149506E-02
      0.120000          0.140600E-02
      0.125000          0.132691E-02
      0.130000          0.125449E-02
      0.135000          0.118639E-02
      0.140000          0.112174E-02
      0.145000          0.106085E-02
      0.150000          0.100445E-02
      0.155000          0.952901E-03
      0.160000          0.905913E-03
      0.165000          0.862659E-03
      0.170000          0.822135E-03
      0.175000          0.783445E-03
      0.180000          0.745889E-03
      0.185000          0.708929E-03
      0.190000          0.672184E-03
      0.195000          0.635535E-03
      0.200000          0.599282E-03
      0.205000          0.564190E-03
      0.210000          0.531292E-03
      0.215000          0.501493E-03
      0.220000          0.475144E-03
      0.225000          0.451838E-03
      0.230000          0.430553E-03
      0.235000          0.410090E-03
      0.240000          0.389579E-03
      0.245000          0.368795E-03
      0.250000          0.348136E-03
      0.255000          0.328317E-03
      0.260000          0.309954E-03
      0.265000          0.293283E-03
      0.270000          0.278122E-03
      0.275000          0.264063E-03
      0.280000          0.250726E-03
      0.285000          0.237946E-03
      0.290000          0.225777E-03
      0.295000          0.214374E-03
      0.300000          0.203842E-03
      0.305000          0.194143E-03
      0.310000          0.185127E-03
      0.315000          0.176618E-03
      0.320000          0.168500E-03
      0.325000          0.160749E-03
      0.330000          0.153400E-03
      0.335000          0.146504E-03
      0.340000          0.140096E-03
      0.345000          0.134208E-03
      0.350000          0.128885E-03
      0.355000          0.124182E-03
      0.360000          0.120114E-03
      0.365000          0.116603E-03
      0.370000          0.113452E-03
      0.375000          0.110392E-03
      0.380000          0.107186E-03
      0.385000          0.103742E-03
      0.390000          0.100160E-03
      0.395000          0.966837E-04
      0.400000          0.935695E-04
      0.405000          0.909488E-04
      0.410000          0.887550E-04
      0.415000          0.867561E-04
      0.420000          0.846719E-04
      0.425000          0.823056E-04
      0.430000          0.796210E-04
      0.435000          0.767291E-04
      0.440000          0.738068E-04
      0.445000          0.710041E-04
      0.450000          0.683961E-04
      0.455000          0.659993E-04
      0.460000          0.638273E-04
      0.465000          0.619387E-04
      0.470000          0.604371E-04
      0.475000          0.594200E-04
      0.480000          0.589094E-04
      0.485000          0.588082E-04
      0.490000          0.589149E-04
      0.495000          0.589916E-04
      0.500000          0.588520E-04
