 I_abs(s)[cm^-1]/c[mg/ml]
       0.00000          0.115600E-01
      0.500000E-02      0.112777E-01
      0.100000E-01      0.104812E-01
      0.150000E-01      0.930785E-02
      0.200000E-01      0.794793E-02
      0.250000E-01      0.659806E-02
      0.300000E-01      0.541812E-02
      0.350000E-01      0.450240E-02
      0.400000E-01      0.387160E-02
      0.450000E-01      0.348502E-02
      0.500000E-01      0.326596E-02
      0.550000E-01      0.313068E-02
      0.600000E-01      0.301174E-02
      0.650000E-01      0.287026E-02
      0.700000E-01      0.269628E-02
      0.750000E-01      0.250044E-02
      0.800000E-01      0.230210E-02
      0.850000E-01      0.211896E-02
      0.900000E-01      0.196102E-02
      0.950000E-01      0.182958E-02
      0.100000          0.171971E-02
      0.105000          0.162420E-02
      0.110000          0.153680E-02
      0.115000          0.145390E-02
      0.120000          0.137446E-02
      0.125000          0.129897E-02
      0.130000          0.122819E-02
      0.135000          0.116233E-02
      0.140000          0.110077E-02
      0.145000          0.104247E-02
      0.150000          0.986447E-03
      0.155000          0.932287E-03
      0.160000          0.880353E-03
      0.165000          0.831640E-03
      0.170000          0.787370E-03
      0.175000          0.748450E-03
      0.180000          0.715017E-03
      0.185000          0.686247E-03
      0.190000          0.660521E-03
      0.195000          0.635896E-03
      0.200000          0.610716E-03
      0.205000          0.584116E-03
      0.210000          0.556210E-03
      0.215000          0.527898E-03
      0.220000          0.500388E-03
      0.225000          0.474654E-03
      0.230000          0.451069E-03
      0.235000          0.429366E-03
      0.240000          0.408899E-03
      0.245000          0.389050E-03
      0.250000          0.369560E-03
      0.255000          0.350638E-03
      0.260000          0.332794E-03
      0.265000          0.316534E-03
      0.270000          0.302077E-03
      0.275000          0.289234E-03
      0.280000          0.277507E-03
      0.285000          0.266334E-03
      0.290000          0.255337E-03
      0.295000          0.244455E-03
      0.300000          0.233902E-03
      0.305000          0.223991E-03
      0.310000          0.214933E-03
      0.315000          0.206704E-03
      0.320000          0.199043E-03
      0.325000          0.191579E-03
      0.330000          0.183990E-03
      0.335000          0.176148E-03
      0.340000          0.168165E-03
      0.345000          0.160344E-03
      0.350000          0.153054E-03
      0.355000          0.146605E-03
      0.360000          0.141141E-03
      0.365000          0.136605E-03
      0.370000          0.132776E-03
      0.375000          0.129342E-03
      0.380000          0.126013E-03
      0.385000          0.122601E-03
      0.390000          0.119071E-03
      0.395000          0.115528E-03
      0.400000          0.112145E-03
      0.405000          0.109071E-03
      0.410000          0.106345E-03
      0.415000          0.103863E-03
      0.420000          0.101415E-03
      0.425000          0.987772E-04
      0.430000          0.958143E-04
      0.435000          0.925496E-04
      0.440000          0.891611E-04
      0.445000          0.859075E-04
      0.450000          0.830188E-04
      0.455000          0.806037E-04
      0.460000          0.786159E-04
      0.465000          0.768913E-04
      0.470000          0.752317E-04
      0.475000          0.734896E-04
      0.480000          0.716164E-04
      0.485000          0.696552E-04
      0.490000          0.676947E-04
      0.495000          0.658133E-04
      0.500000          0.640455E-04
