 I_abs(s)[cm^-1]/c[mg/ml]
       0.00000          0.113695E-01
      0.500000E-02      0.110856E-01
      0.100000E-01      0.102909E-01
      0.150000E-01      0.913955E-02
      0.200000E-01      0.783621E-02
      0.250000E-01      0.657915E-02
      0.300000E-01      0.551239E-02
      0.350000E-01      0.470210E-02
      0.400000E-01      0.414089E-02
      0.450000E-01      0.377294E-02
      0.500000E-01      0.352611E-02
      0.550000E-01      0.333807E-02
      0.600000E-01      0.316901E-02
      0.650000E-01      0.300115E-02
      0.700000E-01      0.283065E-02
      0.750000E-01      0.265880E-02
      0.800000E-01      0.248712E-02
      0.850000E-01      0.231682E-02
      0.900000E-01      0.215052E-02
      0.950000E-01      0.199332E-02
      0.100000          0.185165E-02
      0.105000          0.173060E-02
      0.110000          0.163136E-02
      0.115000          0.155052E-02
      0.120000          0.148157E-02
      0.125000          0.141753E-02
      0.130000          0.135346E-02
      0.135000          0.128745E-02
      0.140000          0.122015E-02
      0.145000          0.115343E-02
      0.150000          0.108901E-02
      0.155000          0.102786E-02
      0.160000          0.970192E-03
      0.165000          0.915839E-03
      0.170000          0.864578E-03
      0.175000          0.816231E-03
      0.180000          0.770643E-03
      0.185000          0.727683E-03
      0.190000          0.687321E-03
      0.195000          0.649689E-03
      0.200000          0.615008E-03
      0.205000          0.583352E-03
      0.210000          0.554405E-03
      0.215000          0.527390E-03
      0.220000          0.501285E-03
      0.225000          0.475238E-03
      0.230000          0.448933E-03
      0.235000          0.422707E-03
      0.240000          0.397330E-03
      0.245000          0.373593E-03
      0.250000          0.351931E-03
      0.255000          0.332287E-03
      0.260000          0.314241E-03
      0.265000          0.297291E-03
      0.270000          0.281101E-03
      0.275000          0.265583E-03
      0.280000          0.250834E-03
      0.285000          0.236996E-03
      0.290000          0.224158E-03
      0.295000          0.212325E-03
      0.300000          0.201446E-03
      0.305000          0.191437E-03
      0.310000          0.182190E-03
      0.315000          0.173568E-03
      0.320000          0.165435E-03
      0.325000          0.157718E-03
      0.330000          0.150464E-03
      0.335000          0.143839E-03
      0.340000          0.138044E-03
      0.345000          0.133180E-03
      0.350000          0.129141E-03
      0.355000          0.125611E-03
      0.360000          0.122172E-03
      0.365000          0.118474E-03
      0.370000          0.114370E-03
      0.375000          0.109951E-03
      0.380000          0.105473E-03
      0.385000          0.101215E-03
      0.390000          0.973677E-04
      0.395000          0.939797E-04
      0.400000          0.909820E-04
      0.405000          0.882532E-04
      0.410000          0.856819E-04
      0.415000          0.831993E-04
      0.420000          0.807799E-04
      0.425000          0.784235E-04
      0.430000          0.761364E-04
      0.435000          0.739200E-04
      0.440000          0.717680E-04
      0.445000          0.696706E-04
      0.450000          0.676232E-04
      0.455000          0.656385E-04
      0.460000          0.637593E-04
      0.465000          0.620616E-04
      0.470000          0.606406E-04
      0.475000          0.595771E-04
      0.480000          0.588948E-04
      0.485000          0.585278E-04
      0.490000          0.583210E-04
      0.495000          0.580703E-04
      0.500000          0.575891E-04
