 I_abs(s)[cm^-1]/c[mg/ml]
       0.00000          0.118379E-01
      0.500000E-02      0.115537E-01
      0.100000E-01      0.107550E-01
      0.150000E-01      0.958733E-02
      0.200000E-01      0.824605E-02
      0.250000E-01      0.692363E-02
      0.300000E-01      0.576522E-02
      0.350000E-01      0.484554E-02
      0.400000E-01      0.417091E-02
      0.450000E-01      0.370048E-02
      0.500000E-01      0.337451E-02
      0.550000E-01      0.313799E-02
      0.600000E-01      0.295258E-02
      0.650000E-01      0.279684E-02
      0.700000E-01      0.265971E-02
      0.750000E-01      0.253327E-02
      0.800000E-01      0.240932E-02
      0.850000E-01      0.228014E-02
      0.900000E-01      0.214148E-02
      0.950000E-01      0.199477E-02
      0.100000          0.184657E-02
      0.105000          0.170571E-02
      0.110000          0.157966E-02
      0.115000          0.147195E-02
      0.120000          0.138181E-02
      0.125000          0.130555E-02
      0.130000          0.123866E-02
      0.135000          0.117751E-02
      0.140000          0.111990E-02
      0.145000          0.106498E-02
      0.150000          0.101259E-02
      0.155000          0.962837E-03
      0.160000          0.915893E-03
      0.165000          0.871871E-03
      0.170000          0.830706E-03
      0.175000          0.791997E-03
      0.180000          0.754931E-03
      0.185000          0.718455E-03
      0.190000          0.681658E-03
      0.195000          0.644196E-03
      0.200000          0.606507E-03
      0.205000          0.569665E-03
      0.210000          0.534951E-03
      0.215000          0.503365E-03
      0.220000          0.475307E-03
      0.225000          0.450558E-03
      0.230000          0.428489E-03
      0.235000          0.408340E-03
      0.240000          0.389414E-03
      0.245000          0.371146E-03
      0.250000          0.353104E-03
      0.255000          0.334992E-03
      0.260000          0.316707E-03
      0.265000          0.298402E-03
      0.270000          0.280477E-03
      0.275000          0.263463E-03
      0.280000          0.247840E-03
      0.285000          0.233864E-03
      0.290000          0.221504E-03
      0.295000          0.210509E-03
      0.300000          0.200547E-03
      0.305000          0.191343E-03
      0.310000          0.182743E-03
      0.315000          0.174686E-03
      0.320000          0.167154E-03
      0.325000          0.160118E-03
      0.330000          0.153529E-03
      0.335000          0.147344E-03
      0.340000          0.141532E-03
      0.345000          0.136073E-03
      0.350000          0.130930E-03
      0.355000          0.126042E-03
      0.360000          0.121331E-03
      0.365000          0.116745E-03
      0.370000          0.112292E-03
      0.375000          0.108044E-03
      0.380000          0.104114E-03
      0.385000          0.100604E-03
      0.390000          0.975646E-04
      0.395000          0.949668E-04
      0.400000          0.927058E-04
      0.405000          0.906190E-04
      0.410000          0.885177E-04
      0.415000          0.862267E-04
      0.420000          0.836293E-04
      0.425000          0.807053E-04
      0.430000          0.775458E-04
      0.435000          0.743305E-04
      0.440000          0.712706E-04
      0.445000          0.685386E-04
      0.450000          0.662168E-04
      0.455000          0.642877E-04
      0.460000          0.626681E-04
      0.465000          0.612658E-04
      0.470000          0.600284E-04
      0.475000          0.589602E-04
      0.480000          0.581031E-04
      0.485000          0.574939E-04
      0.490000          0.571232E-04
      0.495000          0.569163E-04
      0.500000          0.567459E-04
