 I_abs(s)[cm^-1]/c[mg/ml]
       0.00000          0.116309E-01
      0.500000E-02      0.113755E-01
      0.100000E-01      0.106561E-01
      0.150000E-01      0.960001E-02
      0.200000E-01      0.838124E-02
      0.250000E-01      0.717588E-02
      0.300000E-01      0.612178E-02
      0.350000E-01      0.529359E-02
      0.400000E-01      0.469895E-02
      0.450000E-01      0.429371E-02
      0.500000E-01      0.400827E-02
      0.550000E-01      0.377472E-02
      0.600000E-01      0.354590E-02
      0.650000E-01      0.330234E-02
      0.700000E-01      0.304785E-02
      0.750000E-01      0.279841E-02
      0.800000E-01      0.257045E-02
      0.850000E-01      0.237303E-02
      0.900000E-01      0.220581E-02
      0.950000E-01      0.206178E-02
      0.100000          0.193216E-02
      0.105000          0.181049E-02
      0.110000          0.169450E-02
      0.115000          0.158526E-02
      0.120000          0.148508E-02
      0.125000          0.139526E-02
      0.130000          0.131509E-02
      0.135000          0.124216E-02
      0.140000          0.117357E-02
      0.145000          0.110732E-02
      0.150000          0.104299E-02
      0.155000          0.981578E-03
      0.160000          0.924736E-03
      0.165000          0.873733E-03
      0.170000          0.828770E-03
      0.175000          0.788849E-03
      0.180000          0.752206E-03
      0.185000          0.717025E-03
      0.190000          0.682119E-03
      0.195000          0.647271E-03
      0.200000          0.613152E-03
      0.205000          0.580871E-03
      0.210000          0.551398E-03
      0.215000          0.525103E-03
      0.220000          0.501591E-03
      0.225000          0.479901E-03
      0.230000          0.458942E-03
      0.235000          0.437962E-03
      0.240000          0.416838E-03
      0.245000          0.396055E-03
      0.250000          0.376396E-03
      0.255000          0.358511E-03
      0.260000          0.342566E-03
      0.265000          0.328160E-03
      0.270000          0.314528E-03
      0.275000          0.300919E-03
      0.280000          0.286967E-03
      0.285000          0.272834E-03
      0.290000          0.259098E-03
      0.295000          0.246420E-03
      0.300000          0.235188E-03
      0.305000          0.225323E-03
      0.310000          0.216332E-03
      0.315000          0.207574E-03
      0.320000          0.198600E-03
      0.325000          0.189375E-03
      0.330000          0.180286E-03
      0.335000          0.171931E-03
      0.340000          0.164819E-03
      0.345000          0.159113E-03
      0.350000          0.154560E-03
      0.355000          0.150613E-03
      0.360000          0.146669E-03
      0.365000          0.142320E-03
      0.370000          0.137475E-03
      0.375000          0.132343E-03
      0.380000          0.127282E-03
      0.385000          0.122618E-03
      0.390000          0.118514E-03
      0.395000          0.114934E-03
      0.400000          0.111706E-03
      0.405000          0.108638E-03
      0.410000          0.105612E-03
      0.415000          0.102627E-03
      0.420000          0.997766E-04
      0.425000          0.971862E-04
      0.430000          0.949475E-04
      0.435000          0.930847E-04
      0.440000          0.915653E-04
      0.445000          0.903399E-04
      0.450000          0.893854E-04
      0.455000          0.887227E-04
      0.460000          0.883967E-04
      0.465000          0.884274E-04
      0.470000          0.887574E-04
      0.475000          0.892242E-04
      0.480000          0.895763E-04
      0.485000          0.895315E-04
      0.490000          0.888588E-04
      0.495000          0.874524E-04
      0.500000          0.853704E-04
