 I_abs(s)[cm^-1]/c[mg/ml]
       0.00000          0.122280E-01
      0.500000E-02      0.119733E-01
      0.100000E-01      0.112570E-01
      0.150000E-01      0.102094E-01
      0.200000E-01      0.900464E-02
      0.250000E-01      0.781387E-02
      0.300000E-01      0.676427E-02
      0.350000E-01      0.591753E-02
      0.400000E-01      0.527164E-02
      0.450000E-01      0.478123E-02
      0.500000E-01      0.438580E-02
      0.550000E-01      0.403413E-02
      0.600000E-01      0.369750E-02
      0.650000E-01      0.337008E-02
      0.700000E-01      0.306032E-02
      0.750000E-01      0.277999E-02
      0.800000E-01      0.253603E-02
      0.850000E-01      0.232795E-02
      0.900000E-01      0.214983E-02
      0.950000E-01      0.199426E-02
      0.100000          0.185554E-02
      0.105000          0.173062E-02
      0.110000          0.161830E-02
      0.115000          0.151768E-02
      0.120000          0.142730E-02
      0.125000          0.134514E-02
      0.130000          0.126944E-02
      0.135000          0.119921E-02
      0.140000          0.113437E-02
      0.145000          0.107513E-02
      0.150000          0.102134E-02
      0.155000          0.972132E-03
      0.160000          0.926170E-03
      0.165000          0.882213E-03
      0.170000          0.839675E-03
      0.175000          0.798760E-03
      0.180000          0.760130E-03
      0.185000          0.724334E-03
      0.190000          0.691345E-03
      0.195000          0.660468E-03
      0.200000          0.630632E-03
      0.205000          0.600864E-03
      0.210000          0.570667E-03
      0.215000          0.540143E-03
      0.220000          0.509818E-03
      0.225000          0.480342E-03
      0.230000          0.452209E-03
      0.235000          0.425630E-03
      0.240000          0.400562E-03
      0.245000          0.376835E-03
      0.250000          0.354281E-03
      0.255000          0.332815E-03
      0.260000          0.312458E-03
      0.265000          0.293309E-03
      0.270000          0.275512E-03
      0.275000          0.259203E-03
      0.280000          0.244471E-03
      0.285000          0.231324E-03
      0.290000          0.219669E-03
      0.295000          0.209321E-03
      0.300000          0.200037E-03
      0.305000          0.191562E-03
      0.310000          0.183667E-03
      0.315000          0.176178E-03
      0.320000          0.168982E-03
      0.325000          0.162017E-03
      0.330000          0.155260E-03
      0.335000          0.148717E-03
      0.340000          0.142411E-03
      0.345000          0.136378E-03
      0.350000          0.130665E-03
      0.355000          0.125325E-03
      0.360000          0.120413E-03
      0.365000          0.115971E-03
      0.370000          0.112008E-03
      0.375000          0.108482E-03
      0.380000          0.105296E-03
      0.385000          0.102321E-03
      0.390000          0.994401E-04
      0.395000          0.965886E-04
      0.400000          0.937800E-04
      0.405000          0.910898E-04
      0.410000          0.886131E-04
      0.415000          0.864129E-04
      0.420000          0.844888E-04
      0.425000          0.827787E-04
      0.430000          0.811886E-04
      0.435000          0.796325E-04
      0.440000          0.780609E-04
      0.445000          0.764668E-04
      0.450000          0.748715E-04
      0.455000          0.733014E-04
      0.460000          0.717698E-04
      0.465000          0.702706E-04
      0.470000          0.687840E-04
      0.475000          0.672886E-04
      0.480000          0.657710E-04
      0.485000          0.642283E-04
      0.490000          0.626650E-04
      0.495000          0.610878E-04
      0.500000          0.595073E-04
