 I_abs(s)[cm^-1]/c[mg/ml]
       0.00000          0.119096E-01
      0.500000E-02      0.116405E-01
      0.100000E-01      0.108856E-01
      0.150000E-01      0.978547E-02
      0.200000E-01      0.852686E-02
      0.250000E-01      0.728998E-02
      0.300000E-01      0.620527E-02
      0.350000E-01      0.533268E-02
      0.400000E-01      0.466703E-02
      0.450000E-01      0.416206E-02
      0.500000E-01      0.376043E-02
      0.550000E-01      0.341697E-02
      0.600000E-01      0.310850E-02
      0.650000E-01      0.283073E-02
      0.700000E-01      0.258820E-02
      0.750000E-01      0.238424E-02
      0.800000E-01      0.221591E-02
      0.850000E-01      0.207469E-02
      0.900000E-01      0.195048E-02
      0.950000E-01      0.183560E-02
      0.100000          0.172650E-02
      0.105000          0.162298E-02
      0.110000          0.152609E-02
      0.115000          0.143637E-02
      0.120000          0.135336E-02
      0.125000          0.127606E-02
      0.130000          0.120368E-02
      0.135000          0.113602E-02
      0.140000          0.107318E-02
      0.145000          0.101509E-02
      0.150000          0.961218E-03
      0.155000          0.910732E-03
      0.160000          0.862936E-03
      0.165000          0.817601E-03
      0.170000          0.774961E-03
      0.175000          0.735378E-03
      0.180000          0.698939E-03
      0.185000          0.665253E-03
      0.190000          0.633595E-03
      0.195000          0.603235E-03
      0.200000          0.573750E-03
      0.205000          0.545122E-03
      0.210000          0.517597E-03
      0.215000          0.491442E-03
      0.220000          0.466769E-03
      0.225000          0.443503E-03
      0.230000          0.421478E-03
      0.235000          0.400552E-03
      0.240000          0.380658E-03
      0.245000          0.361779E-03
      0.250000          0.343894E-03
      0.255000          0.326944E-03
      0.260000          0.310861E-03
      0.265000          0.295606E-03
      0.270000          0.281191E-03
      0.275000          0.267647E-03
      0.280000          0.254977E-03
      0.285000          0.243111E-03
      0.290000          0.231911E-03
      0.295000          0.221224E-03
      0.300000          0.210933E-03
      0.305000          0.201006E-03
      0.310000          0.191493E-03
      0.315000          0.182505E-03
      0.320000          0.174186E-03
      0.325000          0.166673E-03
      0.330000          0.160067E-03
      0.335000          0.154393E-03
      0.340000          0.149569E-03
      0.345000          0.145401E-03
      0.350000          0.141622E-03
      0.355000          0.137957E-03
      0.360000          0.134210E-03
      0.365000          0.130304E-03
      0.370000          0.126284E-03
      0.375000          0.122268E-03
      0.380000          0.118382E-03
      0.385000          0.114713E-03
      0.390000          0.111296E-03
      0.395000          0.108123E-03
      0.400000          0.105161E-03
      0.405000          0.102365E-03
      0.410000          0.996828E-04
      0.415000          0.970586E-04
      0.420000          0.944413E-04
      0.425000          0.917981E-04
      0.430000          0.891245E-04
      0.435000          0.864485E-04
      0.440000          0.838255E-04
      0.445000          0.813294E-04
      0.450000          0.790436E-04
      0.455000          0.770485E-04
      0.460000          0.754030E-04
      0.465000          0.741210E-04
      0.470000          0.731496E-04
      0.475000          0.723641E-04
      0.480000          0.715926E-04
      0.485000          0.706663E-04
      0.490000          0.694791E-04
      0.495000          0.680277E-04
      0.500000          0.664109E-04
