 I_abs(s)[cm^-1]/c[mg/ml]
       0.00000          0.118164E-01
      0.500000E-02      0.115546E-01
      0.100000E-01      0.108164E-01
      0.150000E-01      0.972993E-02
      0.200000E-01      0.846916E-02
      0.250000E-01      0.720934E-02
      0.300000E-01      0.608715E-02
      0.350000E-01      0.517771E-02
      0.400000E-01      0.449278E-02
      0.450000E-01      0.399701E-02
      0.500000E-01      0.363306E-02
      0.550000E-01      0.334553E-02
      0.600000E-01      0.309594E-02
      0.650000E-01      0.286653E-02
      0.700000E-01      0.265505E-02
      0.750000E-01      0.246587E-02
      0.800000E-01      0.230216E-02
      0.850000E-01      0.216224E-02
      0.900000E-01      0.204000E-02
      0.950000E-01      0.192783E-02
      0.100000          0.181961E-02
      0.105000          0.171229E-02
      0.110000          0.160578E-02
      0.115000          0.150176E-02
      0.120000          0.140233E-02
      0.125000          0.130918E-02
      0.130000          0.122332E-02
      0.135000          0.114510E-02
      0.140000          0.107435E-02
      0.145000          0.101043E-02
      0.150000          0.952294E-03
      0.155000          0.898731E-03
      0.160000          0.848682E-03
      0.165000          0.801538E-03
      0.170000          0.757203E-03
      0.175000          0.715878E-03
      0.180000          0.677682E-03
      0.185000          0.642345E-03
      0.190000          0.609174E-03
      0.195000          0.577324E-03
      0.200000          0.546202E-03
      0.205000          0.515756E-03
      0.210000          0.486487E-03
      0.215000          0.459153E-03
      0.220000          0.434363E-03
      0.225000          0.412255E-03
      0.230000          0.392433E-03
      0.235000          0.374157E-03
      0.240000          0.356659E-03
      0.245000          0.339405E-03
      0.250000          0.322217E-03
      0.255000          0.305222E-03
      0.260000          0.288714E-03
      0.265000          0.273024E-03
      0.270000          0.258434E-03
      0.275000          0.245138E-03
      0.280000          0.233220E-03
      0.285000          0.222631E-03
      0.290000          0.213189E-03
      0.295000          0.204607E-03
      0.300000          0.196588E-03
      0.305000          0.188931E-03
      0.310000          0.181600E-03
      0.315000          0.174708E-03
      0.320000          0.168416E-03
      0.325000          0.162805E-03
      0.330000          0.157788E-03
      0.335000          0.153131E-03
      0.340000          0.148560E-03
      0.345000          0.143904E-03
      0.350000          0.139180E-03
      0.355000          0.134567E-03
      0.360000          0.130302E-03
      0.365000          0.126525E-03
      0.370000          0.123192E-03
      0.375000          0.120074E-03
      0.380000          0.116855E-03
      0.385000          0.113275E-03
      0.390000          0.109241E-03
      0.395000          0.104874E-03
      0.400000          0.100459E-03
      0.405000          0.963500E-04
      0.410000          0.928501E-04
      0.415000          0.901210E-04
      0.420000          0.881436E-04
      0.425000          0.867354E-04
      0.430000          0.856132E-04
      0.435000          0.844807E-04
      0.440000          0.831140E-04
      0.445000          0.814176E-04
      0.450000          0.794351E-04
      0.455000          0.773117E-04
      0.460000          0.752239E-04
      0.465000          0.733074E-04
      0.470000          0.716117E-04
      0.475000          0.700998E-04
      0.480000          0.686880E-04
      0.485000          0.673042E-04
      0.490000          0.659325E-04
      0.495000          0.646237E-04
      0.500000          0.634679E-04
