 I_abs(s)[cm^-1]/c[mg/ml]
       0.00000          0.118164E-01
      0.500000E-02      0.115264E-01
      0.100000E-01      0.107167E-01
      0.150000E-01      0.954846E-02
      0.200000E-01      0.823526E-02
      0.250000E-01      0.698180E-02
      0.300000E-01      0.593263E-02
      0.350000E-01      0.514699E-02
      0.400000E-01      0.460435E-02
      0.450000E-01      0.423352E-02
      0.500000E-01      0.395041E-02
      0.550000E-01      0.368925E-02
      0.600000E-01      0.341769E-02
      0.650000E-01      0.313483E-02
      0.700000E-01      0.285798E-02
      0.750000E-01      0.260704E-02
      0.800000E-01      0.239360E-02
      0.850000E-01      0.221776E-02
      0.900000E-01      0.207126E-02
      0.950000E-01      0.194325E-02
      0.100000          0.182506E-02
      0.105000          0.171223E-02
      0.110000          0.160392E-02
      0.115000          0.150111E-02
      0.120000          0.140496E-02
      0.125000          0.131605E-02
      0.130000          0.123434E-02
      0.135000          0.115943E-02
      0.140000          0.109071E-02
      0.145000          0.102739E-02
      0.150000          0.968506E-03
      0.155000          0.913196E-03
      0.160000          0.860919E-03
      0.165000          0.811649E-03
      0.170000          0.765750E-03
      0.175000          0.723624E-03
      0.180000          0.685310E-03
      0.185000          0.650297E-03
      0.190000          0.617664E-03
      0.195000          0.586463E-03
      0.200000          0.556111E-03
      0.205000          0.526582E-03
      0.210000          0.498301E-03
      0.215000          0.471837E-03
      0.220000          0.447573E-03
      0.225000          0.425518E-03
      0.230000          0.405319E-03
      0.235000          0.386443E-03
      0.240000          0.368396E-03
      0.245000          0.350884E-03
      0.250000          0.333864E-03
      0.255000          0.317482E-03
      0.260000          0.301953E-03
      0.265000          0.287433E-03
      0.270000          0.273939E-03
      0.275000          0.261335E-03
      0.280000          0.249382E-03
      0.285000          0.237840E-03
      0.290000          0.226556E-03
      0.295000          0.215523E-03
      0.300000          0.204861E-03
      0.305000          0.194746E-03
      0.310000          0.185312E-03
      0.315000          0.176585E-03
      0.320000          0.168483E-03
      0.325000          0.160882E-03
      0.330000          0.153707E-03
      0.335000          0.146994E-03
      0.340000          0.140877E-03
      0.345000          0.135511E-03
      0.350000          0.130968E-03
      0.355000          0.127174E-03
      0.360000          0.123916E-03
      0.365000          0.120917E-03
      0.370000          0.117942E-03
      0.375000          0.114863E-03
      0.380000          0.111678E-03
      0.385000          0.108474E-03
      0.390000          0.105361E-03
      0.395000          0.102423E-03
      0.400000          0.996815E-04
      0.405000          0.971021E-04
      0.410000          0.946118E-04
      0.415000          0.921352E-04
      0.420000          0.896273E-04
      0.425000          0.870944E-04
      0.430000          0.845933E-04
      0.435000          0.822099E-04
      0.440000          0.800268E-04
      0.445000          0.780943E-04
      0.450000          0.764168E-04
      0.455000          0.749576E-04
      0.460000          0.736586E-04
      0.465000          0.724641E-04
      0.470000          0.713383E-04
      0.475000          0.702673E-04
      0.480000          0.692467E-04
      0.485000          0.682623E-04
      0.490000          0.672784E-04
      0.495000          0.662450E-04
      0.500000          0.651235E-04
