 I_abs(s)[cm^-1]/c[mg/ml]
       0.00000          0.115883E-01
      0.500000E-02      0.113186E-01
      0.100000E-01      0.105604E-01
      0.150000E-01      0.945122E-02
      0.200000E-01      0.817557E-02
      0.250000E-01      0.691537E-02
      0.300000E-01      0.580760E-02
      0.350000E-01      0.492220E-02
      0.400000E-01      0.426404E-02
      0.450000E-01      0.379335E-02
      0.500000E-01      0.345325E-02
      0.550000E-01      0.319287E-02
      0.600000E-01      0.297907E-02
      0.650000E-01      0.279627E-02
      0.700000E-01      0.263896E-02
      0.750000E-01      0.250337E-02
      0.800000E-01      0.238277E-02
      0.850000E-01      0.226780E-02
      0.900000E-01      0.214997E-02
      0.950000E-01      0.202511E-02
      0.100000          0.189465E-02
      0.105000          0.176405E-02
      0.110000          0.163976E-02
      0.115000          0.152648E-02
      0.120000          0.142582E-02
      0.125000          0.133682E-02
      0.130000          0.125727E-02
      0.135000          0.118498E-02
      0.140000          0.111849E-02
      0.145000          0.105696E-02
      0.150000          0.999897E-03
      0.155000          0.946936E-03
      0.160000          0.897834E-03
      0.165000          0.852575E-03
      0.170000          0.811313E-03
      0.175000          0.774104E-03
      0.180000          0.740561E-03
      0.185000          0.709691E-03
      0.190000          0.680047E-03
      0.195000          0.650166E-03
      0.200000          0.619055E-03
      0.205000          0.586470E-03
      0.210000          0.552896E-03
      0.215000          0.519261E-03
      0.220000          0.486576E-03
      0.225000          0.455681E-03
      0.230000          0.427135E-03
      0.235000          0.401235E-03
      0.240000          0.378056E-03
      0.245000          0.357464E-03
      0.250000          0.339120E-03
      0.255000          0.322516E-03
      0.260000          0.307087E-03
      0.265000          0.292356E-03
      0.270000          0.278052E-03
      0.275000          0.264135E-03
      0.280000          0.250719E-03
      0.285000          0.237949E-03
      0.290000          0.225903E-03
      0.295000          0.214576E-03
      0.300000          0.203926E-03
      0.305000          0.193932E-03
      0.310000          0.184614E-03
      0.315000          0.176004E-03
      0.320000          0.168092E-03
      0.325000          0.160803E-03
      0.330000          0.154011E-03
      0.335000          0.147596E-03
      0.340000          0.141485E-03
      0.345000          0.135664E-03
      0.350000          0.130144E-03
      0.355000          0.124918E-03
      0.360000          0.119949E-03
      0.365000          0.115187E-03
      0.370000          0.110612E-03
      0.375000          0.106257E-03
      0.380000          0.102192E-03
      0.385000          0.984885E-04
      0.390000          0.951655E-04
      0.395000          0.921772E-04
      0.400000          0.894319E-04
      0.405000          0.868352E-04
      0.410000          0.843286E-04
      0.415000          0.819016E-04
      0.420000          0.795778E-04
      0.425000          0.773905E-04
      0.430000          0.753664E-04
      0.435000          0.735245E-04
      0.440000          0.718836E-04
      0.445000          0.704658E-04
      0.450000          0.692858E-04
      0.455000          0.683335E-04
      0.460000          0.675623E-04
      0.465000          0.668968E-04
      0.470000          0.662598E-04
      0.475000          0.656070E-04
      0.480000          0.649461E-04
      0.485000          0.643265E-04
      0.490000          0.638012E-04
      0.495000          0.633823E-04
      0.500000          0.630169E-04
