 I_abs(s)[cm^-1]/c[mg/ml]
       0.00000          0.122280E-01
      0.500000E-02      0.119682E-01
      0.100000E-01      0.112368E-01
      0.150000E-01      0.101646E-01
      0.200000E-01      0.892660E-02
      0.250000E-01      0.769479E-02
      0.300000E-01      0.659751E-02
      0.350000E-01      0.569811E-02
      0.400000E-01      0.499714E-02
      0.450000E-01      0.445327E-02
      0.500000E-01      0.401151E-02
      0.550000E-01      0.362728E-02
      0.600000E-01      0.327828E-02
      0.650000E-01      0.296318E-02
      0.700000E-01      0.269129E-02
      0.750000E-01      0.247063E-02
      0.800000E-01      0.230018E-02
      0.850000E-01      0.216891E-02
      0.900000E-01      0.206041E-02
      0.950000E-01      0.195931E-02
      0.100000          0.185615E-02
      0.105000          0.174865E-02
      0.110000          0.163981E-02
      0.115000          0.153462E-02
      0.120000          0.143729E-02
      0.125000          0.135007E-02
      0.130000          0.127343E-02
      0.135000          0.120684E-02
      0.140000          0.114919E-02
      0.145000          0.109882E-02
      0.150000          0.105327E-02
      0.155000          0.100948E-02
      0.160000          0.964463E-03
      0.165000          0.916358E-03
      0.170000          0.865148E-03
      0.175000          0.812617E-03
      0.180000          0.761466E-03
      0.185000          0.714061E-03
      0.190000          0.671462E-03
      0.195000          0.633238E-03
      0.200000          0.598095E-03
      0.205000          0.564862E-03
      0.210000          0.533242E-03
      0.215000          0.503904E-03
      0.220000          0.477917E-03
      0.225000          0.455926E-03
      0.230000          0.437562E-03
      0.235000          0.421441E-03
      0.240000          0.405713E-03
      0.245000          0.388822E-03
      0.250000          0.370088E-03
      0.255000          0.349821E-03
      0.260000          0.329007E-03
      0.265000          0.308792E-03
      0.270000          0.290063E-03
      0.275000          0.273274E-03
      0.280000          0.258515E-03
      0.285000          0.245666E-03
      0.290000          0.234494E-03
      0.295000          0.224653E-03
      0.300000          0.215654E-03
      0.305000          0.206905E-03
      0.310000          0.197865E-03
      0.315000          0.188258E-03
      0.320000          0.178207E-03
      0.325000          0.168194E-03
      0.330000          0.158844E-03
      0.335000          0.150646E-03
      0.340000          0.143762E-03
      0.345000          0.138034E-03
      0.350000          0.133150E-03
      0.355000          0.128867E-03
      0.360000          0.125115E-03
      0.365000          0.121942E-03
      0.370000          0.119329E-03
      0.375000          0.117022E-03
      0.380000          0.114521E-03
      0.385000          0.111247E-03
      0.390000          0.106809E-03
      0.395000          0.101222E-03
      0.400000          0.949330E-04
      0.405000          0.886595E-04
      0.410000          0.831058E-04
      0.415000          0.787266E-04
      0.420000          0.756384E-04
      0.425000          0.736918E-04
      0.430000          0.726266E-04
      0.435000          0.721976E-04
      0.440000          0.722089E-04
      0.445000          0.724685E-04
      0.450000          0.727351E-04
      0.455000          0.727254E-04
      0.460000          0.721934E-04
      0.465000          0.710323E-04
      0.470000          0.693279E-04
      0.475000          0.673202E-04
      0.480000          0.652948E-04
      0.485000          0.634706E-04
      0.490000          0.619456E-04
      0.495000          0.607228E-04
      0.500000          0.597767E-04
