 I_abs(s)[cm^-1]/c[mg/ml]
       0.00000          0.122426E-01
      0.500000E-02      0.120362E-01
      0.100000E-01      0.114477E-01
      0.150000E-01      0.105622E-01
      0.200000E-01      0.950012E-02
      0.250000E-01      0.839065E-02
      0.300000E-01      0.734641E-02
      0.350000E-01      0.644437E-02
      0.400000E-01      0.571795E-02
      0.450000E-01      0.516044E-02
      0.500000E-01      0.473719E-02
      0.550000E-01      0.440167E-02
      0.600000E-01      0.411034E-02
      0.650000E-01      0.383250E-02
      0.700000E-01      0.355365E-02
      0.750000E-01      0.327308E-02
      0.800000E-01      0.299817E-02
      0.850000E-01      0.273823E-02
      0.900000E-01      0.250007E-02
      0.950000E-01      0.228623E-02
      0.100000          0.209569E-02
      0.105000          0.192566E-02
      0.110000          0.177350E-02
      0.115000          0.163758E-02
      0.120000          0.151709E-02
      0.125000          0.141128E-02
      0.130000          0.131860E-02
      0.135000          0.123651E-02
      0.140000          0.116191E-02
      0.145000          0.109206E-02
      0.150000          0.102542E-02
      0.155000          0.962020E-03
      0.160000          0.903157E-03
      0.165000          0.850567E-03
      0.170000          0.805449E-03
      0.175000          0.767764E-03
      0.180000          0.736080E-03
      0.185000          0.707972E-03
      0.190000          0.680775E-03
      0.195000          0.652349E-03
      0.200000          0.621587E-03
      0.205000          0.588514E-03
      0.210000          0.554028E-03
      0.215000          0.519439E-03
      0.220000          0.486022E-03
      0.225000          0.454721E-03
      0.230000          0.426041E-03
      0.235000          0.400113E-03
      0.240000          0.376816E-03
      0.245000          0.355897E-03
      0.250000          0.337057E-03
      0.255000          0.319994E-03
      0.260000          0.304445E-03
      0.265000          0.290224E-03
      0.270000          0.277259E-03
      0.275000          0.265597E-03
      0.280000          0.255358E-03
      0.285000          0.246649E-03
      0.290000          0.239458E-03
      0.295000          0.233583E-03
      0.300000          0.228631E-03
      0.305000          0.224099E-03
      0.310000          0.219494E-03
      0.315000          0.214471E-03
      0.320000          0.208899E-03
      0.325000          0.202872E-03
      0.330000          0.196632E-03
      0.335000          0.190465E-03
      0.340000          0.184605E-03
      0.345000          0.179174E-03
      0.350000          0.174174E-03
      0.355000          0.169514E-03
      0.360000          0.165055E-03
      0.365000          0.160653E-03
      0.370000          0.156185E-03
      0.375000          0.151574E-03
      0.380000          0.146807E-03
      0.385000          0.141955E-03
      0.390000          0.137177E-03
      0.395000          0.132712E-03
      0.400000          0.128830E-03
      0.405000          0.125768E-03
      0.410000          0.123652E-03
      0.415000          0.122447E-03
      0.420000          0.121935E-03
      0.425000          0.121764E-03
      0.430000          0.121518E-03
      0.435000          0.120825E-03
      0.440000          0.119444E-03
      0.445000          0.117315E-03
      0.450000          0.114566E-03
      0.455000          0.111462E-03
      0.460000          0.108331E-03
      0.465000          0.105471E-03
      0.470000          0.103078E-03
      0.475000          0.101214E-03
      0.480000          0.998025E-04
      0.485000          0.986694E-04
      0.490000          0.976021E-04
      0.495000          0.964067E-04
      0.500000          0.949531E-04
