 I_abs(s)[cm^-1]/c[mg/ml]
       0.00000          0.119888E-01
      0.500000E-02      0.117400E-01
      0.100000E-01      0.110383E-01
      0.150000E-01      0.100052E-01
      0.200000E-01      0.880464E-02
      0.250000E-01      0.760043E-02
      0.300000E-01      0.651836E-02
      0.350000E-01      0.562541E-02
      0.400000E-01      0.492972E-02
      0.450000E-01      0.439739E-02
      0.500000E-01      0.397710E-02
      0.550000E-01      0.362225E-02
      0.600000E-01      0.330375E-02
      0.650000E-01      0.301163E-02
      0.700000E-01      0.274857E-02
      0.750000E-01      0.252068E-02
      0.800000E-01      0.233051E-02
      0.850000E-01      0.217447E-02
      0.900000E-01      0.204449E-02
      0.950000E-01      0.193145E-02
      0.100000          0.182825E-02
      0.105000          0.173097E-02
      0.110000          0.163824E-02
      0.115000          0.154986E-02
      0.120000          0.146563E-02
      0.125000          0.138503E-02
      0.130000          0.130748E-02
      0.135000          0.123280E-02
      0.140000          0.116140E-02
      0.145000          0.109408E-02
      0.150000          0.103158E-02
      0.155000          0.974363E-03
      0.160000          0.922483E-03
      0.165000          0.875766E-03
      0.170000          0.833897E-03
      0.175000          0.796381E-03
      0.180000          0.762397E-03
      0.185000          0.730692E-03
      0.190000          0.699698E-03
      0.195000          0.667885E-03
      0.200000          0.634217E-03
      0.205000          0.598487E-03
      0.210000          0.561349E-03
      0.215000          0.524043E-03
      0.220000          0.487942E-03
      0.225000          0.454152E-03
      0.230000          0.423304E-03
      0.235000          0.395579E-03
      0.240000          0.370869E-03
      0.245000          0.348944E-03
      0.250000          0.329545E-03
      0.255000          0.312378E-03
      0.260000          0.297082E-03
      0.265000          0.283233E-03
      0.270000          0.270396E-03
      0.275000          0.258214E-03
      0.280000          0.246476E-03
      0.285000          0.235121E-03
      0.290000          0.224192E-03
      0.295000          0.213761E-03
      0.300000          0.203877E-03
      0.305000          0.194550E-03
      0.310000          0.185767E-03
      0.315000          0.177517E-03
      0.320000          0.169810E-03
      0.325000          0.162680E-03
      0.330000          0.156168E-03
      0.335000          0.150313E-03
      0.340000          0.145130E-03
      0.345000          0.140596E-03
      0.350000          0.136625E-03
      0.355000          0.133062E-03
      0.360000          0.129682E-03
      0.365000          0.126231E-03
      0.370000          0.122482E-03
      0.375000          0.118294E-03
      0.380000          0.113658E-03
      0.385000          0.108697E-03
      0.390000          0.103628E-03
      0.395000          0.986969E-04
      0.400000          0.941134E-04
      0.405000          0.900098E-04
      0.410000          0.864346E-04
      0.415000          0.833732E-04
      0.420000          0.807778E-04
      0.425000          0.785903E-04
      0.430000          0.767499E-04
      0.435000          0.751904E-04
      0.440000          0.738372E-04
      0.445000          0.726143E-04
      0.450000          0.714589E-04
      0.455000          0.703357E-04
      0.460000          0.692404E-04
      0.465000          0.681877E-04
      0.470000          0.671920E-04
      0.475000          0.662523E-04
      0.480000          0.653518E-04
      0.485000          0.644731E-04
      0.490000          0.636166E-04
      0.495000          0.628096E-04
      0.500000          0.620948E-04
