 I_abs(s)[cm^-1]/c[mg/ml]
       0.00000          0.121844E-01
      0.500000E-02      0.119305E-01
      0.100000E-01      0.112146E-01
      0.150000E-01      0.101612E-01
      0.200000E-01      0.893839E-02
      0.250000E-01      0.771376E-02
      0.300000E-01      0.661549E-02
      0.350000E-01      0.571089E-02
      0.400000E-01      0.500637E-02
      0.450000E-01      0.446518E-02
      0.500000E-01      0.403328E-02
      0.550000E-01      0.366285E-02
      0.600000E-01      0.332561E-02
      0.650000E-01      0.301415E-02
      0.700000E-01      0.273425E-02
      0.750000E-01      0.249430E-02
      0.800000E-01      0.229713E-02
      0.850000E-01      0.213740E-02
      0.900000E-01      0.200396E-02
      0.950000E-01      0.188482E-02
      0.100000          0.177132E-02
      0.105000          0.166000E-02
      0.110000          0.155164E-02
      0.115000          0.144896E-02
      0.120000          0.135438E-02
      0.125000          0.126890E-02
      0.130000          0.119226E-02
      0.135000          0.112370E-02
      0.140000          0.106259E-02
      0.145000          0.100852E-02
      0.150000          0.960937E-03
      0.155000          0.918772E-03
      0.160000          0.880379E-03
      0.165000          0.843926E-03
      0.170000          0.807970E-03
      0.175000          0.771868E-03
      0.180000          0.735789E-03
      0.185000          0.700352E-03
      0.190000          0.666129E-03
      0.195000          0.633306E-03
      0.200000          0.601661E-03
      0.205000          0.570802E-03
      0.210000          0.540484E-03
      0.215000          0.510788E-03
      0.220000          0.482094E-03
      0.225000          0.454883E-03
      0.230000          0.429514E-03
      0.235000          0.406102E-03
      0.240000          0.384535E-03
      0.245000          0.364580E-03
      0.250000          0.345989E-03
      0.255000          0.328555E-03
      0.260000          0.312106E-03
      0.265000          0.296481E-03
      0.270000          0.281530E-03
      0.275000          0.267149E-03
      0.280000          0.253317E-03
      0.285000          0.240109E-03
      0.290000          0.227667E-03
      0.295000          0.216132E-03
      0.300000          0.205592E-03
      0.305000          0.196061E-03
      0.310000          0.187490E-03
      0.315000          0.179800E-03
      0.320000          0.172899E-03
      0.325000          0.166680E-03
      0.330000          0.161011E-03
      0.335000          0.155732E-03
      0.340000          0.150683E-03
      0.345000          0.145747E-03
      0.350000          0.140885E-03
      0.355000          0.136134E-03
      0.360000          0.131581E-03
      0.365000          0.127303E-03
      0.370000          0.123327E-03
      0.375000          0.119626E-03
      0.380000          0.116134E-03
      0.385000          0.112792E-03
      0.390000          0.109568E-03
      0.395000          0.106467E-03
      0.400000          0.103507E-03
      0.405000          0.100692E-03
      0.410000          0.979960E-04
      0.415000          0.953721E-04
      0.420000          0.927706E-04
      0.425000          0.901654E-04
      0.430000          0.875663E-04
      0.435000          0.850147E-04
      0.440000          0.825644E-04
      0.445000          0.802614E-04
      0.450000          0.781318E-04
      0.455000          0.761837E-04
      0.460000          0.744176E-04
      0.465000          0.728366E-04
      0.470000          0.714469E-04
      0.475000          0.702478E-04
      0.480000          0.692194E-04
      0.485000          0.683177E-04
      0.490000          0.674847E-04
      0.495000          0.666702E-04
      0.500000          0.658516E-04
