 I_abs(s)[cm^-1]/c[mg/ml]
       0.00000          0.112644E-01
      0.500000E-02      0.109859E-01
      0.100000E-01      0.102059E-01
      0.150000E-01      0.907451E-02
      0.200000E-01      0.779078E-02
      0.250000E-01      0.654741E-02
      0.300000E-01      0.548407E-02
      0.350000E-01      0.466473E-02
      0.400000E-01      0.408234E-02
      0.450000E-01      0.368383E-02
      0.500000E-01      0.340192E-02
      0.550000E-01      0.318051E-02
      0.600000E-01      0.298631E-02
      0.650000E-01      0.280709E-02
      0.700000E-01      0.264210E-02
      0.750000E-01      0.249233E-02
      0.800000E-01      0.235528E-02
      0.850000E-01      0.222531E-02
      0.900000E-01      0.209712E-02
      0.950000E-01      0.196891E-02
      0.100000          0.184311E-02
      0.105000          0.172438E-02
      0.110000          0.161677E-02
      0.115000          0.152156E-02
      0.120000          0.143709E-02
      0.125000          0.136001E-02
      0.130000          0.128717E-02
      0.135000          0.121683E-02
      0.140000          0.114883E-02
      0.145000          0.108402E-02
      0.150000          0.102343E-02
      0.155000          0.967693E-03
      0.160000          0.916915E-03
      0.165000          0.870741E-03
      0.170000          0.828470E-03
      0.175000          0.789126E-03
      0.180000          0.751547E-03
      0.185000          0.714606E-03
      0.190000          0.677527E-03
      0.195000          0.640159E-03
      0.200000          0.603018E-03
      0.205000          0.567041E-03
      0.210000          0.533158E-03
      0.215000          0.501900E-03
      0.220000          0.473247E-03
      0.225000          0.446747E-03
      0.230000          0.421796E-03
      0.235000          0.397906E-03
      0.240000          0.374819E-03
      0.245000          0.352484E-03
      0.250000          0.330956E-03
      0.255000          0.310334E-03
      0.260000          0.290761E-03
      0.265000          0.272445E-03
      0.270000          0.255633E-03
      0.275000          0.240523E-03
      0.280000          0.227154E-03
      0.285000          0.215345E-03
      0.290000          0.204747E-03
      0.295000          0.194969E-03
      0.300000          0.185732E-03
      0.305000          0.176935E-03
      0.310000          0.168632E-03
      0.315000          0.160924E-03
      0.320000          0.153866E-03
      0.325000          0.147417E-03
      0.330000          0.141475E-03
      0.335000          0.135929E-03
      0.340000          0.130711E-03
      0.345000          0.125799E-03
      0.350000          0.121194E-03
      0.355000          0.116887E-03
      0.360000          0.112855E-03
      0.365000          0.109066E-03
      0.370000          0.105500E-03
      0.375000          0.102147E-03
      0.380000          0.989991E-04
      0.385000          0.960437E-04
      0.390000          0.932532E-04
      0.395000          0.905931E-04
      0.400000          0.880298E-04
      0.405000          0.855354E-04
      0.410000          0.830870E-04
      0.415000          0.806664E-04
      0.420000          0.782631E-04
      0.425000          0.758809E-04
      0.430000          0.735412E-04
      0.435000          0.712769E-04
      0.440000          0.691202E-04
      0.445000          0.670929E-04
      0.450000          0.652049E-04
      0.455000          0.634641E-04
      0.460000          0.618883E-04
      0.465000          0.605072E-04
      0.470000          0.593506E-04
      0.475000          0.584247E-04
      0.480000          0.576914E-04
      0.485000          0.570645E-04
      0.490000          0.564289E-04
      0.495000          0.556784E-04
      0.500000          0.547556E-04
