 I_abs(s)[cm^-1]/c[mg/ml]
       0.00000          0.126098E-01
      0.500000E-02      0.123529E-01
      0.100000E-01      0.116292E-01
      0.150000E-01      0.105651E-01
      0.200000E-01      0.933178E-02
      0.250000E-01      0.809984E-02
      0.300000E-01      0.699943E-02
      0.350000E-01      0.609812E-02
      0.400000E-01      0.540052E-02
      0.450000E-01      0.486623E-02
      0.500000E-01      0.443658E-02
      0.550000E-01      0.405928E-02
      0.600000E-01      0.370292E-02
      0.650000E-01      0.335906E-02
      0.700000E-01      0.303484E-02
      0.750000E-01      0.274195E-02
      0.800000E-01      0.248776E-02
      0.850000E-01      0.227181E-02
      0.900000E-01      0.208748E-02
      0.950000E-01      0.192634E-02
      0.100000          0.178211E-02
      0.105000          0.165232E-02
      0.110000          0.153733E-02
      0.115000          0.143805E-02
      0.120000          0.135393E-02
      0.125000          0.128236E-02
      0.130000          0.121940E-02
      0.135000          0.116128E-02
      0.140000          0.110552E-02
      0.145000          0.105123E-02
      0.150000          0.998626E-03
      0.155000          0.948191E-03
      0.160000          0.900145E-03
      0.165000          0.854386E-03
      0.170000          0.810789E-03
      0.175000          0.769525E-03
      0.180000          0.731080E-03
      0.185000          0.695949E-03
      0.190000          0.664211E-03
      0.195000          0.635283E-03
      0.200000          0.608033E-03
      0.205000          0.581208E-03
      0.210000          0.553921E-03
      0.215000          0.525957E-03
      0.220000          0.497744E-03
      0.225000          0.470047E-03
      0.230000          0.443592E-03
      0.235000          0.418800E-03
      0.240000          0.395740E-03
      0.245000          0.374257E-03
      0.250000          0.354153E-03
      0.255000          0.335302E-03
      0.260000          0.317653E-03
      0.265000          0.301178E-03
      0.270000          0.285819E-03
      0.275000          0.271493E-03
      0.280000          0.258138E-03
      0.285000          0.245757E-03
      0.290000          0.234405E-03
      0.295000          0.224133E-03
      0.300000          0.214913E-03
      0.305000          0.206605E-03
      0.310000          0.198981E-03
      0.315000          0.191807E-03
      0.320000          0.184905E-03
      0.325000          0.178185E-03
      0.330000          0.171621E-03
      0.335000          0.165211E-03
      0.340000          0.158953E-03
      0.345000          0.152862E-03
      0.350000          0.146999E-03
      0.355000          0.141485E-03
      0.360000          0.136467E-03
      0.365000          0.132049E-03
      0.370000          0.128223E-03
      0.375000          0.124854E-03
      0.380000          0.121730E-03
      0.385000          0.118653E-03
      0.390000          0.115517E-03
      0.395000          0.112331E-03
      0.400000          0.109179E-03
      0.405000          0.106147E-03
      0.410000          0.103272E-03
      0.415000          0.100534E-03
      0.420000          0.978900E-04
      0.425000          0.953123E-04
      0.430000          0.928027E-04
      0.435000          0.903763E-04
      0.440000          0.880361E-04
      0.445000          0.857684E-04
      0.450000          0.835686E-04
      0.455000          0.814785E-04
      0.460000          0.795979E-04
      0.465000          0.780489E-04
      0.470000          0.769023E-04
      0.475000          0.761092E-04
      0.480000          0.754854E-04
      0.485000          0.747703E-04
      0.490000          0.737375E-04
      0.495000          0.723028E-04
      0.500000          0.705691E-04
