 I_abs(s)[cm^-1]/c[mg/ml]
       0.00000          0.120828E-01
      0.500000E-02      0.118244E-01
      0.100000E-01      0.110968E-01
      0.150000E-01      0.100288E-01
      0.200000E-01      0.879468E-02
      0.250000E-01      0.756765E-02
      0.300000E-01      0.647983E-02
      0.350000E-01      0.559959E-02
      0.400000E-01      0.493132E-02
      0.450000E-01      0.443376E-02
      0.500000E-01      0.404711E-02
      0.550000E-01      0.371769E-02
      0.600000E-01      0.341254E-02
      0.650000E-01      0.312138E-02
      0.700000E-01      0.284934E-02
      0.750000E-01      0.260613E-02
      0.800000E-01      0.239756E-02
      0.850000E-01      0.222224E-02
      0.900000E-01      0.207332E-02
      0.950000E-01      0.194257E-02
      0.100000          0.182403E-02
      0.105000          0.171532E-02
      0.110000          0.161659E-02
      0.115000          0.152840E-02
      0.120000          0.145006E-02
      0.125000          0.137931E-02
      0.130000          0.131310E-02
      0.135000          0.124896E-02
      0.140000          0.118575E-02
      0.145000          0.112368E-02
      0.150000          0.106361E-02
      0.155000          0.100627E-02
      0.160000          0.951929E-03
      0.165000          0.900491E-03
      0.170000          0.851925E-03
      0.175000          0.806521E-03
      0.180000          0.764788E-03
      0.185000          0.727021E-03
      0.190000          0.692870E-03
      0.195000          0.661222E-03
      0.200000          0.630527E-03
      0.205000          0.599411E-03
      0.210000          0.567246E-03
      0.215000          0.534371E-03
      0.220000          0.501859E-03
      0.225000          0.470985E-03
      0.230000          0.442669E-03
      0.235000          0.417172E-03
      0.240000          0.394139E-03
      0.245000          0.372892E-03
      0.250000          0.352787E-03
      0.255000          0.333439E-03
      0.260000          0.314755E-03
      0.265000          0.296814E-03
      0.270000          0.279727E-03
      0.275000          0.263557E-03
      0.280000          0.248332E-03
      0.285000          0.234098E-03
      0.290000          0.220949E-03
      0.295000          0.209001E-03
      0.300000          0.198316E-03
      0.305000          0.188839E-03
      0.310000          0.180383E-03
      0.315000          0.172677E-03
      0.320000          0.165446E-03
      0.325000          0.158484E-03
      0.330000          0.151691E-03
      0.335000          0.145066E-03
      0.340000          0.138681E-03
      0.345000          0.132657E-03
      0.350000          0.127138E-03
      0.355000          0.122270E-03
      0.360000          0.118163E-03
      0.365000          0.114847E-03
      0.370000          0.112240E-03
      0.375000          0.110150E-03
      0.380000          0.108314E-03
      0.385000          0.106473E-03
      0.390000          0.104446E-03
      0.395000          0.102173E-03
      0.400000          0.997076E-04
      0.405000          0.971756E-04
      0.410000          0.947211E-04
      0.415000          0.924586E-04
      0.420000          0.904486E-04
      0.425000          0.886927E-04
      0.430000          0.871417E-04
      0.435000          0.857097E-04
      0.440000          0.842949E-04
      0.445000          0.828098E-04
      0.450000          0.812137E-04
      0.455000          0.795358E-04
      0.460000          0.778712E-04
      0.465000          0.763463E-04
      0.470000          0.750601E-04
      0.475000          0.740312E-04
      0.480000          0.731762E-04
      0.485000          0.723346E-04
      0.490000          0.713324E-04
      0.495000          0.700559E-04
      0.500000          0.685002E-04
