 I_abs(s)[cm^-1]/c[mg/ml]
       0.00000          0.121263E-01
      0.500000E-02      0.118689E-01
      0.100000E-01      0.111465E-01
      0.150000E-01      0.100935E-01
      0.200000E-01      0.888746E-02
      0.250000E-01      0.769914E-02
      0.300000E-01      0.665108E-02
      0.350000E-01      0.579810E-02
      0.400000E-01      0.513319E-02
      0.450000E-01      0.461151E-02
      0.500000E-01      0.417979E-02
      0.550000E-01      0.379873E-02
      0.600000E-01      0.345173E-02
      0.650000E-01      0.314048E-02
      0.700000E-01      0.287365E-02
      0.750000E-01      0.265605E-02
      0.800000E-01      0.248351E-02
      0.850000E-01      0.234423E-02
      0.900000E-01      0.222412E-02
      0.950000E-01      0.211214E-02
      0.100000          0.200292E-02
      0.105000          0.189602E-02
      0.110000          0.179335E-02
      0.115000          0.169652E-02
      0.120000          0.160563E-02
      0.125000          0.151960E-02
      0.130000          0.143721E-02
      0.135000          0.135785E-02
      0.140000          0.128171E-02
      0.145000          0.120930E-02
      0.150000          0.114092E-02
      0.155000          0.107653E-02
      0.160000          0.101585E-02
      0.165000          0.958698E-03
      0.170000          0.905064E-03
      0.175000          0.854942E-03
      0.180000          0.808054E-03
      0.185000          0.763735E-03
      0.190000          0.721094E-03
      0.195000          0.679395E-03
      0.200000          0.638397E-03
      0.205000          0.598441E-03
      0.210000          0.560229E-03
      0.215000          0.524440E-03
      0.220000          0.491401E-03
      0.225000          0.460998E-03
      0.230000          0.432822E-03
      0.235000          0.406432E-03
      0.240000          0.381574E-03
      0.245000          0.358232E-03
      0.250000          0.336542E-03
      0.255000          0.316629E-03
      0.260000          0.298486E-03
      0.265000          0.281939E-03
      0.270000          0.266697E-03
      0.275000          0.252439E-03
      0.280000          0.238890E-03
      0.285000          0.225875E-03
      0.290000          0.213328E-03
      0.295000          0.201279E-03
      0.300000          0.189826E-03
      0.305000          0.179092E-03
      0.310000          0.169188E-03
      0.315000          0.160181E-03
      0.320000          0.152078E-03
      0.325000          0.144831E-03
      0.330000          0.138357E-03
      0.335000          0.132563E-03
      0.340000          0.127355E-03
      0.345000          0.122654E-03
      0.350000          0.118385E-03
      0.355000          0.114479E-03
      0.360000          0.110871E-03
      0.365000          0.107515E-03
      0.370000          0.104392E-03
      0.375000          0.101521E-03
      0.380000          0.989364E-04
      0.385000          0.966640E-04
      0.390000          0.946895E-04
      0.395000          0.929507E-04
      0.400000          0.913559E-04
      0.405000          0.898199E-04
      0.410000          0.882966E-04
      0.415000          0.867904E-04
      0.420000          0.853428E-04
      0.425000          0.840034E-04
      0.430000          0.828007E-04
      0.435000          0.817186E-04
      0.440000          0.806830E-04
      0.445000          0.795647E-04
      0.450000          0.782066E-04
      0.455000          0.764792E-04
      0.460000          0.743487E-04
      0.465000          0.719210E-04
      0.470000          0.694246E-04
      0.475000          0.671260E-04
      0.480000          0.652131E-04
      0.485000          0.637136E-04
      0.490000          0.624996E-04
      0.495000          0.613804E-04
      0.500000          0.602278E-04
