 I_abs(s)[cm^-1]/c[mg/ml]
       0.00000          0.124255E-01
      0.500000E-02      0.121652E-01
      0.100000E-01      0.114320E-01
      0.150000E-01      0.103561E-01
      0.200000E-01      0.911239E-02
      0.250000E-01      0.787415E-02
      0.300000E-01      0.677248E-02
      0.350000E-01      0.587394E-02
      0.400000E-01      0.518136E-02
      0.450000E-01      0.465324E-02
      0.500000E-01      0.423152E-02
      0.550000E-01      0.386625E-02
      0.600000E-01      0.352921E-02
      0.650000E-01      0.321446E-02
      0.700000E-01      0.292951E-02
      0.750000E-01      0.268374E-02
      0.800000E-01      0.247987E-02
      0.850000E-01      0.231175E-02
      0.900000E-01      0.216759E-02
      0.950000E-01      0.203563E-02
      0.100000          0.190867E-02
      0.105000          0.178556E-02
      0.110000          0.166936E-02
      0.115000          0.156410E-02
      0.120000          0.147186E-02
      0.125000          0.139170E-02
      0.130000          0.132039E-02
      0.135000          0.125417E-02
      0.140000          0.119027E-02
      0.145000          0.112765E-02
      0.150000          0.106666E-02
      0.155000          0.100825E-02
      0.160000          0.953275E-03
      0.165000          0.902235E-03
      0.170000          0.855356E-03
      0.175000          0.812814E-03
      0.180000          0.774770E-03
      0.185000          0.741181E-03
      0.190000          0.711535E-03
      0.195000          0.684731E-03
      0.200000          0.659253E-03
      0.205000          0.633572E-03
      0.210000          0.606599E-03
      0.215000          0.577940E-03
      0.220000          0.547880E-03
      0.225000          0.517118E-03
      0.230000          0.486449E-03
      0.235000          0.456518E-03
      0.240000          0.427758E-03
      0.245000          0.400450E-03
      0.250000          0.374817E-03
      0.255000          0.351066E-03
      0.260000          0.329342E-03
      0.265000          0.309642E-03
      0.270000          0.291759E-03
      0.275000          0.275307E-03
      0.280000          0.259824E-03
      0.285000          0.244912E-03
      0.290000          0.230353E-03
      0.295000          0.216152E-03
      0.300000          0.202512E-03
      0.305000          0.189736E-03
      0.310000          0.178123E-03
      0.315000          0.167874E-03
      0.320000          0.159034E-03
      0.325000          0.151495E-03
      0.330000          0.145030E-03
      0.335000          0.139370E-03
      0.340000          0.134270E-03
      0.345000          0.129567E-03
      0.350000          0.125200E-03
      0.355000          0.121199E-03
      0.360000          0.117642E-03
      0.365000          0.114608E-03
      0.370000          0.112135E-03
      0.375000          0.110199E-03
      0.380000          0.108705E-03
      0.385000          0.107507E-03
      0.390000          0.106432E-03
      0.395000          0.105315E-03
      0.400000          0.104018E-03
      0.405000          0.102454E-03
      0.410000          0.100580E-03
      0.415000          0.983958E-04
      0.420000          0.959303E-04
      0.425000          0.932402E-04
      0.430000          0.904058E-04
      0.435000          0.875255E-04
      0.440000          0.847029E-04
      0.445000          0.820262E-04
      0.450000          0.795482E-04
      0.455000          0.772760E-04
      0.460000          0.751780E-04
      0.465000          0.732039E-04
      0.470000          0.713100E-04
      0.475000          0.694779E-04
      0.480000          0.677202E-04
      0.485000          0.660754E-04
      0.490000          0.645939E-04
      0.495000          0.633245E-04
      0.500000          0.623011E-04
