 I_abs(s)[cm^-1]/c[mg/ml]
       0.00000          0.116025E-01
      0.500000E-02      0.113308E-01
      0.100000E-01      0.105694E-01
      0.150000E-01      0.946308E-02
      0.200000E-01      0.820235E-02
      0.250000E-01      0.696940E-02
      0.300000E-01      0.589348E-02
      0.350000E-01      0.503097E-02
      0.400000E-01      0.437277E-02
      0.450000E-01      0.387093E-02
      0.500000E-01      0.347003E-02
      0.550000E-01      0.313012E-02
      0.600000E-01      0.283444E-02
      0.650000E-01      0.258349E-02
      0.700000E-01      0.238264E-02
      0.750000E-01      0.223138E-02
      0.800000E-01      0.211948E-02
      0.850000E-01      0.203013E-02
      0.900000E-01      0.194666E-02
      0.950000E-01      0.185843E-02
      0.100000          0.176288E-02
      0.105000          0.166364E-02
      0.110000          0.156664E-02
      0.115000          0.147651E-02
      0.120000          0.139504E-02
      0.125000          0.132150E-02
      0.130000          0.125409E-02
      0.135000          0.119120E-02
      0.140000          0.113196E-02
      0.145000          0.107604E-02
      0.150000          0.102320E-02
      0.155000          0.973083E-03
      0.160000          0.925211E-03
      0.165000          0.879174E-03
      0.170000          0.834720E-03
      0.175000          0.791721E-03
      0.180000          0.750070E-03
      0.185000          0.709652E-03
      0.190000          0.670416E-03
      0.195000          0.632477E-03
      0.200000          0.596142E-03
      0.205000          0.561805E-03
      0.210000          0.529762E-03
      0.215000          0.500084E-03
      0.220000          0.472606E-03
      0.225000          0.447040E-03
      0.230000          0.423105E-03
      0.235000          0.400598E-03
      0.240000          0.379361E-03
      0.245000          0.359228E-03
      0.250000          0.339995E-03
      0.255000          0.321489E-03
      0.260000          0.303652E-03
      0.265000          0.286603E-03
      0.270000          0.270591E-03
      0.275000          0.255874E-03
      0.280000          0.242582E-03
      0.285000          0.230660E-03
      0.290000          0.219914E-03
      0.295000          0.210114E-03
      0.300000          0.201096E-03
      0.305000          0.192785E-03
      0.310000          0.185150E-03
      0.315000          0.178132E-03
      0.320000          0.171601E-03
      0.325000          0.165390E-03
      0.330000          0.159360E-03
      0.335000          0.153469E-03
      0.340000          0.147779E-03
      0.345000          0.142408E-03
      0.350000          0.137437E-03
      0.355000          0.132843E-03
      0.360000          0.128502E-03
      0.365000          0.124240E-03
      0.370000          0.119931E-03
      0.375000          0.115550E-03
      0.380000          0.111183E-03
      0.385000          0.106973E-03
      0.390000          0.103046E-03
      0.395000          0.994672E-04
      0.400000          0.962351E-04
      0.405000          0.933124E-04
      0.410000          0.906629E-04
      0.415000          0.882702E-04
      0.420000          0.861344E-04
      0.425000          0.842580E-04
      0.430000          0.826348E-04
      0.435000          0.812449E-04
      0.440000          0.800526E-04
      0.445000          0.790027E-04
      0.450000          0.780192E-04
      0.455000          0.770167E-04
      0.460000          0.759230E-04
      0.465000          0.747063E-04
      0.470000          0.733853E-04
      0.475000          0.720145E-04
      0.480000          0.706489E-04
      0.485000          0.693114E-04
      0.490000          0.679808E-04
      0.495000          0.666078E-04
      0.500000          0.651463E-04
