 I_abs(s)[cm^-1]/c[mg/ml]
       0.00000          0.120756E-01
      0.500000E-02      0.118513E-01
      0.100000E-01      0.112138E-01
      0.150000E-01      0.102597E-01
      0.200000E-01      0.912421E-02
      0.250000E-01      0.795024E-02
      0.300000E-01      0.685877E-02
      0.350000E-01      0.592885E-02
      0.400000E-01      0.519090E-02
      0.450000E-01      0.463314E-02
      0.500000E-01      0.421695E-02
      0.550000E-01      0.389478E-02
      0.600000E-01      0.362499E-02
      0.650000E-01      0.338003E-02
      0.700000E-01      0.314734E-02
      0.750000E-01      0.292528E-02
      0.800000E-01      0.271702E-02
      0.850000E-01      0.252553E-02
      0.900000E-01      0.235113E-02
      0.950000E-01      0.219168E-02
      0.100000          0.204426E-02
      0.105000          0.190691E-02
      0.110000          0.177936E-02
      0.115000          0.166267E-02
      0.120000          0.155804E-02
      0.125000          0.146570E-02
      0.130000          0.138440E-02
      0.135000          0.131168E-02
      0.140000          0.124470E-02
      0.145000          0.118110E-02
      0.150000          0.111951E-02
      0.155000          0.105962E-02
      0.160000          0.100181E-02
      0.165000          0.946675E-03
      0.170000          0.894626E-03
      0.175000          0.845792E-03
      0.180000          0.800058E-03
      0.185000          0.757209E-03
      0.190000          0.717017E-03
      0.195000          0.679249E-03
      0.200000          0.643621E-03
      0.205000          0.609778E-03
      0.210000          0.577343E-03
      0.215000          0.546026E-03
      0.220000          0.515733E-03
      0.225000          0.486610E-03
      0.230000          0.458984E-03
      0.235000          0.433224E-03
      0.240000          0.409594E-03
      0.245000          0.388148E-03
      0.250000          0.368734E-03
      0.255000          0.351062E-03
      0.260000          0.334822E-03
      0.265000          0.319765E-03
      0.270000          0.305735E-03
      0.275000          0.292636E-03
      0.280000          0.280379E-03
      0.285000          0.268837E-03
      0.290000          0.257848E-03
      0.295000          0.247252E-03
      0.300000          0.236950E-03
      0.305000          0.226950E-03
      0.310000          0.217357E-03
      0.315000          0.208341E-03
      0.320000          0.200055E-03
      0.325000          0.192576E-03
      0.330000          0.185864E-03
      0.335000          0.179776E-03
      0.340000          0.174109E-03
      0.345000          0.168666E-03
      0.350000          0.163312E-03
      0.355000          0.158003E-03
      0.360000          0.152782E-03
      0.365000          0.147754E-03
      0.370000          0.143040E-03
      0.375000          0.138738E-03
      0.380000          0.134893E-03
      0.385000          0.131487E-03
      0.390000          0.128441E-03
      0.395000          0.125635E-03
      0.400000          0.122945E-03
      0.405000          0.120269E-03
      0.410000          0.117560E-03
      0.415000          0.114834E-03
      0.420000          0.112161E-03
      0.425000          0.109640E-03
      0.430000          0.107360E-03
      0.435000          0.105370E-03
      0.440000          0.103662E-03
      0.445000          0.102177E-03
      0.450000          0.100827E-03
      0.455000          0.995213E-04
      0.460000          0.981911E-04
      0.465000          0.967998E-04
      0.470000          0.953422E-04
      0.475000          0.938332E-04
      0.480000          0.922938E-04
      0.485000          0.907399E-04
      0.490000          0.891757E-04
      0.495000          0.875925E-04
      0.500000          0.859697E-04
