 I_abs(s)[cm^-1]/c[mg/ml]
       0.00000          0.112714E-01
      0.500000E-02      0.109865E-01
      0.100000E-01      0.101877E-01
      0.150000E-01      0.902718E-02
      0.200000E-01      0.770857E-02
      0.250000E-01      0.643220E-02
      0.300000E-01      0.534712E-02
      0.350000E-01      0.452547E-02
      0.400000E-01      0.396386E-02
      0.450000E-01      0.360635E-02
      0.500000E-01      0.337691E-02
      0.550000E-01      0.320781E-02
      0.600000E-01      0.305548E-02
      0.650000E-01      0.290194E-02
      0.700000E-01      0.274625E-02
      0.750000E-01      0.259325E-02
      0.800000E-01      0.244560E-02
      0.850000E-01      0.230177E-02
      0.900000E-01      0.215856E-02
      0.950000E-01      0.201501E-02
      0.100000          0.187443E-02
      0.105000          0.174336E-02
      0.110000          0.162846E-02
      0.115000          0.153317E-02
      0.120000          0.145617E-02
      0.125000          0.139216E-02
      0.130000          0.133431E-02
      0.135000          0.127685E-02
      0.140000          0.121675E-02
      0.145000          0.115382E-02
      0.150000          0.108975E-02
      0.155000          0.102680E-02
      0.160000          0.966840E-03
      0.165000          0.911000E-03
      0.170000          0.859780E-03
      0.175000          0.813284E-03
      0.180000          0.771322E-03
      0.185000          0.733397E-03
      0.190000          0.698674E-03
      0.195000          0.666092E-03
      0.200000          0.634622E-03
      0.205000          0.603550E-03
      0.210000          0.572633E-03
      0.215000          0.542048E-03
      0.220000          0.512187E-03
      0.225000          0.483410E-03
      0.230000          0.455907E-03
      0.235000          0.429696E-03
      0.240000          0.404714E-03
      0.245000          0.380924E-03
      0.250000          0.358353E-03
      0.255000          0.337064E-03
      0.260000          0.317091E-03
      0.265000          0.298401E-03
      0.270000          0.280903E-03
      0.275000          0.264490E-03
      0.280000          0.249076E-03
      0.285000          0.234621E-03
      0.290000          0.221117E-03
      0.295000          0.208566E-03
      0.300000          0.196957E-03
      0.305000          0.186263E-03
      0.310000          0.176434E-03
      0.315000          0.167406E-03
      0.320000          0.159101E-03
      0.325000          0.151440E-03
      0.330000          0.144348E-03
      0.335000          0.137775E-03
      0.340000          0.131688E-03
      0.345000          0.126062E-03
      0.350000          0.120863E-03
      0.355000          0.116038E-03
      0.360000          0.111528E-03
      0.365000          0.107297E-03
      0.370000          0.103341E-03
      0.375000          0.996853E-04
      0.380000          0.963493E-04
      0.385000          0.933236E-04
      0.390000          0.905683E-04
      0.395000          0.880505E-04
      0.400000          0.857914E-04
      0.405000          0.838826E-04
      0.410000          0.824420E-04
      0.415000          0.815199E-04
      0.420000          0.810077E-04
      0.425000          0.806116E-04
      0.430000          0.799278E-04
      0.435000          0.785979E-04
      0.440000          0.764738E-04
      0.445000          0.737093E-04
      0.450000          0.707258E-04
      0.455000          0.680608E-04
      0.460000          0.661638E-04
      0.465000          0.652266E-04
      0.470000          0.651172E-04
      0.475000          0.654400E-04
      0.480000          0.656899E-04
      0.485000          0.654336E-04
      0.490000          0.644452E-04
      0.495000          0.627526E-04
      0.500000          0.605878E-04
