 I_abs(s)[cm^-1]/c[mg/ml]
       0.00000          0.122718E-01
      0.500000E-02      0.119848E-01
      0.100000E-01      0.111828E-01
      0.150000E-01      0.100242E-01
      0.200000E-01      0.871799E-02
      0.250000E-01      0.746355E-02
      0.300000E-01      0.640040E-02
      0.350000E-01      0.558448E-02
      0.400000E-01      0.499495E-02
      0.450000E-01      0.456395E-02
      0.500000E-01      0.421386E-02
      0.550000E-01      0.388688E-02
      0.600000E-01      0.355779E-02
      0.650000E-01      0.322973E-02
      0.700000E-01      0.291989E-02
      0.750000E-01      0.264439E-02
      0.800000E-01      0.240945E-02
      0.850000E-01      0.221089E-02
      0.900000E-01      0.203933E-02
      0.950000E-01      0.188646E-02
      0.100000          0.174855E-02
      0.105000          0.162594E-02
      0.110000          0.152008E-02
      0.115000          0.143054E-02
      0.120000          0.135397E-02
      0.125000          0.128535E-02
      0.130000          0.122020E-02
      0.135000          0.115640E-02
      0.140000          0.109437E-02
      0.145000          0.103594E-02
      0.150000          0.982668E-03
      0.155000          0.934805E-03
      0.160000          0.891238E-03
      0.165000          0.850288E-03
      0.170000          0.810633E-03
      0.175000          0.771765E-03
      0.180000          0.733849E-03
      0.185000          0.697238E-03
      0.190000          0.662105E-03
      0.195000          0.628433E-03
      0.200000          0.596281E-03
      0.205000          0.566030E-03
      0.210000          0.538314E-03
      0.215000          0.513657E-03
      0.220000          0.492014E-03
      0.225000          0.472579E-03
      0.230000          0.454018E-03
      0.235000          0.435027E-03
      0.240000          0.414922E-03
      0.245000          0.393900E-03
      0.250000          0.372859E-03
      0.255000          0.352879E-03
      0.260000          0.334675E-03
      0.265000          0.318312E-03
      0.270000          0.303285E-03
      0.275000          0.288885E-03
      0.280000          0.274592E-03
      0.285000          0.260301E-03
      0.290000          0.246283E-03
      0.295000          0.232973E-03
      0.300000          0.220731E-03
      0.305000          0.209714E-03
      0.310000          0.199903E-03
      0.315000          0.191199E-03
      0.320000          0.183524E-03
      0.325000          0.176823E-03
      0.330000          0.171007E-03
      0.335000          0.165884E-03
      0.340000          0.161152E-03
      0.345000          0.156474E-03
      0.350000          0.151588E-03
      0.355000          0.146405E-03
      0.360000          0.141011E-03
      0.365000          0.135604E-03
      0.370000          0.130381E-03
      0.375000          0.125460E-03
      0.380000          0.120873E-03
      0.385000          0.116608E-03
      0.390000          0.112672E-03
      0.395000          0.109113E-03
      0.400000          0.105994E-03
      0.405000          0.103336E-03
      0.410000          0.101072E-03
      0.415000          0.990491E-04
      0.420000          0.970839E-04
      0.425000          0.950305E-04
      0.430000          0.928310E-04
      0.435000          0.905199E-04
      0.440000          0.881872E-04
      0.445000          0.859240E-04
      0.450000          0.837826E-04
      0.455000          0.817641E-04
      0.460000          0.798342E-04
      0.465000          0.779524E-04
      0.470000          0.760982E-04
      0.475000          0.742845E-04
      0.480000          0.725537E-04
      0.485000          0.709603E-04
      0.490000          0.695486E-04
      0.495000          0.683353E-04
      0.500000          0.673034E-04
