 I_abs(s)[cm^-1]/c[mg/ml]
       0.00000          0.120756E-01
      0.500000E-02      0.118208E-01
      0.100000E-01      0.111017E-01
      0.150000E-01      0.100417E-01
      0.200000E-01      0.880991E-02
      0.250000E-01      0.757857E-02
      0.300000E-01      0.648430E-02
      0.350000E-01      0.560388E-02
      0.400000E-01      0.495009E-02
      0.450000E-01      0.448549E-02
      0.500000E-01      0.414704E-02
      0.550000E-01      0.387151E-02
      0.600000E-01      0.361366E-02
      0.650000E-01      0.335315E-02
      0.700000E-01      0.309096E-02
      0.750000E-01      0.283953E-02
      0.800000E-01      0.261219E-02
      0.850000E-01      0.241604E-02
      0.900000E-01      0.224985E-02
      0.950000E-01      0.210646E-02
      0.100000          0.197696E-02
      0.105000          0.185446E-02
      0.110000          0.173587E-02
      0.115000          0.162155E-02
      0.120000          0.151360E-02
      0.125000          0.141412E-02
      0.130000          0.132405E-02
      0.135000          0.124303E-02
      0.140000          0.116989E-02
      0.145000          0.110329E-02
      0.150000          0.104213E-02
      0.155000          0.985656E-03
      0.160000          0.933354E-03
      0.165000          0.884787E-03
      0.170000          0.839556E-03
      0.175000          0.797326E-03
      0.180000          0.757867E-03
      0.185000          0.721028E-03
      0.190000          0.686635E-03
      0.195000          0.654389E-03
      0.200000          0.623830E-03
      0.205000          0.594414E-03
      0.210000          0.565663E-03
      0.215000          0.537306E-03
      0.220000          0.509347E-03
      0.225000          0.482027E-03
      0.230000          0.455716E-03
      0.235000          0.430786E-03
      0.240000          0.407537E-03
      0.245000          0.386168E-03
      0.250000          0.366790E-03
      0.255000          0.349431E-03
      0.260000          0.334026E-03
      0.265000          0.320381E-03
      0.270000          0.308163E-03
      0.275000          0.296920E-03
      0.280000          0.286166E-03
      0.285000          0.275479E-03
      0.290000          0.264608E-03
      0.295000          0.253515E-03
      0.300000          0.242364E-03
      0.305000          0.231443E-03
      0.310000          0.221058E-03
      0.315000          0.211436E-03
      0.320000          0.202663E-03
      0.325000          0.194686E-03
      0.330000          0.187351E-03
      0.335000          0.180480E-03
      0.340000          0.173938E-03
      0.345000          0.167675E-03
      0.350000          0.161723E-03
      0.355000          0.156156E-03
      0.360000          0.151041E-03
      0.365000          0.146388E-03
      0.370000          0.142136E-03
      0.375000          0.138170E-03
      0.380000          0.134364E-03
      0.385000          0.130624E-03
      0.390000          0.126920E-03
      0.395000          0.123286E-03
      0.400000          0.119794E-03
      0.405000          0.116511E-03
      0.410000          0.113474E-03
      0.415000          0.110677E-03
      0.420000          0.108087E-03
      0.425000          0.105682E-03
      0.430000          0.103465E-03
      0.435000          0.101477E-03
      0.440000          0.997630E-04
      0.445000          0.983407E-04
      0.450000          0.971673E-04
      0.455000          0.961396E-04
      0.460000          0.951220E-04
      0.465000          0.939904E-04
      0.470000          0.926683E-04
      0.475000          0.911399E-04
      0.480000          0.894391E-04
      0.485000          0.876268E-04
      0.490000          0.857720E-04
      0.495000          0.839411E-04
      0.500000          0.821936E-04
