 I_abs(s)[cm^-1]/c[mg/ml]
       0.00000          0.114752E-01
      0.500000E-02      0.111793E-01
      0.100000E-01      0.103531E-01
      0.150000E-01      0.916202E-02
      0.200000E-01      0.782668E-02
      0.250000E-01      0.656056E-02
      0.300000E-01      0.551666E-02
      0.350000E-01      0.475912E-02
      0.400000E-01      0.426637E-02
      0.450000E-01      0.395980E-02
      0.500000E-01      0.374394E-02
      0.550000E-01      0.354186E-02
      0.600000E-01      0.331443E-02
      0.650000E-01      0.306033E-02
      0.700000E-01      0.280161E-02
      0.750000E-01      0.256465E-02
      0.800000E-01      0.236541E-02
      0.850000E-01      0.220425E-02
      0.900000E-01      0.206984E-02
      0.950000E-01      0.194778E-02
      0.100000          0.182848E-02
      0.105000          0.171044E-02
      0.110000          0.159839E-02
      0.115000          0.149847E-02
      0.120000          0.141365E-02
      0.125000          0.134185E-02
      0.130000          0.127733E-02
      0.135000          0.121395E-02
      0.140000          0.114829E-02
      0.145000          0.108090E-02
      0.150000          0.101533E-02
      0.155000          0.955662E-03
      0.160000          0.904200E-03
      0.165000          0.860432E-03
      0.170000          0.821609E-03
      0.175000          0.784428E-03
      0.180000          0.746747E-03
      0.185000          0.708426E-03
      0.190000          0.670976E-03
      0.195000          0.636375E-03
      0.200000          0.605788E-03
      0.205000          0.578894E-03
      0.210000          0.554109E-03
      0.215000          0.529483E-03
      0.220000          0.503734E-03
      0.225000          0.476861E-03
      0.230000          0.450052E-03
      0.235000          0.424996E-03
      0.240000          0.402991E-03
      0.245000          0.384323E-03
      0.250000          0.368183E-03
      0.255000          0.353142E-03
      0.260000          0.337881E-03
      0.265000          0.321805E-03
      0.270000          0.305253E-03
      0.275000          0.289226E-03
      0.280000          0.274807E-03
      0.285000          0.262590E-03
      0.290000          0.252391E-03
      0.295000          0.243367E-03
      0.300000          0.234458E-03
      0.305000          0.224902E-03
      0.310000          0.214571E-03
      0.315000          0.203968E-03
      0.320000          0.193912E-03
      0.325000          0.185104E-03
      0.330000          0.177776E-03
      0.335000          0.171621E-03
      0.340000          0.165983E-03
      0.345000          0.160217E-03
      0.350000          0.153992E-03
      0.355000          0.147421E-03
      0.360000          0.140935E-03
      0.365000          0.135027E-03
      0.370000          0.129985E-03
      0.375000          0.125772E-03
      0.380000          0.122085E-03
      0.385000          0.118542E-03
      0.390000          0.114888E-03
      0.395000          0.111097E-03
      0.400000          0.107343E-03
      0.405000          0.103863E-03
      0.410000          0.100809E-03
      0.415000          0.981641E-04
      0.420000          0.957632E-04
      0.425000          0.933913E-04
      0.430000          0.908927E-04
      0.435000          0.882352E-04
      0.440000          0.855000E-04
      0.445000          0.828181E-04
      0.450000          0.802961E-04
      0.455000          0.779742E-04
      0.460000          0.758323E-04
      0.465000          0.738310E-04
      0.470000          0.719554E-04
      0.475000          0.702333E-04
      0.480000          0.687198E-04
      0.485000          0.674578E-04
      0.490000          0.664423E-04
      0.495000          0.656055E-04
      0.500000          0.648329E-04
