 I_abs(s)[cm^-1]/c[mg/ml]
       0.00000          0.116878E-01
      0.500000E-02      0.114324E-01
      0.100000E-01      0.107108E-01
      0.150000E-01      0.964471E-02
      0.200000E-01      0.840257E-02
      0.250000E-01      0.715848E-02
      0.300000E-01      0.605411E-02
      0.350000E-01      0.517347E-02
      0.400000E-01      0.453627E-02
      0.450000E-01      0.410899E-02
      0.500000E-01      0.382744E-02
      0.550000E-01      0.362200E-02
      0.600000E-01      0.343751E-02
      0.650000E-01      0.324316E-02
      0.700000E-01      0.303190E-02
      0.750000E-01      0.281263E-02
      0.800000E-01      0.259998E-02
      0.850000E-01      0.240590E-02
      0.900000E-01      0.223552E-02
      0.950000E-01      0.208737E-02
      0.100000          0.195621E-02
      0.105000          0.183640E-02
      0.110000          0.172422E-02
      0.115000          0.161833E-02
      0.120000          0.151901E-02
      0.125000          0.142689E-02
      0.130000          0.134214E-02
      0.135000          0.126416E-02
      0.140000          0.119204E-02
      0.145000          0.112501E-02
      0.150000          0.106271E-02
      0.155000          0.100510E-02
      0.160000          0.952164E-03
      0.165000          0.903596E-03
      0.170000          0.858705E-03
      0.175000          0.816591E-03
      0.180000          0.776435E-03
      0.185000          0.737747E-03
      0.190000          0.700440E-03
      0.195000          0.664703E-03
      0.200000          0.630786E-03
      0.205000          0.598809E-03
      0.210000          0.568691E-03
      0.215000          0.540205E-03
      0.220000          0.513096E-03
      0.225000          0.487188E-03
      0.230000          0.462417E-03
      0.235000          0.438801E-03
      0.240000          0.416372E-03
      0.245000          0.395126E-03
      0.250000          0.375024E-03
      0.255000          0.356017E-03
      0.260000          0.338096E-03
      0.265000          0.321300E-03
      0.270000          0.305703E-03
      0.275000          0.291359E-03
      0.280000          0.278262E-03
      0.285000          0.266309E-03
      0.290000          0.255313E-03
      0.295000          0.245037E-03
      0.300000          0.235251E-03
      0.305000          0.225775E-03
      0.310000          0.216516E-03
      0.315000          0.207477E-03
      0.320000          0.198732E-03
      0.325000          0.190396E-03
      0.330000          0.182575E-03
      0.335000          0.175332E-03
      0.340000          0.168669E-03
      0.345000          0.162533E-03
      0.350000          0.156840E-03
      0.355000          0.151509E-03
      0.360000          0.146489E-03
      0.365000          0.141763E-03
      0.370000          0.137336E-03
      0.375000          0.133212E-03
      0.380000          0.129369E-03
      0.385000          0.125746E-03
      0.390000          0.122257E-03
      0.395000          0.118804E-03
      0.400000          0.115315E-03
      0.405000          0.111771E-03
      0.410000          0.108215E-03
      0.415000          0.104754E-03
      0.420000          0.101529E-03
      0.425000          0.986767E-04
      0.430000          0.962835E-04
      0.435000          0.943524E-04
      0.440000          0.927945E-04
      0.445000          0.914512E-04
      0.450000          0.901418E-04
      0.455000          0.887189E-04
      0.460000          0.871127E-04
      0.465000          0.853439E-04
      0.470000          0.835028E-04
      0.475000          0.817015E-04
      0.480000          0.800215E-04
      0.485000          0.784786E-04
      0.490000          0.770223E-04
      0.495000          0.755697E-04
      0.500000          0.740579E-04
