 I_abs(s)[cm^-1]/c[mg/ml]
       0.00000          0.118953E-01
      0.500000E-02      0.116165E-01
      0.100000E-01      0.108386E-01
      0.150000E-01      0.971754E-02
      0.200000E-01      0.845637E-02
      0.250000E-01      0.724497E-02
      0.300000E-01      0.621206E-02
      0.350000E-01      0.540586E-02
      0.400000E-01      0.480514E-02
      0.450000E-01      0.435026E-02
      0.500000E-01      0.397751E-02
      0.550000E-01      0.364276E-02
      0.600000E-01      0.332817E-02
      0.650000E-01      0.303516E-02
      0.700000E-01      0.277182E-02
      0.750000E-01      0.254288E-02
      0.800000E-01      0.234634E-02
      0.850000E-01      0.217578E-02
      0.900000E-01      0.202468E-02
      0.950000E-01      0.188918E-02
      0.100000          0.176808E-02
      0.105000          0.166091E-02
      0.110000          0.156620E-02
      0.115000          0.148111E-02
      0.120000          0.140253E-02
      0.125000          0.132833E-02
      0.130000          0.125796E-02
      0.135000          0.119192E-02
      0.140000          0.113071E-02
      0.145000          0.107411E-02
      0.150000          0.102128E-02
      0.155000          0.971288E-03
      0.160000          0.923780E-03
      0.165000          0.879039E-03
      0.170000          0.837536E-03
      0.175000          0.799327E-03
      0.180000          0.763744E-03
      0.185000          0.729598E-03
      0.190000          0.695716E-03
      0.195000          0.661428E-03
      0.200000          0.626728E-03
      0.205000          0.592058E-03
      0.210000          0.557960E-03
      0.215000          0.524819E-03
      0.220000          0.492847E-03
      0.225000          0.462214E-03
      0.230000          0.433169E-03
      0.235000          0.406039E-03
      0.240000          0.381111E-03
      0.245000          0.358511E-03
      0.250000          0.338163E-03
      0.255000          0.319863E-03
      0.260000          0.303374E-03
      0.265000          0.288488E-03
      0.270000          0.274999E-03
      0.275000          0.262662E-03
      0.280000          0.251177E-03
      0.285000          0.240260E-03
      0.290000          0.229752E-03
      0.295000          0.219695E-03
      0.300000          0.210302E-03
      0.305000          0.201832E-03
      0.310000          0.194431E-03
      0.315000          0.188034E-03
      0.320000          0.182388E-03
      0.325000          0.177172E-03
      0.330000          0.172137E-03
      0.335000          0.167179E-03
      0.340000          0.162319E-03
      0.345000          0.157621E-03
      0.350000          0.153106E-03
      0.355000          0.148720E-03
      0.360000          0.144366E-03
      0.365000          0.139952E-03
      0.370000          0.135433E-03
      0.375000          0.130812E-03
      0.380000          0.126133E-03
      0.385000          0.121464E-03
      0.390000          0.116894E-03
      0.395000          0.112531E-03
      0.400000          0.108498E-03
      0.405000          0.104907E-03
      0.410000          0.101839E-03
      0.415000          0.993340E-04
      0.420000          0.973750E-04
      0.425000          0.958848E-04
      0.430000          0.947198E-04
      0.435000          0.936780E-04
      0.440000          0.925335E-04
      0.445000          0.910960E-04
      0.450000          0.892751E-04
      0.455000          0.871170E-04
      0.460000          0.847865E-04
      0.465000          0.824968E-04
      0.470000          0.804174E-04
      0.475000          0.786047E-04
      0.480000          0.769916E-04
      0.485000          0.754348E-04
      0.490000          0.737933E-04
      0.495000          0.719932E-04
      0.500000          0.700482E-04
