 I_abs(s)[cm^-1]/c[mg/ml]
       0.00000          0.125138E-01
      0.500000E-02      0.122937E-01
      0.100000E-01      0.116691E-01
      0.150000E-01      0.107372E-01
      0.200000E-01      0.963334E-02
      0.250000E-01      0.849888E-02
      0.300000E-01      0.745145E-02
      0.350000E-01      0.656493E-02
      0.400000E-01      0.586376E-02
      0.450000E-01      0.533060E-02
      0.500000E-01      0.492283E-02
      0.550000E-01      0.459115E-02
      0.600000E-01      0.429440E-02
      0.650000E-01      0.400722E-02
      0.700000E-01      0.372034E-02
      0.750000E-01      0.343587E-02
      0.800000E-01      0.316086E-02
      0.850000E-01      0.290214E-02
      0.900000E-01      0.266363E-02
      0.950000E-01      0.244627E-02
      0.100000          0.224917E-02
      0.105000          0.207102E-02
      0.110000          0.191062E-02
      0.115000          0.176682E-02
      0.120000          0.163810E-02
      0.125000          0.152232E-02
      0.130000          0.141702E-02
      0.135000          0.132006E-02
      0.140000          0.123020E-02
      0.145000          0.114728E-02
      0.150000          0.107188E-02
      0.155000          0.100470E-02
      0.160000          0.945822E-03
      0.165000          0.894394E-03
      0.170000          0.848738E-03
      0.175000          0.806805E-03
      0.180000          0.766739E-03
      0.185000          0.727287E-03
      0.190000          0.687927E-03
      0.195000          0.648717E-03
      0.200000          0.610034E-03
      0.205000          0.572319E-03
      0.210000          0.535944E-03
      0.215000          0.501188E-03
      0.220000          0.468275E-03
      0.225000          0.437409E-03
      0.230000          0.408780E-03
      0.235000          0.382553E-03
      0.240000          0.358856E-03
      0.245000          0.337795E-03
      0.250000          0.319459E-03
      0.255000          0.303909E-03
      0.260000          0.291117E-03
      0.265000          0.280880E-03
      0.270000          0.272753E-03
      0.275000          0.266060E-03
      0.280000          0.259985E-03
      0.285000          0.253752E-03
      0.290000          0.246800E-03
      0.295000          0.238898E-03
      0.300000          0.230161E-03
      0.305000          0.220942E-03
      0.310000          0.211677E-03
      0.315000          0.202733E-03
      0.320000          0.194327E-03
      0.325000          0.186526E-03
      0.330000          0.179308E-03
      0.335000          0.172637E-03
      0.340000          0.166508E-03
      0.345000          0.160949E-03
      0.350000          0.155985E-03
      0.355000          0.151605E-03
      0.360000          0.147749E-03
      0.365000          0.144332E-03
      0.370000          0.141276E-03
      0.375000          0.138539E-03
      0.380000          0.136111E-03
      0.385000          0.133984E-03
      0.390000          0.132123E-03
      0.395000          0.130442E-03
      0.400000          0.128823E-03
      0.405000          0.127144E-03
      0.410000          0.125317E-03
      0.415000          0.123311E-03
      0.420000          0.121151E-03
      0.425000          0.118897E-03
      0.430000          0.116629E-03
      0.435000          0.114421E-03
      0.440000          0.112330E-03
      0.445000          0.110384E-03
      0.450000          0.108576E-03
      0.455000          0.106856E-03
      0.460000          0.105152E-03
      0.465000          0.103385E-03
      0.470000          0.101502E-03
      0.475000          0.994968E-04
      0.480000          0.974123E-04
      0.485000          0.953227E-04
      0.490000          0.933031E-04
      0.495000          0.914023E-04
      0.500000          0.896297E-04
