 I_abs(s)[cm^-1]/c[mg/ml]
       0.00000          0.112644E-01
      0.500000E-02      0.109915E-01
      0.100000E-01      0.102244E-01
      0.150000E-01      0.910303E-02
      0.200000E-01      0.781619E-02
      0.250000E-01      0.655141E-02
      0.300000E-01      0.545170E-02
      0.350000E-01      0.459165E-02
      0.400000E-01      0.397746E-02
      0.450000E-01      0.356630E-02
      0.500000E-01      0.329396E-02
      0.550000E-01      0.309976E-02
      0.600000E-01      0.294093E-02
      0.650000E-01      0.279513E-02
      0.700000E-01      0.265474E-02
      0.750000E-01      0.251863E-02
      0.800000E-01      0.238631E-02
      0.850000E-01      0.225606E-02
      0.900000E-01      0.212624E-02
      0.950000E-01      0.199719E-02
      0.100000          0.187185E-02
      0.105000          0.175451E-02
      0.110000          0.164861E-02
      0.115000          0.155512E-02
      0.120000          0.147228E-02
      0.125000          0.139675E-02
      0.130000          0.132532E-02
      0.135000          0.125614E-02
      0.140000          0.118894E-02
      0.145000          0.112448E-02
      0.150000          0.106366E-02
      0.155000          0.100693E-02
      0.160000          0.954220E-03
      0.165000          0.905195E-03
      0.170000          0.859518E-03
      0.175000          0.816913E-03
      0.180000          0.777033E-03
      0.185000          0.739350E-03
      0.190000          0.703213E-03
      0.195000          0.668090E-03
      0.200000          0.633811E-03
      0.205000          0.600626E-03
      0.210000          0.568993E-03
      0.215000          0.539229E-03
      0.220000          0.511239E-03
      0.225000          0.484511E-03
      0.230000          0.458392E-03
      0.235000          0.432466E-03
      0.240000          0.406808E-03
      0.245000          0.381968E-03
      0.250000          0.358694E-03
      0.255000          0.337578E-03
      0.260000          0.318798E-03
      0.265000          0.302097E-03
      0.270000          0.286945E-03
      0.275000          0.272789E-03
      0.280000          0.259227E-03
      0.285000          0.246074E-03
      0.290000          0.233315E-03
      0.295000          0.221038E-03
      0.300000          0.209372E-03
      0.305000          0.198458E-03
      0.310000          0.188429E-03
      0.315000          0.179353E-03
      0.320000          0.171192E-03
      0.325000          0.163786E-03
      0.330000          0.156897E-03
      0.335000          0.150313E-03
      0.340000          0.143935E-03
      0.345000          0.137810E-03
      0.350000          0.132067E-03
      0.355000          0.126811E-03
      0.360000          0.122029E-03
      0.365000          0.117580E-03
      0.370000          0.113262E-03
      0.375000          0.108927E-03
      0.380000          0.104544E-03
      0.385000          0.100204E-03
      0.390000          0.960408E-04
      0.395000          0.921513E-04
      0.400000          0.885517E-04
      0.405000          0.851966E-04
      0.410000          0.820345E-04
      0.415000          0.790537E-04
      0.420000          0.762843E-04
      0.425000          0.737606E-04
      0.430000          0.714767E-04
      0.435000          0.693732E-04
      0.440000          0.673655E-04
      0.445000          0.653965E-04
      0.450000          0.634755E-04
      0.455000          0.616783E-04
      0.460000          0.601062E-04
      0.465000          0.588287E-04
      0.470000          0.578439E-04
      0.475000          0.570754E-04
      0.480000          0.564049E-04
      0.485000          0.557192E-04
      0.490000          0.549465E-04
      0.495000          0.540672E-04
      0.500000          0.530990E-04
