 I_abs(s)[cm^-1]/c[mg/ml]
       0.00000          0.116878E-01
      0.500000E-02      0.114388E-01
      0.100000E-01      0.107370E-01
      0.150000E-01      0.970512E-02
      0.200000E-01      0.850839E-02
      0.250000E-01      0.731082E-02
      0.300000E-01      0.623753E-02
      0.350000E-01      0.535456E-02
      0.400000E-01      0.466987E-02
      0.450000E-01      0.415099E-02
      0.500000E-01      0.374962E-02
      0.550000E-01      0.342268E-02
      0.600000E-01      0.314345E-02
      0.650000E-01      0.290176E-02
      0.700000E-01      0.269690E-02
      0.750000E-01      0.252913E-02
      0.800000E-01      0.239415E-02
      0.850000E-01      0.228251E-02
      0.900000E-01      0.218254E-02
      0.950000E-01      0.208439E-02
      0.100000          0.198263E-02
      0.105000          0.187655E-02
      0.110000          0.176855E-02
      0.115000          0.166203E-02
      0.120000          0.155980E-02
      0.125000          0.146352E-02
      0.130000          0.137391E-02
      0.135000          0.129107E-02
      0.140000          0.121470E-02
      0.145000          0.114412E-02
      0.150000          0.107829E-02
      0.155000          0.101609E-02
      0.160000          0.956689E-03
      0.165000          0.899928E-03
      0.170000          0.846274E-03
      0.175000          0.796483E-03
      0.180000          0.751081E-03
      0.185000          0.710000E-03
      0.190000          0.672573E-03
      0.195000          0.637858E-03
      0.200000          0.605063E-03
      0.205000          0.573805E-03
      0.210000          0.544071E-03
      0.215000          0.515954E-03
      0.220000          0.489377E-03
      0.225000          0.464000E-03
      0.230000          0.439352E-03
      0.235000          0.415092E-03
      0.240000          0.391204E-03
      0.245000          0.368002E-03
      0.250000          0.345955E-03
      0.255000          0.325447E-03
      0.260000          0.306620E-03
      0.265000          0.289368E-03
      0.270000          0.273459E-03
      0.275000          0.258675E-03
      0.280000          0.244889E-03
      0.285000          0.232046E-03
      0.290000          0.220111E-03
      0.295000          0.209019E-03
      0.300000          0.198692E-03
      0.305000          0.189079E-03
      0.310000          0.180177E-03
      0.315000          0.172001E-03
      0.320000          0.164518E-03
      0.325000          0.157602E-03
      0.330000          0.151042E-03
      0.335000          0.144626E-03
      0.340000          0.138232E-03
      0.345000          0.131885E-03
      0.350000          0.125728E-03
      0.355000          0.119928E-03
      0.360000          0.114594E-03
      0.365000          0.109729E-03
      0.370000          0.105270E-03
      0.375000          0.101154E-03
      0.380000          0.973689E-04
      0.385000          0.939552E-04
      0.390000          0.909575E-04
      0.395000          0.883755E-04
      0.400000          0.861465E-04
      0.405000          0.841750E-04
      0.410000          0.823804E-04
      0.415000          0.807271E-04
      0.420000          0.792145E-04
      0.425000          0.778366E-04
      0.430000          0.765439E-04
      0.435000          0.752382E-04
      0.440000          0.738035E-04
      0.445000          0.721534E-04
      0.450000          0.702653E-04
      0.455000          0.681822E-04
      0.460000          0.659857E-04
      0.465000          0.637627E-04
      0.470000          0.615855E-04
      0.475000          0.595138E-04
      0.480000          0.576101E-04
      0.485000          0.559513E-04
      0.490000          0.546212E-04
      0.495000          0.536830E-04
      0.500000          0.531408E-04
