 I_abs(s)[cm^-1]/c[mg/ml]
       0.00000          0.122864E-01
      0.500000E-02      0.120623E-01
      0.100000E-01      0.114268E-01
      0.150000E-01      0.104810E-01
      0.200000E-01      0.936402E-02
      0.250000E-01      0.822001E-02
      0.300000E-01      0.716665E-02
      0.350000E-01      0.627543E-02
      0.400000E-01      0.556709E-02
      0.450000E-01      0.502130E-02
      0.500000E-01      0.459477E-02
      0.550000E-01      0.424060E-02
      0.600000E-01      0.392253E-02
      0.650000E-01      0.362105E-02
      0.700000E-01      0.333185E-02
      0.750000E-01      0.305956E-02
      0.800000E-01      0.281075E-02
      0.850000E-01      0.258916E-02
      0.900000E-01      0.239421E-02
      0.950000E-01      0.222217E-02
      0.100000          0.206847E-02
      0.105000          0.192954E-02
      0.110000          0.180339E-02
      0.115000          0.168910E-02
      0.120000          0.158588E-02
      0.125000          0.149237E-02
      0.130000          0.140667E-02
      0.135000          0.132683E-02
      0.140000          0.125145E-02
      0.145000          0.117998E-02
      0.150000          0.111262E-02
      0.155000          0.104979E-02
      0.160000          0.991713E-03
      0.165000          0.938098E-03
      0.170000          0.888250E-03
      0.175000          0.841331E-03
      0.180000          0.796657E-03
      0.185000          0.753859E-03
      0.190000          0.712849E-03
      0.195000          0.673692E-03
      0.200000          0.636462E-03
      0.205000          0.601184E-03
      0.210000          0.567851E-03
      0.215000          0.536471E-03
      0.220000          0.507070E-03
      0.225000          0.479653E-03
      0.230000          0.454139E-03
      0.235000          0.430333E-03
      0.240000          0.407953E-03
      0.245000          0.386731E-03
      0.250000          0.366504E-03
      0.255000          0.347267E-03
      0.260000          0.329139E-03
      0.265000          0.312284E-03
      0.270000          0.296819E-03
      0.275000          0.282755E-03
      0.280000          0.270014E-03
      0.285000          0.258469E-03
      0.290000          0.247998E-03
      0.295000          0.238500E-03
      0.300000          0.229867E-03
      0.305000          0.221948E-03
      0.310000          0.214537E-03
      0.315000          0.207406E-03
      0.320000          0.200370E-03
      0.325000          0.193363E-03
      0.330000          0.186458E-03
      0.335000          0.179832E-03
      0.340000          0.173673E-03
      0.345000          0.168086E-03
      0.350000          0.163042E-03
      0.355000          0.158395E-03
      0.360000          0.153964E-03
      0.365000          0.149622E-03
      0.370000          0.145352E-03
      0.375000          0.141245E-03
      0.380000          0.137436E-03
      0.385000          0.134028E-03
      0.390000          0.131031E-03
      0.395000          0.128357E-03
      0.400000          0.125851E-03
      0.405000          0.123359E-03
      0.410000          0.120778E-03
      0.415000          0.118083E-03
      0.420000          0.115318E-03
      0.425000          0.112563E-03
      0.430000          0.109891E-03
      0.435000          0.107352E-03
      0.440000          0.104962E-03
      0.445000          0.102724E-03
      0.450000          0.100656E-03
      0.455000          0.987968E-04
      0.460000          0.971991E-04
      0.465000          0.959035E-04
      0.470000          0.949091E-04
      0.475000          0.941612E-04
      0.480000          0.935617E-04
      0.485000          0.929972E-04
      0.490000          0.923670E-04
      0.495000          0.915997E-04
      0.500000          0.906511E-04
