 I_abs(s)[cm^-1]/c[mg/ml]
       0.00000          0.112784E-01
      0.500000E-02      0.109840E-01
      0.100000E-01      0.101592E-01
      0.150000E-01      0.896215E-02
      0.200000E-01      0.760538E-02
      0.250000E-01      0.629874E-02
      0.300000E-01      0.519932E-02
      0.350000E-01      0.438389E-02
      0.400000E-01      0.384904E-02
      0.450000E-01      0.353402E-02
      0.500000E-01      0.335410E-02
      0.550000E-01      0.323107E-02
      0.600000E-01      0.311159E-02
      0.650000E-01      0.297110E-02
      0.700000E-01      0.280692E-02
      0.750000E-01      0.262738E-02
      0.800000E-01      0.244286E-02
      0.850000E-01      0.226157E-02
      0.900000E-01      0.208948E-02
      0.950000E-01      0.193175E-02
      0.100000          0.179343E-02
      0.105000          0.167832E-02
      0.110000          0.158711E-02
      0.115000          0.151614E-02
      0.120000          0.145797E-02
      0.125000          0.140380E-02
      0.130000          0.134646E-02
      0.135000          0.128254E-02
      0.140000          0.121287E-02
      0.145000          0.114113E-02
      0.150000          0.107174E-02
      0.155000          0.100797E-02
      0.160000          0.951060E-03
      0.165000          0.900439E-03
      0.170000          0.854587E-03
      0.175000          0.811954E-03
      0.180000          0.771482E-03
      0.185000          0.732685E-03
      0.190000          0.695459E-03
      0.195000          0.659867E-03
      0.200000          0.626010E-03
      0.205000          0.593972E-03
      0.210000          0.563764E-03
      0.215000          0.535247E-03
      0.220000          0.508067E-03
      0.225000          0.481712E-03
      0.230000          0.455689E-03
      0.235000          0.429762E-03
      0.240000          0.404110E-03
      0.245000          0.379288E-03
      0.250000          0.355993E-03
      0.255000          0.334750E-03
      0.260000          0.315674E-03
      0.265000          0.298435E-03
      0.270000          0.282424E-03
      0.275000          0.267030E-03
      0.280000          0.251876E-03
      0.285000          0.236913E-03
      0.290000          0.222366E-03
      0.295000          0.208581E-03
      0.300000          0.195870E-03
      0.305000          0.184415E-03
      0.310000          0.174241E-03
      0.315000          0.165245E-03
      0.320000          0.157239E-03
      0.325000          0.150007E-03
      0.330000          0.143346E-03
      0.335000          0.137107E-03
      0.340000          0.131211E-03
      0.345000          0.125637E-03
      0.350000          0.120384E-03
      0.355000          0.115427E-03
      0.360000          0.110718E-03
      0.365000          0.106211E-03
      0.370000          0.101926E-03
      0.375000          0.979724E-04
      0.380000          0.945165E-04
      0.385000          0.916831E-04
      0.390000          0.894524E-04
      0.395000          0.876201E-04
      0.400000          0.858633E-04
      0.405000          0.838862E-04
      0.410000          0.815678E-04
      0.415000          0.790226E-04
      0.420000          0.765369E-04
      0.425000          0.744188E-04
      0.430000          0.728493E-04
      0.435000          0.718159E-04
      0.440000          0.711527E-04
      0.445000          0.706462E-04
      0.450000          0.701320E-04
      0.455000          0.695302E-04
      0.460000          0.688174E-04
      0.465000          0.679776E-04
      0.470000          0.669762E-04
      0.475000          0.657770E-04
      0.480000          0.643776E-04
      0.485000          0.628298E-04
      0.490000          0.612225E-04
      0.495000          0.596387E-04
      0.500000          0.581164E-04
