 I_abs(s)[cm^-1]/c[mg/ml]
       0.00000          0.123229E-01
      0.500000E-02      0.120785E-01
      0.100000E-01      0.113867E-01
      0.150000E-01      0.103604E-01
      0.200000E-01      0.915542E-02
      0.250000E-01      0.793212E-02
      0.300000E-01      0.682047E-02
      0.350000E-01      0.589783E-02
      0.400000E-01      0.518418E-02
      0.450000E-01      0.465342E-02
      0.500000E-01      0.425420E-02
      0.550000E-01      0.393203E-02
      0.600000E-01      0.364541E-02
      0.650000E-01      0.337256E-02
      0.700000E-01      0.310922E-02
      0.750000E-01      0.286121E-02
      0.800000E-01      0.263615E-02
      0.850000E-01      0.243783E-02
      0.900000E-01      0.226457E-02
      0.950000E-01      0.211094E-02
      0.100000          0.197073E-02
      0.105000          0.183955E-02
      0.110000          0.171571E-02
      0.115000          0.159970E-02
      0.120000          0.149277E-02
      0.125000          0.139573E-02
      0.130000          0.130835E-02
      0.135000          0.122956E-02
      0.140000          0.115798E-02
      0.145000          0.109239E-02
      0.150000          0.103197E-02
      0.155000          0.976204E-03
      0.160000          0.924680E-03
      0.165000          0.876971E-03
      0.170000          0.832642E-03
      0.175000          0.791333E-03
      0.180000          0.752803E-03
      0.185000          0.716882E-03
      0.190000          0.683343E-03
      0.195000          0.651808E-03
      0.200000          0.621764E-03
      0.205000          0.592695E-03
      0.210000          0.564275E-03
      0.215000          0.536479E-03
      0.220000          0.509570E-03
      0.225000          0.483936E-03
      0.230000          0.459883E-03
      0.235000          0.437494E-03
      0.240000          0.416614E-03
      0.245000          0.396971E-03
      0.250000          0.378345E-03
      0.255000          0.360684E-03
      0.260000          0.344116E-03
      0.265000          0.328837E-03
      0.270000          0.314973E-03
      0.275000          0.302473E-03
      0.280000          0.291095E-03
      0.285000          0.280501E-03
      0.290000          0.270382E-03
      0.295000          0.260569E-03
      0.300000          0.251072E-03
      0.305000          0.242033E-03
      0.310000          0.233626E-03
      0.315000          0.225960E-03
      0.320000          0.219014E-03
      0.325000          0.212635E-03
      0.330000          0.206589E-03
      0.335000          0.200636E-03
      0.340000          0.194608E-03
      0.345000          0.188449E-03
      0.350000          0.182225E-03
      0.355000          0.176081E-03
      0.360000          0.170183E-03
      0.365000          0.164653E-03
      0.370000          0.159526E-03
      0.375000          0.154750E-03
      0.380000          0.150222E-03
      0.385000          0.145841E-03
      0.390000          0.141554E-03
      0.395000          0.137375E-03
      0.400000          0.133353E-03
      0.405000          0.129540E-03
      0.410000          0.125943E-03
      0.415000          0.122522E-03
      0.420000          0.119212E-03
      0.425000          0.115969E-03
      0.430000          0.112801E-03
      0.435000          0.109776E-03
      0.440000          0.106985E-03
      0.445000          0.104495E-03
      0.450000          0.102299E-03
      0.455000          0.100313E-03
      0.460000          0.984029E-04
      0.465000          0.964397E-04
      0.470000          0.943502E-04
      0.475000          0.921369E-04
      0.480000          0.898609E-04
      0.485000          0.875981E-04
      0.490000          0.853947E-04
      0.495000          0.832471E-04
      0.500000          0.811162E-04
