 I_abs(s)[cm^-1]/c[mg/ml]
       0.00000          0.116522E-01
      0.500000E-02      0.113940E-01
      0.100000E-01      0.106668E-01
      0.150000E-01      0.960055E-02
      0.200000E-01      0.837187E-02
      0.250000E-01      0.715883E-02
      0.300000E-01      0.609970E-02
      0.350000E-01      0.526813E-02
      0.400000E-01      0.466999E-02
      0.450000E-01      0.425970E-02
      0.500000E-01      0.396728E-02
      0.550000E-01      0.372570E-02
      0.600000E-01      0.348955E-02
      0.650000E-01      0.324124E-02
      0.700000E-01      0.298589E-02
      0.750000E-01      0.273990E-02
      0.800000E-01      0.251928E-02
      0.850000E-01      0.233214E-02
      0.900000E-01      0.217694E-02
      0.950000E-01      0.204539E-02
      0.100000          0.192730E-02
      0.105000          0.181481E-02
      0.110000          0.170439E-02
      0.115000          0.159646E-02
      0.120000          0.149358E-02
      0.125000          0.139850E-02
      0.130000          0.131276E-02
      0.135000          0.123636E-02
      0.140000          0.116806E-02
      0.145000          0.110607E-02
      0.150000          0.104863E-02
      0.155000          0.994386E-03
      0.160000          0.942548E-03
      0.165000          0.892870E-03
      0.170000          0.845540E-03
      0.175000          0.800977E-03
      0.180000          0.759578E-03
      0.185000          0.721470E-03
      0.190000          0.686378E-03
      0.195000          0.653654E-03
      0.200000          0.622492E-03
      0.205000          0.592209E-03
      0.210000          0.562477E-03
      0.215000          0.533384E-03
      0.220000          0.505311E-03
      0.225000          0.478699E-03
      0.230000          0.453827E-03
      0.235000          0.430711E-03
      0.240000          0.409163E-03
      0.245000          0.388940E-03
      0.250000          0.369895E-03
      0.255000          0.352051E-03
      0.260000          0.335543E-03
      0.265000          0.320494E-03
      0.270000          0.306883E-03
      0.275000          0.294480E-03
      0.280000          0.282893E-03
      0.285000          0.271683E-03
      0.290000          0.260516E-03
      0.295000          0.249268E-03
      0.300000          0.238052E-03
      0.305000          0.227155E-03
      0.310000          0.216921E-03
      0.315000          0.207621E-03
      0.320000          0.199359E-03
      0.325000          0.192051E-03
      0.330000          0.185467E-03
      0.335000          0.179320E-03
      0.340000          0.173369E-03
      0.345000          0.167487E-03
      0.350000          0.161679E-03
      0.355000          0.156053E-03
      0.360000          0.150750E-03
      0.365000          0.145881E-03
      0.370000          0.141473E-03
      0.375000          0.137468E-03
      0.380000          0.133742E-03
      0.385000          0.130156E-03
      0.390000          0.126602E-03
      0.395000          0.123040E-03
      0.400000          0.119502E-03
      0.405000          0.116084E-03
      0.410000          0.112907E-03
      0.415000          0.110084E-03
      0.420000          0.107687E-03
      0.425000          0.105724E-03
      0.430000          0.104143E-03
      0.435000          0.102838E-03
      0.440000          0.101676E-03
      0.445000          0.100522E-03
      0.450000          0.992717E-04
      0.455000          0.978678E-04
      0.460000          0.963114E-04
      0.465000          0.946506E-04
      0.470000          0.929576E-04
      0.475000          0.912988E-04
      0.480000          0.897106E-04
      0.485000          0.881879E-04
      0.490000          0.866909E-04
      0.495000          0.851641E-04
      0.500000          0.835615E-04
