 I_abs(s)[cm^-1]/c[mg/ml]
       0.00000          0.116736E-01
      0.500000E-02      0.114157E-01
      0.100000E-01      0.106877E-01
      0.150000E-01      0.961465E-02
      0.200000E-01      0.836805E-02
      0.250000E-01      0.712386E-02
      0.300000E-01      0.602319E-02
      0.350000E-01      0.514750E-02
      0.400000E-01      0.451345E-02
      0.450000E-01      0.408552E-02
      0.500000E-01      0.379959E-02
      0.550000E-01      0.358798E-02
      0.600000E-01      0.339813E-02
      0.650000E-01      0.320098E-02
      0.700000E-01      0.298939E-02
      0.750000E-01      0.277040E-02
      0.800000E-01      0.255607E-02
      0.850000E-01      0.235649E-02
      0.900000E-01      0.217673E-02
      0.950000E-01      0.201720E-02
      0.100000          0.187568E-02
      0.105000          0.174945E-02
      0.110000          0.163640E-02
      0.115000          0.153512E-02
      0.120000          0.144446E-02
      0.125000          0.136311E-02
      0.130000          0.128948E-02
      0.135000          0.122198E-02
      0.140000          0.115924E-02
      0.145000          0.110029E-02
      0.150000          0.104447E-02
      0.155000          0.991350E-03
      0.160000          0.940649E-03
      0.165000          0.892302E-03
      0.170000          0.846518E-03
      0.175000          0.803747E-03
      0.180000          0.764481E-03
      0.185000          0.728952E-03
      0.190000          0.696889E-03
      0.195000          0.667485E-03
      0.200000          0.639618E-03
      0.205000          0.612237E-03
      0.210000          0.584717E-03
      0.215000          0.557029E-03
      0.220000          0.529645E-03
      0.225000          0.503250E-03
      0.230000          0.478410E-03
      0.235000          0.455364E-03
      0.240000          0.433991E-03
      0.245000          0.413947E-03
      0.250000          0.394853E-03
      0.255000          0.376450E-03
      0.260000          0.358648E-03
      0.265000          0.341495E-03
      0.270000          0.325099E-03
      0.275000          0.309574E-03
      0.280000          0.295015E-03
      0.285000          0.281494E-03
      0.290000          0.269053E-03
      0.295000          0.257686E-03
      0.300000          0.247318E-03
      0.305000          0.237793E-03
      0.310000          0.228911E-03
      0.315000          0.220476E-03
      0.320000          0.212353E-03
      0.325000          0.204493E-03
      0.330000          0.196907E-03
      0.335000          0.189621E-03
      0.340000          0.182631E-03
      0.345000          0.175883E-03
      0.350000          0.169306E-03
      0.355000          0.162854E-03
      0.360000          0.156542E-03
      0.365000          0.150446E-03
      0.370000          0.144667E-03
      0.375000          0.139281E-03
      0.380000          0.134298E-03
      0.385000          0.129666E-03
      0.390000          0.125303E-03
      0.395000          0.121151E-03
      0.400000          0.117201E-03
      0.405000          0.113503E-03
      0.410000          0.110127E-03
      0.415000          0.107119E-03
      0.420000          0.104471E-03
      0.425000          0.102113E-03
      0.430000          0.999353E-04
      0.435000          0.978314E-04
      0.440000          0.957325E-04
      0.445000          0.936255E-04
      0.450000          0.915452E-04
      0.455000          0.895486E-04
      0.460000          0.876836E-04
      0.465000          0.859666E-04
      0.470000          0.843769E-04
      0.475000          0.828687E-04
      0.480000          0.813916E-04
      0.485000          0.799117E-04
      0.490000          0.784199E-04
      0.495000          0.769281E-04
      0.500000          0.754533E-04
