 I_abs(s)[cm^-1]/c[mg/ml]
       0.00000          0.116096E-01
      0.500000E-02      0.113341E-01
      0.100000E-01      0.105604E-01
      0.150000E-01      0.943235E-02
      0.200000E-01      0.814409E-02
      0.250000E-01      0.688883E-02
      0.300000E-01      0.581258E-02
      0.350000E-01      0.498743E-02
      0.400000E-01      0.441031E-02
      0.450000E-01      0.402377E-02
      0.500000E-01      0.374853E-02
      0.550000E-01      0.351455E-02
      0.600000E-01      0.328057E-02
      0.650000E-01      0.303769E-02
      0.700000E-01      0.279956E-02
      0.750000E-01      0.258650E-02
      0.800000E-01      0.241137E-02
      0.850000E-01      0.227291E-02
      0.900000E-01      0.215767E-02
      0.950000E-01      0.204782E-02
      0.100000          0.192973E-02
      0.105000          0.179940E-02
      0.110000          0.166250E-02
      0.115000          0.153003E-02
      0.120000          0.141241E-02
      0.125000          0.131495E-02
      0.130000          0.123656E-02
      0.135000          0.117153E-02
      0.140000          0.111305E-02
      0.145000          0.105628E-02
      0.150000          0.999715E-03
      0.155000          0.944488E-03
      0.160000          0.892608E-03
      0.165000          0.845235E-03
      0.170000          0.802003E-03
      0.175000          0.761546E-03
      0.180000          0.722660E-03
      0.185000          0.685255E-03
      0.190000          0.650468E-03
      0.195000          0.619899E-03
      0.200000          0.594449E-03
      0.205000          0.573493E-03
      0.210000          0.554875E-03
      0.215000          0.535765E-03
      0.220000          0.513913E-03
      0.225000          0.488655E-03
      0.230000          0.461143E-03
      0.235000          0.433730E-03
      0.240000          0.408816E-03
      0.245000          0.387765E-03
      0.250000          0.370391E-03
      0.255000          0.355208E-03
      0.260000          0.340271E-03
      0.265000          0.324139E-03
      0.270000          0.306509E-03
      0.275000          0.288245E-03
      0.280000          0.270860E-03
      0.285000          0.255739E-03
      0.290000          0.243513E-03
      0.295000          0.233837E-03
      0.300000          0.225638E-03
      0.305000          0.217669E-03
      0.310000          0.209054E-03
      0.315000          0.199603E-03
      0.320000          0.189770E-03
      0.325000          0.180331E-03
      0.330000          0.171980E-03
      0.335000          0.165037E-03
      0.340000          0.159385E-03
      0.345000          0.154623E-03
      0.350000          0.150310E-03
      0.355000          0.146172E-03
      0.360000          0.142165E-03
      0.365000          0.138400E-03
      0.370000          0.134999E-03
      0.375000          0.131984E-03
      0.380000          0.129238E-03
      0.385000          0.126560E-03
      0.390000          0.123754E-03
      0.395000          0.120694E-03
      0.400000          0.117354E-03
      0.405000          0.113784E-03
      0.410000          0.110087E-03
      0.415000          0.106393E-03
      0.420000          0.102852E-03
      0.425000          0.996192E-04
      0.430000          0.968223E-04
      0.435000          0.945239E-04
      0.440000          0.926896E-04
      0.445000          0.911913E-04
      0.450000          0.898480E-04
      0.455000          0.884852E-04
      0.460000          0.869849E-04
      0.465000          0.853065E-04
      0.470000          0.834748E-04
      0.475000          0.815534E-04
      0.480000          0.796173E-04
      0.485000          0.777359E-04
      0.490000          0.759618E-04
      0.495000          0.743216E-04
      0.500000          0.728075E-04
