 I_abs(s)[cm^-1]/c[mg/ml]
       0.00000          0.116949E-01
      0.500000E-02      0.114103E-01
      0.100000E-01      0.106156E-01
      0.150000E-01      0.946937E-02
      0.200000E-01      0.817996E-02
      0.250000E-01      0.694444E-02
      0.300000E-01      0.589934E-02
      0.350000E-01      0.509860E-02
      0.400000E-01      0.452230E-02
      0.450000E-01      0.410683E-02
      0.500000E-01      0.378077E-02
      0.550000E-01      0.349149E-02
      0.600000E-01      0.321510E-02
      0.650000E-01      0.295094E-02
      0.700000E-01      0.270855E-02
      0.750000E-01      0.249558E-02
      0.800000E-01      0.231228E-02
      0.850000E-01      0.215276E-02
      0.900000E-01      0.200970E-02
      0.950000E-01      0.187847E-02
      0.100000          0.175805E-02
      0.105000          0.164929E-02
      0.110000          0.155231E-02
      0.115000          0.146518E-02
      0.120000          0.138456E-02
      0.125000          0.130742E-02
      0.130000          0.123253E-02
      0.135000          0.116069E-02
      0.140000          0.109358E-02
      0.145000          0.103242E-02
      0.150000          0.977134E-03
      0.155000          0.926586E-03
      0.160000          0.879460E-03
      0.165000          0.835069E-03
      0.170000          0.793504E-03
      0.175000          0.755128E-03
      0.180000          0.719873E-03
      0.185000          0.686915E-03
      0.190000          0.654959E-03
      0.195000          0.622919E-03
      0.200000          0.590510E-03
      0.205000          0.558347E-03
      0.210000          0.527508E-03
      0.215000          0.498868E-03
      0.220000          0.472616E-03
      0.225000          0.448224E-03
      0.230000          0.424822E-03
      0.235000          0.401705E-03
      0.240000          0.378666E-03
      0.245000          0.356011E-03
      0.250000          0.334327E-03
      0.255000          0.314184E-03
      0.260000          0.295948E-03
      0.265000          0.279750E-03
      0.270000          0.265540E-03
      0.275000          0.253147E-03
      0.280000          0.242292E-03
      0.285000          0.232597E-03
      0.290000          0.223622E-03
      0.295000          0.214970E-03
      0.300000          0.206404E-03
      0.305000          0.197921E-03
      0.310000          0.189709E-03
      0.315000          0.182024E-03
      0.320000          0.175045E-03
      0.325000          0.168785E-03
      0.330000          0.163097E-03
      0.335000          0.157765E-03
      0.340000          0.152612E-03
      0.345000          0.147571E-03
      0.350000          0.142686E-03
      0.355000          0.138067E-03
      0.360000          0.133816E-03
      0.365000          0.129978E-03
      0.370000          0.126524E-03
      0.375000          0.123363E-03
      0.380000          0.120371E-03
      0.385000          0.117416E-03
      0.390000          0.114382E-03
      0.395000          0.111198E-03
      0.400000          0.107849E-03
      0.405000          0.104389E-03
      0.410000          0.100929E-03
      0.415000          0.976010E-04
      0.420000          0.945108E-04
      0.425000          0.917044E-04
      0.430000          0.891558E-04
      0.435000          0.867920E-04
      0.440000          0.845377E-04
      0.445000          0.823547E-04
      0.450000          0.802561E-04
      0.455000          0.782887E-04
      0.460000          0.764995E-04
      0.465000          0.749073E-04
      0.470000          0.734961E-04
      0.475000          0.722290E-04
      0.480000          0.710692E-04
      0.485000          0.699941E-04
      0.490000          0.689927E-04
      0.495000          0.680547E-04
      0.500000          0.671603E-04
