 I_abs(s)[cm^-1]/c[mg/ml]
       0.00000          0.120466E-01
      0.500000E-02      0.117801E-01
      0.100000E-01      0.110288E-01
      0.150000E-01      0.992400E-02
      0.200000E-01      0.864292E-02
      0.250000E-01      0.736229E-02
      0.300000E-01      0.621805E-02
      0.350000E-01      0.528318E-02
      0.400000E-01      0.456791E-02
      0.450000E-01      0.403778E-02
      0.500000E-01      0.363943E-02
      0.550000E-01      0.332354E-02
      0.600000E-01      0.305760E-02
      0.650000E-01      0.282727E-02
      0.700000E-01      0.262989E-02
      0.750000E-01      0.246569E-02
      0.800000E-01      0.233169E-02
      0.850000E-01      0.222015E-02
      0.900000E-01      0.212087E-02
      0.950000E-01      0.202477E-02
      0.100000          0.192651E-02
      0.105000          0.182492E-02
      0.110000          0.172177E-02
      0.115000          0.161985E-02
      0.120000          0.152154E-02
      0.125000          0.142825E-02
      0.130000          0.134064E-02
      0.135000          0.125899E-02
      0.140000          0.118343E-02
      0.145000          0.111395E-02
      0.150000          0.105031E-02
      0.155000          0.992088E-03
      0.160000          0.938839E-03
      0.165000          0.890222E-03
      0.170000          0.846024E-03
      0.175000          0.805995E-03
      0.180000          0.769632E-03
      0.185000          0.736095E-03
      0.190000          0.704331E-03
      0.195000          0.673360E-03
      0.200000          0.642566E-03
      0.205000          0.611801E-03
      0.210000          0.581287E-03
      0.215000          0.551364E-03
      0.220000          0.522269E-03
      0.225000          0.494037E-03
      0.230000          0.466570E-03
      0.235000          0.439770E-03
      0.240000          0.413649E-03
      0.245000          0.388357E-03
      0.250000          0.364122E-03
      0.255000          0.341184E-03
      0.260000          0.319753E-03
      0.265000          0.300011E-03
      0.270000          0.282105E-03
      0.275000          0.266129E-03
      0.280000          0.252061E-03
      0.285000          0.239719E-03
      0.290000          0.228769E-03
      0.295000          0.218806E-03
      0.300000          0.209465E-03
      0.305000          0.200521E-03
      0.310000          0.191903E-03
      0.315000          0.183644E-03
      0.320000          0.175792E-03
      0.325000          0.168338E-03
      0.330000          0.161212E-03
      0.335000          0.154316E-03
      0.340000          0.147579E-03
      0.345000          0.140989E-03
      0.350000          0.134577E-03
      0.355000          0.128388E-03
      0.360000          0.122449E-03
      0.365000          0.116773E-03
      0.370000          0.111369E-03
      0.375000          0.106270E-03
      0.380000          0.101532E-03
      0.385000          0.972164E-04
      0.390000          0.933587E-04
      0.395000          0.899471E-04
      0.400000          0.869235E-04
      0.405000          0.842044E-04
      0.410000          0.817074E-04
      0.415000          0.793711E-04
      0.420000          0.771592E-04
      0.425000          0.750544E-04
      0.430000          0.730532E-04
      0.435000          0.711663E-04
      0.440000          0.694220E-04
      0.445000          0.678634E-04
      0.450000          0.665311E-04
      0.455000          0.654361E-04
      0.460000          0.645364E-04
      0.465000          0.637390E-04
      0.470000          0.629318E-04
      0.475000          0.620370E-04
      0.480000          0.610570E-04
      0.485000          0.600832E-04
      0.490000          0.592576E-04
      0.495000          0.587005E-04
      0.500000          0.584411E-04
