 I_abs(s)[cm^-1]/c[mg/ml]
       0.00000          0.119456E-01
      0.500000E-02      0.117154E-01
      0.100000E-01      0.110626E-01
      0.150000E-01      0.100905E-01
      0.200000E-01      0.894247E-02
      0.250000E-01      0.776774E-02
      0.300000E-01      0.668977E-02
      0.350000E-01      0.578519E-02
      0.400000E-01      0.507828E-02
      0.450000E-01      0.454976E-02
      0.500000E-01      0.415478E-02
      0.550000E-01      0.384281E-02
      0.600000E-01      0.357300E-02
      0.650000E-01      0.332147E-02
      0.700000E-01      0.308060E-02
      0.750000E-01      0.285308E-02
      0.800000E-01      0.264468E-02
      0.850000E-01      0.245884E-02
      0.900000E-01      0.229464E-02
      0.950000E-01      0.214784E-02
      0.100000          0.201325E-02
      0.105000          0.188703E-02
      0.110000          0.176755E-02
      0.115000          0.165505E-02
      0.120000          0.155050E-02
      0.125000          0.145452E-02
      0.130000          0.136694E-02
      0.135000          0.128701E-02
      0.140000          0.121387E-02
      0.145000          0.114693E-02
      0.150000          0.108580E-02
      0.155000          0.103005E-02
      0.160000          0.978843E-03
      0.165000          0.930897E-03
      0.170000          0.884735E-03
      0.175000          0.839181E-03
      0.180000          0.793770E-03
      0.185000          0.748871E-03
      0.190000          0.705436E-03
      0.195000          0.664530E-03
      0.200000          0.626859E-03
      0.205000          0.592529E-03
      0.210000          0.561104E-03
      0.215000          0.531882E-03
      0.220000          0.504220E-03
      0.225000          0.477736E-03
      0.230000          0.452339E-03
      0.235000          0.428096E-03
      0.240000          0.405092E-03
      0.245000          0.383340E-03
      0.250000          0.362810E-03
      0.255000          0.343512E-03
      0.260000          0.325569E-03
      0.265000          0.309206E-03
      0.270000          0.294658E-03
      0.275000          0.282033E-03
      0.280000          0.271217E-03
      0.285000          0.261865E-03
      0.290000          0.253486E-03
      0.295000          0.245579E-03
      0.300000          0.237756E-03
      0.305000          0.229809E-03
      0.310000          0.221699E-03
      0.315000          0.213502E-03
      0.320000          0.205344E-03
      0.325000          0.197358E-03
      0.330000          0.189677E-03
      0.335000          0.182436E-03
      0.340000          0.175765E-03
      0.345000          0.169767E-03
      0.350000          0.164481E-03
      0.355000          0.159851E-03
      0.360000          0.155736E-03
      0.365000          0.151950E-03
      0.370000          0.148329E-03
      0.375000          0.144783E-03
      0.380000          0.141309E-03
      0.385000          0.137966E-03
      0.390000          0.134818E-03
      0.395000          0.131889E-03
      0.400000          0.129149E-03
      0.405000          0.126544E-03
      0.410000          0.124043E-03
      0.415000          0.121660E-03
      0.420000          0.119458E-03
      0.425000          0.117497E-03
      0.430000          0.115791E-03
      0.435000          0.114272E-03
      0.440000          0.112803E-03
      0.445000          0.111224E-03
      0.450000          0.109412E-03
      0.455000          0.107324E-03
      0.460000          0.105007E-03
      0.465000          0.102574E-03
      0.470000          0.100159E-03
      0.475000          0.978829E-04
      0.480000          0.958212E-04
      0.485000          0.939948E-04
      0.490000          0.923724E-04
      0.495000          0.908838E-04
      0.500000          0.894401E-04
