 I_abs(s)[cm^-1]/c[mg/ml]
       0.00000          0.123083E-01
      0.500000E-02      0.120563E-01
      0.100000E-01      0.113451E-01
      0.150000E-01      0.102972E-01
      0.200000E-01      0.907848E-02
      0.250000E-01      0.785535E-02
      0.300000E-01      0.675680E-02
      0.350000E-01      0.585238E-02
      0.400000E-01      0.515108E-02
      0.450000E-01      0.461763E-02
      0.500000E-01      0.419749E-02
      0.550000E-01      0.384021E-02
      0.600000E-01      0.351382E-02
      0.650000E-01      0.320756E-02
      0.700000E-01      0.292566E-02
      0.750000E-01      0.267728E-02
      0.800000E-01      0.246803E-02
      0.850000E-01      0.229619E-02
      0.900000E-01      0.215374E-02
      0.950000E-01      0.203021E-02
      0.100000          0.191662E-02
      0.105000          0.180770E-02
      0.110000          0.170187E-02
      0.115000          0.159973E-02
      0.120000          0.150240E-02
      0.125000          0.141047E-02
      0.130000          0.132392E-02
      0.135000          0.124252E-02
      0.140000          0.116617E-02
      0.145000          0.109505E-02
      0.150000          0.102936E-02
      0.155000          0.969051E-03
      0.160000          0.913812E-03
      0.165000          0.863220E-03
      0.170000          0.816991E-03
      0.175000          0.775067E-03
      0.180000          0.737471E-03
      0.185000          0.704010E-03
      0.190000          0.674043E-03
      0.195000          0.646491E-03
      0.200000          0.620103E-03
      0.205000          0.593853E-03
      0.210000          0.567236E-03
      0.215000          0.540322E-03
      0.220000          0.513566E-03
      0.225000          0.487496E-03
      0.230000          0.462459E-03
      0.235000          0.438539E-03
      0.240000          0.415633E-03
      0.245000          0.393609E-03
      0.250000          0.372414E-03
      0.255000          0.352095E-03
      0.260000          0.332731E-03
      0.265000          0.314374E-03
      0.270000          0.297019E-03
      0.275000          0.280645E-03
      0.280000          0.265266E-03
      0.285000          0.250940E-03
      0.290000          0.237738E-03
      0.295000          0.225659E-03
      0.300000          0.214589E-03
      0.305000          0.204308E-03
      0.310000          0.194563E-03
      0.315000          0.185165E-03
      0.320000          0.176055E-03
      0.325000          0.167291E-03
      0.330000          0.158992E-03
      0.335000          0.151252E-03
      0.340000          0.144087E-03
      0.345000          0.137443E-03
      0.350000          0.131239E-03
      0.355000          0.125425E-03
      0.360000          0.120007E-03
      0.365000          0.115032E-03
      0.370000          0.110543E-03
      0.375000          0.106539E-03
      0.380000          0.102956E-03
      0.385000          0.996988E-04
      0.390000          0.966785E-04
      0.395000          0.938476E-04
      0.400000          0.912041E-04
      0.405000          0.887647E-04
      0.410000          0.865295E-04
      0.415000          0.844614E-04
      0.420000          0.824955E-04
      0.425000          0.805720E-04
      0.430000          0.786706E-04
      0.435000          0.768216E-04
      0.440000          0.750866E-04
      0.445000          0.735194E-04
      0.450000          0.721318E-04
      0.455000          0.708847E-04
      0.460000          0.697092E-04
      0.465000          0.685433E-04
      0.470000          0.673611E-04
      0.475000          0.661787E-04
      0.480000          0.650362E-04
      0.485000          0.639680E-04
      0.490000          0.629819E-04
      0.495000          0.620550E-04
      0.500000          0.611459E-04
