 I_abs(s)[cm^-1]/c[mg/ml]
       0.00000          0.117449E-01
      0.500000E-02      0.114726E-01
      0.100000E-01      0.107062E-01
      0.150000E-01      0.958277E-02
      0.200000E-01      0.828920E-02
      0.250000E-01      0.701442E-02
      0.300000E-01      0.590590E-02
      0.350000E-01      0.504329E-02
      0.400000E-01      0.443469E-02
      0.450000E-01      0.403308E-02
      0.500000E-01      0.376425E-02
      0.550000E-01      0.355519E-02
      0.600000E-01      0.335393E-02
      0.650000E-01      0.313675E-02
      0.700000E-01      0.290409E-02
      0.750000E-01      0.266989E-02
      0.800000E-01      0.245035E-02
      0.850000E-01      0.225632E-02
      0.900000E-01      0.209082E-02
      0.950000E-01      0.195069E-02
      0.100000          0.183001E-02
      0.105000          0.172307E-02
      0.110000          0.162583E-02
      0.115000          0.153586E-02
      0.120000          0.145166E-02
      0.125000          0.137208E-02
      0.130000          0.129624E-02
      0.135000          0.122372E-02
      0.140000          0.115479E-02
      0.145000          0.109022E-02
      0.150000          0.103083E-02
      0.155000          0.976995E-03
      0.160000          0.928343E-03
      0.165000          0.883944E-03
      0.170000          0.842687E-03
      0.175000          0.803712E-03
      0.180000          0.766597E-03
      0.185000          0.731262E-03
      0.190000          0.697692E-03
      0.195000          0.665688E-03
      0.200000          0.634820E-03
      0.205000          0.604580E-03
      0.210000          0.574642E-03
      0.215000          0.545048E-03
      0.220000          0.516214E-03
      0.225000          0.488749E-03
      0.230000          0.463189E-03
      0.235000          0.439779E-03
      0.240000          0.418389E-03
      0.245000          0.398594E-03
      0.250000          0.379846E-03
      0.255000          0.361665E-03
      0.260000          0.343775E-03
      0.265000          0.326156E-03
      0.270000          0.309016E-03
      0.275000          0.292702E-03
      0.280000          0.277576E-03
      0.285000          0.263891E-03
      0.290000          0.251696E-03
      0.295000          0.240797E-03
      0.300000          0.230815E-03
      0.305000          0.221301E-03
      0.310000          0.211890E-03
      0.315000          0.202421E-03
      0.320000          0.192972E-03
      0.325000          0.183793E-03
      0.330000          0.175188E-03
      0.335000          0.167374E-03
      0.340000          0.160415E-03
      0.345000          0.154220E-03
      0.350000          0.148611E-03
      0.355000          0.143406E-03
      0.360000          0.138473E-03
      0.365000          0.133747E-03
      0.370000          0.129211E-03
      0.375000          0.124869E-03
      0.380000          0.120728E-03
      0.385000          0.116800E-03
      0.390000          0.113106E-03
      0.395000          0.109672E-03
      0.400000          0.106524E-03
      0.405000          0.103675E-03
      0.410000          0.101127E-03
      0.415000          0.988712E-04
      0.420000          0.968964E-04
      0.425000          0.951756E-04
      0.430000          0.936474E-04
      0.435000          0.921987E-04
      0.440000          0.906716E-04
      0.445000          0.889056E-04
      0.450000          0.868040E-04
      0.455000          0.843901E-04
      0.460000          0.818211E-04
      0.465000          0.793394E-04
      0.470000          0.771769E-04
      0.475000          0.754566E-04
      0.480000          0.741391E-04
      0.485000          0.730443E-04
      0.490000          0.719375E-04
      0.495000          0.706377E-04
      0.500000          0.690943E-04
