 I_abs(s)[cm^-1]/c[mg/ml]
       0.00000          0.120611E-01
      0.500000E-02      0.117961E-01
      0.100000E-01      0.110541E-01
      0.150000E-01      0.997679E-02
      0.200000E-01      0.875268E-02
      0.250000E-01      0.756362E-02
      0.300000E-01      0.654060E-02
      0.350000E-01      0.574185E-02
      0.400000E-01      0.515728E-02
      0.450000E-01      0.473263E-02
      0.500000E-01      0.440066E-02
      0.550000E-01      0.410653E-02
      0.600000E-01      0.382012E-02
      0.650000E-01      0.353473E-02
      0.700000E-01      0.325757E-02
      0.750000E-01      0.299884E-02
      0.800000E-01      0.276466E-02
      0.850000E-01      0.255540E-02
      0.900000E-01      0.236776E-02
      0.950000E-01      0.219781E-02
      0.100000          0.204287E-02
      0.105000          0.190151E-02
      0.110000          0.177270E-02
      0.115000          0.165500E-02
      0.120000          0.154667E-02
      0.125000          0.144624E-02
      0.130000          0.135304E-02
      0.135000          0.126712E-02
      0.140000          0.118868E-02
      0.145000          0.111732E-02
      0.150000          0.105187E-02
      0.155000          0.990639E-03
      0.160000          0.932173E-03
      0.165000          0.875760E-03
      0.170000          0.821540E-03
      0.175000          0.770124E-03
      0.180000          0.722045E-03
      0.185000          0.677395E-03
      0.190000          0.635823E-03
      0.195000          0.596811E-03
      0.200000          0.559994E-03
      0.205000          0.525294E-03
      0.210000          0.492839E-03
      0.215000          0.462753E-03
      0.220000          0.435014E-03
      0.225000          0.409441E-03
      0.230000          0.385802E-03
      0.235000          0.363931E-03
      0.240000          0.343742E-03
      0.245000          0.325164E-03
      0.250000          0.308034E-03
      0.255000          0.292060E-03
      0.260000          0.276871E-03
      0.265000          0.262151E-03
      0.270000          0.247751E-03
      0.275000          0.233735E-03
      0.280000          0.220337E-03
      0.285000          0.207845E-03
      0.290000          0.196494E-03
      0.295000          0.186398E-03
      0.300000          0.177532E-03
      0.305000          0.169760E-03
      0.310000          0.162883E-03
      0.315000          0.156679E-03
      0.320000          0.150938E-03
      0.325000          0.145502E-03
      0.330000          0.140291E-03
      0.335000          0.135315E-03
      0.340000          0.130654E-03
      0.345000          0.126405E-03
      0.350000          0.122618E-03
      0.355000          0.119258E-03
      0.360000          0.116217E-03
      0.365000          0.113371E-03
      0.370000          0.110641E-03
      0.375000          0.108024E-03
      0.380000          0.105568E-03
      0.385000          0.103318E-03
      0.390000          0.101271E-03
      0.395000          0.993661E-04
      0.400000          0.975229E-04
      0.405000          0.956822E-04
      0.410000          0.938286E-04
      0.415000          0.919810E-04
      0.420000          0.901682E-04
      0.425000          0.884090E-04
      0.430000          0.867065E-04
      0.435000          0.850487E-04
      0.440000          0.834051E-04
      0.445000          0.817220E-04
      0.450000          0.799264E-04
      0.455000          0.779486E-04
      0.460000          0.757567E-04
      0.465000          0.733831E-04
      0.470000          0.709258E-04
      0.475000          0.685217E-04
      0.480000          0.663053E-04
      0.485000          0.643727E-04
      0.490000          0.627633E-04
      0.495000          0.614609E-04
      0.500000          0.604078E-04
