 I_abs(s)[cm^-1]/c[mg/ml]
       0.00000          0.116736E-01
      0.500000E-02      0.114087E-01
      0.100000E-01      0.106630E-01
      0.150000E-01      0.956881E-02
      0.200000E-01      0.830378E-02
      0.250000E-01      0.704365E-02
      0.300000E-01      0.592188E-02
      0.350000E-01      0.500871E-02
      0.400000E-01      0.431294E-02
      0.450000E-01      0.380105E-02
      0.500000E-01      0.342270E-02
      0.550000E-01      0.313197E-02
      0.600000E-01      0.289790E-02
      0.650000E-01      0.270432E-02
      0.700000E-01      0.254336E-02
      0.750000E-01      0.240844E-02
      0.800000E-01      0.229077E-02
      0.850000E-01      0.218009E-02
      0.900000E-01      0.206788E-02
      0.950000E-01      0.195018E-02
      0.100000          0.182822E-02
      0.105000          0.170669E-02
      0.110000          0.159103E-02
      0.115000          0.148509E-02
      0.120000          0.139026E-02
      0.125000          0.130587E-02
      0.130000          0.123027E-02
      0.135000          0.116166E-02
      0.140000          0.109853E-02
      0.145000          0.103965E-02
      0.150000          0.984128E-03
      0.155000          0.931494E-03
      0.160000          0.881905E-03
      0.165000          0.836095E-03
      0.170000          0.795006E-03
      0.175000          0.759176E-03
      0.180000          0.728237E-03
      0.185000          0.700801E-03
      0.190000          0.674841E-03
      0.195000          0.648369E-03
      0.200000          0.620061E-03
      0.205000          0.589566E-03
      0.210000          0.557397E-03
      0.215000          0.524558E-03
      0.220000          0.492145E-03
      0.225000          0.461085E-03
      0.230000          0.432060E-03
      0.235000          0.405533E-03
      0.240000          0.381759E-03
      0.245000          0.360760E-03
      0.250000          0.342288E-03
      0.255000          0.325856E-03
      0.260000          0.310857E-03
      0.265000          0.296741E-03
      0.270000          0.283162E-03
      0.275000          0.270023E-03
      0.280000          0.257400E-03
      0.285000          0.245426E-03
      0.290000          0.234177E-03
      0.295000          0.223634E-03
      0.300000          0.213702E-03
      0.305000          0.204260E-03
      0.310000          0.195194E-03
      0.315000          0.186407E-03
      0.320000          0.177828E-03
      0.325000          0.169418E-03
      0.330000          0.161207E-03
      0.335000          0.153303E-03
      0.340000          0.145880E-03
      0.345000          0.139118E-03
      0.350000          0.133135E-03
      0.355000          0.127935E-03
      0.360000          0.123411E-03
      0.365000          0.119390E-03
      0.370000          0.115694E-03
      0.375000          0.112186E-03
      0.380000          0.108786E-03
      0.385000          0.105456E-03
      0.390000          0.102187E-03
      0.395000          0.989935E-04
      0.400000          0.959108E-04
      0.405000          0.929892E-04
      0.410000          0.902701E-04
      0.415000          0.877593E-04
      0.420000          0.854169E-04
      0.425000          0.831765E-04
      0.430000          0.809886E-04
      0.435000          0.788603E-04
      0.440000          0.768632E-04
      0.445000          0.750971E-04
      0.450000          0.736269E-04
      0.455000          0.724301E-04
      0.460000          0.713859E-04
      0.465000          0.703172E-04
      0.470000          0.690645E-04
      0.475000          0.675529E-04
      0.480000          0.658203E-04
      0.485000          0.639926E-04
      0.490000          0.622224E-04
      0.495000          0.606219E-04
      0.500000          0.592237E-04
