 I_abs(s)[cm^-1]/c[mg/ml]
       0.00000          0.120828E-01
      0.500000E-02      0.118592E-01
      0.100000E-01      0.112256E-01
      0.150000E-01      0.102833E-01
      0.200000E-01      0.917241E-02
      0.250000E-01      0.803751E-02
      0.300000E-01      0.699651E-02
      0.350000E-01      0.612054E-02
      0.400000E-01      0.542942E-02
      0.450000E-01      0.490138E-02
      0.500000E-01      0.449159E-02
      0.550000E-01      0.415178E-02
      0.600000E-01      0.384493E-02
      0.650000E-01      0.355155E-02
      0.700000E-01      0.326808E-02
      0.750000E-01      0.300039E-02
      0.800000E-01      0.275638E-02
      0.850000E-01      0.254071E-02
      0.900000E-01      0.235297E-02
      0.950000E-01      0.218882E-02
      0.100000          0.204243E-02
      0.105000          0.190876E-02
      0.110000          0.178461E-02
      0.115000          0.166858E-02
      0.120000          0.156029E-02
      0.125000          0.145964E-02
      0.130000          0.136646E-02
      0.135000          0.128051E-02
      0.140000          0.120168E-02
      0.145000          0.112991E-02
      0.150000          0.106505E-02
      0.155000          0.100658E-02
      0.160000          0.953530E-03
      0.165000          0.904606E-03
      0.170000          0.858601E-03
      0.175000          0.814742E-03
      0.180000          0.772844E-03
      0.185000          0.733159E-03
      0.190000          0.696013E-03
      0.195000          0.661444E-03
      0.200000          0.629022E-03
      0.205000          0.597968E-03
      0.210000          0.567477E-03
      0.215000          0.537065E-03
      0.220000          0.506781E-03
      0.225000          0.477164E-03
      0.230000          0.449005E-03
      0.235000          0.423028E-03
      0.240000          0.399640E-03
      0.245000          0.378846E-03
      0.250000          0.360324E-03
      0.255000          0.343589E-03
      0.260000          0.328170E-03
      0.265000          0.313716E-03
      0.270000          0.300029E-03
      0.275000          0.287034E-03
      0.280000          0.274723E-03
      0.285000          0.263109E-03
      0.290000          0.252186E-03
      0.295000          0.241909E-03
      0.300000          0.232187E-03
      0.305000          0.222887E-03
      0.310000          0.213864E-03
      0.315000          0.205005E-03
      0.320000          0.196277E-03
      0.325000          0.187752E-03
      0.330000          0.179595E-03
      0.335000          0.172004E-03
      0.340000          0.165130E-03
      0.345000          0.159014E-03
      0.350000          0.153562E-03
      0.355000          0.148590E-03
      0.360000          0.143904E-03
      0.365000          0.139386E-03
      0.370000          0.135040E-03
      0.375000          0.130970E-03
      0.380000          0.127310E-03
      0.385000          0.124137E-03
      0.390000          0.121420E-03
      0.395000          0.119022E-03
      0.400000          0.116755E-03
      0.405000          0.114463E-03
      0.410000          0.112077E-03
      0.415000          0.109631E-03
      0.420000          0.107229E-03
      0.425000          0.104987E-03
      0.430000          0.102981E-03
      0.435000          0.101224E-03
      0.440000          0.996748E-04
      0.445000          0.982730E-04
      0.450000          0.969735E-04
      0.455000          0.957668E-04
      0.460000          0.946745E-04
      0.465000          0.937255E-04
      0.470000          0.929259E-04
      0.475000          0.922391E-04
      0.480000          0.915874E-04
      0.485000          0.908748E-04
      0.490000          0.900217E-04
      0.495000          0.889929E-04
      0.500000          0.878064E-04
