 I_abs(s)[cm^-1]/c[mg/ml]
       0.00000          0.122791E-01
      0.500000E-02      0.120719E-01
      0.100000E-01      0.114816E-01
      0.150000E-01      0.105953E-01
      0.200000E-01      0.953437E-02
      0.250000E-01      0.842777E-02
      0.300000E-01      0.738540E-02
      0.350000E-01      0.647996E-02
      0.400000E-01      0.574065E-02
      0.450000E-01      0.515861E-02
      0.500000E-01      0.470058E-02
      0.550000E-01      0.432503E-02
      0.600000E-01      0.399575E-02
      0.650000E-01      0.368953E-02
      0.700000E-01      0.339716E-02
      0.750000E-01      0.311965E-02
      0.800000E-01      0.286244E-02
      0.850000E-01      0.263028E-02
      0.900000E-01      0.242455E-02
      0.950000E-01      0.224312E-02
      0.100000          0.208192E-02
      0.105000          0.193686E-02
      0.110000          0.180505E-02
      0.115000          0.168502E-02
      0.120000          0.157609E-02
      0.125000          0.147759E-02
      0.130000          0.138836E-02
      0.135000          0.130678E-02
      0.140000          0.123118E-02
      0.145000          0.116032E-02
      0.150000          0.109361E-02
      0.155000          0.103103E-02
      0.160000          0.972751E-03
      0.165000          0.918805E-03
      0.170000          0.868922E-03
      0.175000          0.822592E-03
      0.180000          0.779263E-03
      0.185000          0.738537E-03
      0.190000          0.700215E-03
      0.195000          0.664207E-03
      0.200000          0.630375E-03
      0.205000          0.598440E-03
      0.210000          0.568015E-03
      0.215000          0.538756E-03
      0.220000          0.510525E-03
      0.225000          0.483472E-03
      0.230000          0.457958E-03
      0.235000          0.434365E-03
      0.240000          0.412884E-03
      0.245000          0.393392E-03
      0.250000          0.375483E-03
      0.255000          0.358629E-03
      0.260000          0.342391E-03
      0.265000          0.326563E-03
      0.270000          0.311203E-03
      0.275000          0.296528E-03
      0.280000          0.282764E-03
      0.285000          0.270019E-03
      0.290000          0.258248E-03
      0.295000          0.247310E-03
      0.300000          0.237069E-03
      0.305000          0.227477E-03
      0.310000          0.218583E-03
      0.315000          0.210471E-03
      0.320000          0.203163E-03
      0.325000          0.196544E-03
      0.330000          0.190353E-03
      0.335000          0.184252E-03
      0.340000          0.177937E-03
      0.345000          0.171248E-03
      0.350000          0.164221E-03
      0.355000          0.157072E-03
      0.360000          0.150123E-03
      0.365000          0.143694E-03
      0.370000          0.138024E-03
      0.375000          0.133217E-03
      0.380000          0.129248E-03
      0.385000          0.125995E-03
      0.390000          0.123296E-03
      0.395000          0.120980E-03
      0.400000          0.118900E-03
      0.405000          0.116941E-03
      0.410000          0.115019E-03
      0.415000          0.113090E-03
      0.420000          0.111148E-03
      0.425000          0.109229E-03
      0.430000          0.107401E-03
      0.435000          0.105748E-03
      0.440000          0.104338E-03
      0.445000          0.103201E-03
      0.450000          0.102321E-03
      0.455000          0.101639E-03
      0.460000          0.101074E-03
      0.465000          0.100548E-03
      0.470000          0.999992E-04
      0.475000          0.993783E-04
      0.480000          0.986404E-04
      0.485000          0.977353E-04
      0.490000          0.966078E-04
      0.495000          0.952119E-04
      0.500000          0.935299E-04
