 I_abs(s)[cm^-1]/c[mg/ml]
       0.00000          0.114540E-01
      0.500000E-02      0.111870E-01
      0.100000E-01      0.104347E-01
      0.150000E-01      0.933047E-02
      0.200000E-01      0.805551E-02
      0.250000E-01      0.679324E-02
      0.300000E-01      0.568752E-02
      0.350000E-01      0.481791E-02
      0.400000E-01      0.419674E-02
      0.450000E-01      0.378487E-02
      0.500000E-01      0.351747E-02
      0.550000E-01      0.332931E-02
      0.600000E-01      0.317157E-02
      0.650000E-01      0.301736E-02
      0.700000E-01      0.285796E-02
      0.750000E-01      0.269466E-02
      0.800000E-01      0.253126E-02
      0.850000E-01      0.237018E-02
      0.900000E-01      0.221229E-02
      0.950000E-01      0.205865E-02
      0.100000          0.191201E-02
      0.105000          0.177663E-02
      0.110000          0.165667E-02
      0.115000          0.155414E-02
      0.120000          0.146779E-02
      0.125000          0.139354E-02
      0.130000          0.132609E-02
      0.135000          0.126089E-02
      0.140000          0.119539E-02
      0.145000          0.112930E-02
      0.150000          0.106382E-02
      0.155000          0.100067E-02
      0.160000          0.941208E-03
      0.165000          0.886206E-03
      0.170000          0.835877E-03
      0.175000          0.790108E-03
      0.180000          0.748537E-03
      0.185000          0.710524E-03
      0.190000          0.675117E-03
      0.195000          0.641201E-03
      0.200000          0.607833E-03
      0.205000          0.574608E-03
      0.210000          0.541832E-03
      0.215000          0.510368E-03
      0.220000          0.481195E-03
      0.225000          0.454912E-03
      0.230000          0.431433E-03
      0.235000          0.410040E-03
      0.240000          0.389728E-03
      0.245000          0.369654E-03
      0.250000          0.349442E-03
      0.255000          0.329230E-03
      0.260000          0.309478E-03
      0.265000          0.290684E-03
      0.270000          0.273195E-03
      0.275000          0.257161E-03
      0.280000          0.242631E-03
      0.285000          0.229651E-03
      0.290000          0.218295E-03
      0.295000          0.208583E-03
      0.300000          0.200380E-03
      0.305000          0.193334E-03
      0.310000          0.186938E-03
      0.315000          0.180685E-03
      0.320000          0.174228E-03
      0.325000          0.167475E-03
      0.330000          0.160562E-03
      0.335000          0.153742E-03
      0.340000          0.147252E-03
      0.345000          0.141235E-03
      0.350000          0.135731E-03
      0.355000          0.130714E-03
      0.360000          0.126140E-03
      0.365000          0.121954E-03
      0.370000          0.118086E-03
      0.375000          0.114441E-03
      0.380000          0.110922E-03
      0.385000          0.107474E-03
      0.390000          0.104128E-03
      0.395000          0.100994E-03
      0.400000          0.982116E-04
      0.405000          0.958568E-04
      0.410000          0.938816E-04
      0.415000          0.921105E-04
      0.420000          0.903091E-04
      0.425000          0.882886E-04
      0.430000          0.859870E-04
      0.435000          0.834844E-04
      0.440000          0.809463E-04
      0.445000          0.785291E-04
      0.450000          0.763051E-04
      0.455000          0.742453E-04
      0.460000          0.722658E-04
      0.465000          0.703029E-04
      0.470000          0.683693E-04
      0.475000          0.665565E-04
      0.480000          0.649818E-04
      0.485000          0.637129E-04
      0.490000          0.627144E-04
      0.495000          0.618485E-04
      0.500000          0.609300E-04
