 I_abs(s)[cm^-1]/c[mg/ml]
       0.00000          0.116949E-01
      0.500000E-02      0.114291E-01
      0.100000E-01      0.106806E-01
      0.150000E-01      0.958324E-02
      0.200000E-01      0.831793E-02
      0.250000E-01      0.706570E-02
      0.300000E-01      0.596578E-02
      0.350000E-01      0.509161E-02
      0.400000E-01      0.444959E-02
      0.450000E-01      0.399683E-02
      0.500000E-01      0.366849E-02
      0.550000E-01      0.340342E-02
      0.600000E-01      0.316031E-02
      0.650000E-01      0.292155E-02
      0.700000E-01      0.268749E-02
      0.750000E-01      0.246659E-02
      0.800000E-01      0.226678E-02
      0.850000E-01      0.209118E-02
      0.900000E-01      0.193809E-02
      0.950000E-01      0.180360E-02
      0.100000          0.168408E-02
      0.105000          0.157736E-02
      0.110000          0.148237E-02
      0.115000          0.139807E-02
      0.120000          0.132276E-02
      0.125000          0.125418E-02
      0.130000          0.119029E-02
      0.135000          0.112990E-02
      0.140000          0.107286E-02
      0.145000          0.101962E-02
      0.150000          0.970506E-03
      0.155000          0.925217E-03
      0.160000          0.882899E-03
      0.165000          0.842589E-03
      0.170000          0.803763E-03
      0.175000          0.766575E-03
      0.180000          0.731647E-03
      0.185000          0.699554E-03
      0.190000          0.670338E-03
      0.195000          0.643334E-03
      0.200000          0.617392E-03
      0.205000          0.591349E-03
      0.210000          0.564477E-03
      0.215000          0.536700E-03
      0.220000          0.508499E-03
      0.225000          0.480632E-03
      0.230000          0.453828E-03
      0.235000          0.428607E-03
      0.240000          0.405241E-03
      0.245000          0.383815E-03
      0.250000          0.364298E-03
      0.255000          0.346568E-03
      0.260000          0.330417E-03
      0.265000          0.315565E-03
      0.270000          0.301718E-03
      0.275000          0.288645E-03
      0.280000          0.276241E-03
      0.285000          0.264523E-03
      0.290000          0.253566E-03
      0.295000          0.243410E-03
      0.300000          0.234003E-03
      0.305000          0.225201E-03
      0.310000          0.216836E-03
      0.315000          0.208789E-03
      0.320000          0.201030E-03
      0.325000          0.193602E-03
      0.330000          0.186551E-03
      0.335000          0.179872E-03
      0.340000          0.173475E-03
      0.345000          0.167218E-03
      0.350000          0.160965E-03
      0.355000          0.154644E-03
      0.360000          0.148276E-03
      0.365000          0.141967E-03
      0.370000          0.135863E-03
      0.375000          0.130103E-03
      0.380000          0.124780E-03
      0.385000          0.119921E-03
      0.390000          0.115488E-03
      0.395000          0.111394E-03
      0.400000          0.107533E-03
      0.405000          0.103813E-03
      0.410000          0.100180E-03
      0.415000          0.966377E-04
      0.420000          0.932394E-04
      0.425000          0.900600E-04
      0.430000          0.871613E-04
      0.435000          0.845611E-04
      0.440000          0.822214E-04
      0.445000          0.800615E-04
      0.450000          0.779874E-04
      0.455000          0.759247E-04
      0.460000          0.738398E-04
      0.465000          0.717421E-04
      0.470000          0.696694E-04
      0.475000          0.676665E-04
      0.480000          0.657688E-04
      0.485000          0.639969E-04
      0.490000          0.623624E-04
      0.495000          0.608765E-04
      0.500000          0.595549E-04
