 I_abs(s)[cm^-1]/c[mg/ml]
       0.00000          0.118092E-01
      0.500000E-02      0.115540E-01
      0.100000E-01      0.108369E-01
      0.150000E-01      0.978929E-02
      0.200000E-01      0.858697E-02
      0.250000E-01      0.740236E-02
      0.300000E-01      0.636330E-02
      0.350000E-01      0.553134E-02
      0.400000E-01      0.490387E-02
      0.450000E-01      0.443504E-02
      0.500000E-01      0.406450E-02
      0.550000E-01      0.374204E-02
      0.600000E-01      0.344050E-02
      0.650000E-01      0.315527E-02
      0.700000E-01      0.289477E-02
      0.750000E-01      0.266873E-02
      0.800000E-01      0.248012E-02
      0.850000E-01      0.232333E-02
      0.900000E-01      0.218759E-02
      0.950000E-01      0.206223E-02
      0.100000          0.194067E-02
      0.105000          0.182148E-02
      0.110000          0.170663E-02
      0.115000          0.159889E-02
      0.120000          0.149986E-02
      0.125000          0.140950E-02
      0.130000          0.132686E-02
      0.135000          0.125116E-02
      0.140000          0.118224E-02
      0.145000          0.112023E-02
      0.150000          0.106490E-02
      0.155000          0.101508E-02
      0.160000          0.968846E-03
      0.165000          0.924214E-03
      0.170000          0.879924E-03
      0.175000          0.835870E-03
      0.180000          0.792887E-03
      0.185000          0.752072E-03
      0.190000          0.714074E-03
      0.195000          0.678747E-03
      0.200000          0.645310E-03
      0.205000          0.612857E-03
      0.210000          0.580868E-03
      0.215000          0.549430E-03
      0.220000          0.519091E-03
      0.225000          0.490473E-03
      0.230000          0.463920E-03
      0.235000          0.439371E-03
      0.240000          0.416481E-03
      0.245000          0.394889E-03
      0.250000          0.374425E-03
      0.255000          0.355155E-03
      0.260000          0.337254E-03
      0.265000          0.320819E-03
      0.270000          0.305750E-03
      0.275000          0.291765E-03
      0.280000          0.278535E-03
      0.285000          0.265826E-03
      0.290000          0.253584E-03
      0.295000          0.241892E-03
      0.300000          0.230860E-03
      0.305000          0.220512E-03
      0.310000          0.210743E-03
      0.315000          0.201368E-03
      0.320000          0.192239E-03
      0.325000          0.183342E-03
      0.330000          0.174831E-03
      0.335000          0.166968E-03
      0.340000          0.160000E-03
      0.345000          0.154035E-03
      0.350000          0.148978E-03
      0.355000          0.144557E-03
      0.360000          0.140424E-03
      0.365000          0.136286E-03
      0.370000          0.132000E-03
      0.375000          0.127586E-03
      0.380000          0.123178E-03
      0.385000          0.118928E-03
      0.390000          0.114929E-03
      0.395000          0.111198E-03
      0.400000          0.107708E-03
      0.405000          0.104443E-03
      0.410000          0.101434E-03
      0.415000          0.987559E-04
      0.420000          0.964807E-04
      0.425000          0.946265E-04
      0.430000          0.931334E-04
      0.435000          0.918780E-04
      0.440000          0.907133E-04
      0.445000          0.895096E-04
      0.450000          0.881757E-04
      0.455000          0.866605E-04
      0.460000          0.849461E-04
      0.465000          0.830465E-04
      0.470000          0.810118E-04
      0.475000          0.789280E-04
      0.480000          0.769015E-04
      0.485000          0.750263E-04
      0.490000          0.733488E-04
      0.495000          0.718481E-04
      0.500000          0.704447E-04
