 I_abs(s)[cm^-1]/c[mg/ml]
       0.00000          0.119744E-01
      0.500000E-02      0.117414E-01
      0.100000E-01      0.110797E-01
      0.150000E-01      0.100923E-01
      0.200000E-01      0.892267E-02
      0.250000E-01      0.772109E-02
      0.300000E-01      0.661348E-02
      0.350000E-01      0.567981E-02
      0.400000E-01      0.494767E-02
      0.450000E-01      0.440011E-02
      0.500000E-01      0.399300E-02
      0.550000E-01      0.367498E-02
      0.600000E-01      0.340344E-02
      0.650000E-01      0.315275E-02
      0.700000E-01      0.291428E-02
      0.750000E-01      0.269064E-02
      0.800000E-01      0.248818E-02
      0.850000E-01      0.231090E-02
      0.900000E-01      0.215795E-02
      0.950000E-01      0.202435E-02
      0.100000          0.190373E-02
      0.105000          0.179101E-02
      0.110000          0.168381E-02
      0.115000          0.158222E-02
      0.120000          0.148743E-02
      0.125000          0.140034E-02
      0.130000          0.132068E-02
      0.135000          0.124720E-02
      0.140000          0.117835E-02
      0.145000          0.111306E-02
      0.150000          0.105110E-02
      0.155000          0.992870E-03
      0.160000          0.938844E-03
      0.165000          0.889052E-03
      0.170000          0.842938E-03
      0.175000          0.799618E-03
      0.180000          0.758356E-03
      0.185000          0.718940E-03
      0.190000          0.681732E-03
      0.195000          0.647360E-03
      0.200000          0.616252E-03
      0.205000          0.588269E-03
      0.210000          0.562654E-03
      0.215000          0.538323E-03
      0.220000          0.514316E-03
      0.225000          0.490188E-03
      0.230000          0.466118E-03
      0.235000          0.442719E-03
      0.240000          0.420656E-03
      0.245000          0.400284E-03
      0.250000          0.381497E-03
      0.255000          0.363831E-03
      0.260000          0.346754E-03
      0.265000          0.329955E-03
      0.270000          0.313501E-03
      0.275000          0.297780E-03
      0.280000          0.283284E-03
      0.285000          0.270365E-03
      0.290000          0.259084E-03
      0.295000          0.249217E-03
      0.300000          0.240396E-03
      0.305000          0.232278E-03
      0.310000          0.224675E-03
      0.315000          0.217548E-03
      0.320000          0.210934E-03
      0.325000          0.204827E-03
      0.330000          0.199114E-03
      0.335000          0.193600E-03
      0.340000          0.188085E-03
      0.345000          0.182467E-03
      0.350000          0.176792E-03
      0.355000          0.171218E-03
      0.360000          0.165932E-03
      0.365000          0.161042E-03
      0.370000          0.156521E-03
      0.375000          0.152221E-03
      0.380000          0.147954E-03
      0.385000          0.143593E-03
      0.390000          0.139136E-03
      0.395000          0.134708E-03
      0.400000          0.130501E-03
      0.405000          0.126673E-03
      0.410000          0.123278E-03
      0.415000          0.120245E-03
      0.420000          0.117418E-03
      0.425000          0.114641E-03
      0.430000          0.111830E-03
      0.435000          0.109010E-03
      0.440000          0.106291E-03
      0.445000          0.103813E-03
      0.450000          0.101665E-03
      0.455000          0.998547E-04
      0.460000          0.983005E-04
      0.465000          0.968742E-04
      0.470000          0.954508E-04
      0.475000          0.939477E-04
      0.480000          0.923359E-04
      0.485000          0.906259E-04
      0.490000          0.888422E-04
      0.495000          0.870029E-04
      0.500000          0.851141E-04
