 I_abs(s)[cm^-1]/c[mg/ml]
       0.00000          0.124696E-01
      0.500000E-02      0.122509E-01
      0.100000E-01      0.116276E-01
      0.150000E-01      0.106907E-01
      0.200000E-01      0.956799E-02
      0.250000E-01      0.839601E-02
      0.300000E-01      0.729243E-02
      0.350000E-01      0.633655E-02
      0.400000E-01      0.556172E-02
      0.450000E-01      0.496023E-02
      0.500000E-01      0.449697E-02
      0.550000E-01      0.412663E-02
      0.600000E-01      0.380865E-02
      0.650000E-01      0.351634E-02
      0.700000E-01      0.323877E-02
      0.750000E-01      0.297709E-02
      0.800000E-01      0.273790E-02
      0.850000E-01      0.252703E-02
      0.900000E-01      0.234578E-02
      0.950000E-01      0.219038E-02
      0.100000          0.205386E-02
      0.105000          0.192895E-02
      0.110000          0.181049E-02
      0.115000          0.169649E-02
      0.120000          0.158765E-02
      0.125000          0.148602E-02
      0.130000          0.139352E-02
      0.135000          0.131092E-02
      0.140000          0.123758E-02
      0.145000          0.117185E-02
      0.150000          0.111168E-02
      0.155000          0.105531E-02
      0.160000          0.100151E-02
      0.165000          0.949663E-03
      0.170000          0.899578E-03
      0.175000          0.851310E-03
      0.180000          0.805007E-03
      0.185000          0.760830E-03
      0.190000          0.718917E-03
      0.195000          0.679368E-03
      0.200000          0.642216E-03
      0.205000          0.607441E-03
      0.210000          0.575001E-03
      0.215000          0.544895E-03
      0.220000          0.517204E-03
      0.225000          0.492065E-03
      0.230000          0.469582E-03
      0.235000          0.449676E-03
      0.240000          0.431972E-03
      0.245000          0.415794E-03
      0.250000          0.400284E-03
      0.255000          0.384639E-03
      0.260000          0.368354E-03
      0.265000          0.351375E-03
      0.270000          0.334086E-03
      0.275000          0.317128E-03
      0.280000          0.301133E-03
      0.285000          0.286483E-03
      0.290000          0.273193E-03
      0.295000          0.260962E-03
      0.300000          0.249360E-03
      0.305000          0.238032E-03
      0.310000          0.226860E-03
      0.315000          0.215977E-03
      0.320000          0.205677E-03
      0.325000          0.196254E-03
      0.330000          0.187865E-03
      0.335000          0.180473E-03
      0.340000          0.173892E-03
      0.345000          0.167890E-03
      0.350000          0.162296E-03
      0.355000          0.157056E-03
      0.360000          0.152220E-03
      0.365000          0.147869E-03
      0.370000          0.144045E-03
      0.375000          0.140696E-03
      0.380000          0.137681E-03
      0.385000          0.134820E-03
      0.390000          0.131956E-03
      0.395000          0.129005E-03
      0.400000          0.125966E-03
      0.405000          0.122903E-03
      0.410000          0.119903E-03
      0.415000          0.117038E-03
      0.420000          0.114336E-03
      0.425000          0.111784E-03
      0.430000          0.109340E-03
      0.435000          0.106955E-03
      0.440000          0.104592E-03
      0.445000          0.102243E-03
      0.450000          0.999247E-04
      0.455000          0.976774E-04
      0.460000          0.955443E-04
      0.465000          0.935541E-04
      0.470000          0.917042E-04
      0.475000          0.899539E-04
      0.480000          0.882319E-04
      0.485000          0.864577E-04
      0.490000          0.845706E-04
      0.495000          0.825542E-04
      0.500000          0.804479E-04
