 I_abs(s)[cm^-1]/c[mg/ml]
       0.00000          0.120683E-01
      0.500000E-02      0.118438E-01
      0.100000E-01      0.112066E-01
      0.150000E-01      0.102566E-01
      0.200000E-01      0.913261E-02
      0.250000E-01      0.798049E-02
      0.300000E-01      0.692187E-02
      0.350000E-01      0.603319E-02
      0.400000E-01      0.533906E-02
      0.450000E-01      0.481989E-02
      0.500000E-01      0.442913E-02
      0.550000E-01      0.411358E-02
      0.600000E-01      0.382995E-02
      0.650000E-01      0.355366E-02
      0.700000E-01      0.327915E-02
      0.750000E-01      0.301370E-02
      0.800000E-01      0.276889E-02
      0.850000E-01      0.255336E-02
      0.900000E-01      0.236914E-02
      0.950000E-01      0.221198E-02
      0.100000          0.207438E-02
      0.105000          0.194911E-02
      0.110000          0.183167E-02
      0.115000          0.172079E-02
      0.120000          0.161729E-02
      0.125000          0.152223E-02
      0.130000          0.143552E-02
      0.135000          0.135553E-02
      0.140000          0.127972E-02
      0.145000          0.120588E-02
      0.150000          0.113303E-02
      0.155000          0.106181E-02
      0.160000          0.994018E-03
      0.165000          0.931683E-03
      0.170000          0.876162E-03
      0.175000          0.827610E-03
      0.180000          0.785011E-03
      0.185000          0.746659E-03
      0.190000          0.710787E-03
      0.195000          0.676081E-03
      0.200000          0.641883E-03
      0.205000          0.608110E-03
      0.210000          0.574998E-03
      0.215000          0.542846E-03
      0.220000          0.511872E-03
      0.225000          0.482199E-03
      0.230000          0.453909E-03
      0.235000          0.427116E-03
      0.240000          0.401975E-03
      0.245000          0.378652E-03
      0.250000          0.357264E-03
      0.255000          0.337851E-03
      0.260000          0.320368E-03
      0.265000          0.304718E-03
      0.270000          0.290774E-03
      0.275000          0.278386E-03
      0.280000          0.267359E-03
      0.285000          0.257432E-03
      0.290000          0.248287E-03
      0.295000          0.239585E-03
      0.300000          0.231035E-03
      0.305000          0.222460E-03
      0.310000          0.213829E-03
      0.315000          0.205236E-03
      0.320000          0.196843E-03
      0.325000          0.188805E-03
      0.330000          0.181218E-03
      0.335000          0.174114E-03
      0.340000          0.167499E-03
      0.345000          0.161406E-03
      0.350000          0.155937E-03
      0.355000          0.151247E-03
      0.360000          0.147484E-03
      0.365000          0.144701E-03
      0.370000          0.142783E-03
      0.375000          0.141431E-03
      0.380000          0.140225E-03
      0.385000          0.138745E-03
      0.390000          0.136704E-03
      0.395000          0.134036E-03
      0.400000          0.130911E-03
      0.405000          0.127645E-03
      0.410000          0.124574E-03
      0.415000          0.121924E-03
      0.420000          0.119745E-03
      0.425000          0.117924E-03
      0.430000          0.116263E-03
      0.435000          0.114586E-03
      0.440000          0.112806E-03
      0.445000          0.110941E-03
      0.450000          0.109081E-03
      0.455000          0.107315E-03
      0.460000          0.105688E-03
      0.465000          0.104176E-03
      0.470000          0.102712E-03
      0.475000          0.101212E-03
      0.480000          0.996160E-04
      0.485000          0.978933E-04
      0.490000          0.960401E-04
      0.495000          0.940677E-04
      0.500000          0.919962E-04
