 I_abs(s)[cm^-1]/c[mg/ml]
       0.00000          0.119456E-01
      0.500000E-02      0.116716E-01
      0.100000E-01      0.109042E-01
      0.150000E-01      0.979040E-02
      0.200000E-01      0.852526E-02
      0.250000E-01      0.729648E-02
      0.300000E-01      0.623849E-02
      0.350000E-01      0.541002E-02
      0.400000E-01      0.479928E-02
      0.450000E-01      0.434978E-02
      0.500000E-01      0.399331E-02
      0.550000E-01      0.367643E-02
      0.600000E-01      0.337260E-02
      0.650000E-01      0.307951E-02
      0.700000E-01      0.280770E-02
      0.750000E-01      0.256807E-02
      0.800000E-01      0.236436E-02
      0.850000E-01      0.219233E-02
      0.900000E-01      0.204359E-02
      0.950000E-01      0.191034E-02
      0.100000          0.178824E-02
      0.105000          0.167628E-02
      0.110000          0.157485E-02
      0.115000          0.148370E-02
      0.120000          0.140117E-02
      0.125000          0.132479E-02
      0.130000          0.125250E-02
      0.135000          0.118358E-02
      0.140000          0.111851E-02
      0.145000          0.105825E-02
      0.150000          0.100328E-02
      0.155000          0.953157E-03
      0.160000          0.906706E-03
      0.165000          0.862620E-03
      0.170000          0.820051E-03
      0.175000          0.778834E-03
      0.180000          0.739305E-03
      0.185000          0.701897E-03
      0.190000          0.666798E-03
      0.195000          0.633829E-03
      0.200000          0.602566E-03
      0.205000          0.572572E-03
      0.210000          0.543588E-03
      0.215000          0.515606E-03
      0.220000          0.488814E-03
      0.225000          0.463471E-03
      0.230000          0.439778E-03
      0.235000          0.417783E-03
      0.240000          0.397358E-03
      0.245000          0.378228E-03
      0.250000          0.360050E-03
      0.255000          0.342502E-03
      0.260000          0.325346E-03
      0.265000          0.308460E-03
      0.270000          0.291818E-03
      0.275000          0.275467E-03
      0.280000          0.259517E-03
      0.285000          0.244148E-03
      0.290000          0.229622E-03
      0.295000          0.216243E-03
      0.300000          0.204287E-03
      0.305000          0.193886E-03
      0.310000          0.184961E-03
      0.315000          0.177235E-03
      0.320000          0.170329E-03
      0.325000          0.163917E-03
      0.330000          0.157833E-03
      0.335000          0.152087E-03
      0.340000          0.146790E-03
      0.345000          0.142023E-03
      0.350000          0.137752E-03
      0.355000          0.133817E-03
      0.360000          0.130015E-03
      0.365000          0.126194E-03
      0.370000          0.122317E-03
      0.375000          0.118450E-03
      0.380000          0.114693E-03
      0.385000          0.111114E-03
      0.390000          0.107722E-03
      0.395000          0.104501E-03
      0.400000          0.101469E-03
      0.405000          0.986991E-04
      0.410000          0.962929E-04
      0.415000          0.943006E-04
      0.420000          0.926558E-04
      0.425000          0.911659E-04
      0.430000          0.895764E-04
      0.435000          0.876772E-04
      0.440000          0.853934E-04
      0.445000          0.828130E-04
      0.450000          0.801438E-04
      0.455000          0.776261E-04
      0.460000          0.754457E-04
      0.465000          0.736835E-04
      0.470000          0.723109E-04
      0.475000          0.712225E-04
      0.480000          0.702855E-04
      0.485000          0.693866E-04
      0.490000          0.684638E-04
      0.495000          0.675164E-04
      0.500000          0.665936E-04
