 I_abs(s)[cm^-1]/c[mg/ml]
       0.00000          0.122864E-01
      0.500000E-02      0.120599E-01
      0.100000E-01      0.114143E-01
      0.150000E-01      0.104431E-01
      0.200000E-01      0.927850E-02
      0.250000E-01      0.806327E-02
      0.300000E-01      0.692252E-02
      0.350000E-01      0.594312E-02
      0.400000E-01      0.516481E-02
      0.450000E-01      0.458347E-02
      0.500000E-01      0.416378E-02
      0.550000E-01      0.385606E-02
      0.600000E-01      0.361193E-02
      0.650000E-01      0.339499E-02
      0.700000E-01      0.318481E-02
      0.750000E-01      0.297516E-02
      0.800000E-01      0.276880E-02
      0.850000E-01      0.257172E-02
      0.900000E-01      0.238875E-02
      0.950000E-01      0.222169E-02
      0.100000          0.206956E-02
      0.105000          0.192997E-02
      0.110000          0.180067E-02
      0.115000          0.168029E-02
      0.120000          0.156847E-02
      0.125000          0.146533E-02
      0.130000          0.137094E-02
      0.135000          0.128499E-02
      0.140000          0.120686E-02
      0.145000          0.113580E-02
      0.150000          0.107114E-02
      0.155000          0.101231E-02
      0.160000          0.958732E-03
      0.165000          0.909639E-03
      0.170000          0.864046E-03
      0.175000          0.820881E-03
      0.180000          0.779262E-03
      0.185000          0.738735E-03
      0.190000          0.699370E-03
      0.195000          0.661634E-03
      0.200000          0.626098E-03
      0.205000          0.593132E-03
      0.210000          0.562713E-03
      0.215000          0.534450E-03
      0.220000          0.507770E-03
      0.225000          0.482179E-03
      0.230000          0.457457E-03
      0.235000          0.433690E-03
      0.240000          0.411157E-03
      0.245000          0.390134E-03
      0.250000          0.370722E-03
      0.255000          0.352788E-03
      0.260000          0.336023E-03
      0.265000          0.320087E-03
      0.270000          0.304741E-03
      0.275000          0.289929E-03
      0.280000          0.275747E-03
      0.285000          0.262372E-03
      0.290000          0.249950E-03
      0.295000          0.238543E-03
      0.300000          0.228119E-03
      0.305000          0.218586E-03
      0.310000          0.209841E-03
      0.315000          0.201799E-03
      0.320000          0.194392E-03
      0.325000          0.187550E-03
      0.330000          0.181197E-03
      0.335000          0.175250E-03
      0.340000          0.169652E-03
      0.345000          0.164392E-03
      0.350000          0.159512E-03
      0.355000          0.155084E-03
      0.360000          0.151166E-03
      0.365000          0.147759E-03
      0.370000          0.144794E-03
      0.375000          0.142146E-03
      0.380000          0.139679E-03
      0.385000          0.137290E-03
      0.390000          0.134934E-03
      0.395000          0.132616E-03
      0.400000          0.130361E-03
      0.405000          0.128180E-03
      0.410000          0.126047E-03
      0.415000          0.123914E-03
      0.420000          0.121728E-03
      0.425000          0.119469E-03
      0.430000          0.117163E-03
      0.435000          0.114876E-03
      0.440000          0.112690E-03
      0.445000          0.110673E-03
      0.450000          0.108852E-03
      0.455000          0.107212E-03
      0.460000          0.105699E-03
      0.465000          0.104245E-03
      0.470000          0.102781E-03
      0.475000          0.101248E-03
      0.480000          0.995966E-04
      0.485000          0.977862E-04
      0.490000          0.957826E-04
      0.495000          0.935631E-04
      0.500000          0.911263E-04
