 I_abs(s)[cm^-1]/c[mg/ml]
       0.00000          0.117092E-01
      0.500000E-02      0.114251E-01
      0.100000E-01      0.106304E-01
      0.150000E-01      0.947979E-02
      0.200000E-01      0.817874E-02
      0.250000E-01      0.692590E-02
      0.300000E-01      0.586434E-02
      0.350000E-01      0.505727E-02
      0.400000E-01      0.449238E-02
      0.450000E-01      0.410809E-02
      0.500000E-01      0.382790E-02
      0.550000E-01      0.358882E-02
      0.600000E-01      0.335550E-02
      0.650000E-01      0.311922E-02
      0.700000E-01      0.288733E-02
      0.750000E-01      0.267088E-02
      0.800000E-01      0.247627E-02
      0.850000E-01      0.230334E-02
      0.900000E-01      0.214786E-02
      0.950000E-01      0.200546E-02
      0.100000          0.187402E-02
      0.105000          0.175366E-02
      0.110000          0.164519E-02
      0.115000          0.154850E-02
      0.120000          0.146201E-02
      0.125000          0.138322E-02
      0.130000          0.130985E-02
      0.135000          0.124062E-02
      0.140000          0.117527E-02
      0.145000          0.111404E-02
      0.150000          0.105707E-02
      0.155000          0.100410E-02
      0.160000          0.954582E-03
      0.165000          0.908002E-03
      0.170000          0.864072E-03
      0.175000          0.822732E-03
      0.180000          0.783937E-03
      0.185000          0.747468E-03
      0.190000          0.712886E-03
      0.195000          0.679658E-03
      0.200000          0.647345E-03
      0.205000          0.615741E-03
      0.210000          0.584881E-03
      0.215000          0.554976E-03
      0.220000          0.526313E-03
      0.225000          0.499181E-03
      0.230000          0.473820E-03
      0.235000          0.450355E-03
      0.240000          0.428740E-03
      0.245000          0.408729E-03
      0.250000          0.389925E-03
      0.255000          0.371920E-03
      0.260000          0.354469E-03
      0.265000          0.337589E-03
      0.270000          0.321528E-03
      0.275000          0.306595E-03
      0.280000          0.292950E-03
      0.285000          0.280466E-03
      0.290000          0.268751E-03
      0.295000          0.257318E-03
      0.300000          0.245798E-03
      0.305000          0.234092E-03
      0.310000          0.222386E-03
      0.315000          0.211026E-03
      0.320000          0.200355E-03
      0.325000          0.190574E-03
      0.330000          0.181703E-03
      0.335000          0.173627E-03
      0.340000          0.166180E-03
      0.345000          0.159209E-03
      0.350000          0.152607E-03
      0.355000          0.146302E-03
      0.360000          0.140241E-03
      0.365000          0.134385E-03
      0.370000          0.128717E-03
      0.375000          0.123259E-03
      0.380000          0.118073E-03
      0.385000          0.113239E-03
      0.390000          0.108825E-03
      0.395000          0.104856E-03
      0.400000          0.101307E-03
      0.405000          0.981150E-04
      0.410000          0.952077E-04
      0.415000          0.925280E-04
      0.420000          0.900448E-04
      0.425000          0.877473E-04
      0.430000          0.856303E-04
      0.435000          0.836821E-04
      0.440000          0.818776E-04
      0.445000          0.801812E-04
      0.450000          0.785520E-04
      0.455000          0.769520E-04
      0.460000          0.753547E-04
      0.465000          0.737524E-04
      0.470000          0.721581E-04
      0.475000          0.706004E-04
      0.480000          0.691104E-04
      0.485000          0.677091E-04
      0.490000          0.664007E-04
      0.495000          0.651759E-04
      0.500000          0.640196E-04
