 I_abs(s)[cm^-1]/c[mg/ml]
       0.00000          0.124035E-01
      0.500000E-02      0.121371E-01
      0.100000E-01      0.113906E-01
      0.150000E-01      0.103066E-01
      0.200000E-01      0.907559E-02
      0.250000E-01      0.788398E-02
      0.300000E-01      0.686799E-02
      0.350000E-01      0.608900E-02
      0.400000E-01      0.553502E-02
      0.450000E-01      0.514380E-02
      0.500000E-01      0.483592E-02
      0.550000E-01      0.454477E-02
      0.600000E-01      0.423382E-02
      0.650000E-01      0.389821E-02
      0.700000E-01      0.355463E-02
      0.750000E-01      0.322638E-02
      0.800000E-01      0.293117E-02
      0.850000E-01      0.267540E-02
      0.900000E-01      0.245530E-02
      0.950000E-01      0.226201E-02
      0.100000          0.208687E-02
      0.105000          0.192450E-02
      0.110000          0.177309E-02
      0.115000          0.163283E-02
      0.120000          0.150421E-02
      0.125000          0.138720E-02
      0.130000          0.128141E-02
      0.135000          0.118661E-02
      0.140000          0.110290E-02
      0.145000          0.103025E-02
      0.150000          0.967763E-03
      0.155000          0.913322E-03
      0.160000          0.863908E-03
      0.165000          0.816602E-03
      0.170000          0.769663E-03
      0.175000          0.723078E-03
      0.180000          0.678225E-03
      0.185000          0.636874E-03
      0.190000          0.600068E-03
      0.195000          0.567511E-03
      0.200000          0.537749E-03
      0.205000          0.508983E-03
      0.210000          0.480006E-03
      0.215000          0.450745E-03
      0.220000          0.422158E-03
      0.225000          0.395603E-03
      0.230000          0.372081E-03
      0.235000          0.351759E-03
      0.240000          0.333983E-03
      0.245000          0.317709E-03
      0.250000          0.302038E-03
      0.255000          0.286597E-03
      0.260000          0.271570E-03
      0.265000          0.257465E-03
      0.270000          0.244765E-03
      0.275000          0.233691E-03
      0.280000          0.224138E-03
      0.285000          0.215785E-03
      0.290000          0.208263E-03
      0.295000          0.201282E-03
      0.300000          0.194670E-03
      0.305000          0.188355E-03
      0.310000          0.182318E-03
      0.315000          0.176571E-03
      0.320000          0.171147E-03
      0.325000          0.166093E-03
      0.330000          0.161442E-03
      0.335000          0.157179E-03
      0.340000          0.153223E-03
      0.345000          0.149441E-03
      0.350000          0.145710E-03
      0.355000          0.141982E-03
      0.360000          0.138319E-03
      0.365000          0.134868E-03
      0.370000          0.131778E-03
      0.375000          0.129110E-03
      0.380000          0.126776E-03
      0.385000          0.124564E-03
      0.390000          0.122219E-03
      0.395000          0.119563E-03
      0.400000          0.116575E-03
      0.405000          0.113389E-03
      0.410000          0.110223E-03
      0.415000          0.107261E-03
      0.420000          0.104562E-03
      0.425000          0.102044E-03
      0.430000          0.995427E-04
      0.435000          0.969178E-04
      0.440000          0.941398E-04
      0.445000          0.913152E-04
      0.450000          0.886357E-04
      0.455000          0.862812E-04
      0.460000          0.843313E-04
      0.465000          0.827277E-04
      0.470000          0.813045E-04
      0.475000          0.798653E-04
      0.480000          0.782647E-04
      0.485000          0.764600E-04
      0.490000          0.745129E-04
      0.495000          0.725528E-04
      0.500000          0.707218E-04
