 I_abs(s)[cm^-1]/c[mg/ml]
       0.00000          0.120756E-01
      0.500000E-02      0.118515E-01
      0.100000E-01      0.112156E-01
      0.150000E-01      0.102665E-01
      0.200000E-01      0.914168E-02
      0.250000E-01      0.798403E-02
      0.300000E-01      0.691229E-02
      0.350000E-01      0.600092E-02
      0.400000E-01      0.527487E-02
      0.450000E-01      0.471796E-02
      0.500000E-01      0.428983E-02
      0.550000E-01      0.394458E-02
      0.600000E-01      0.364504E-02
      0.650000E-01      0.336949E-02
      0.700000E-01      0.311084E-02
      0.750000E-01      0.287120E-02
      0.800000E-01      0.265514E-02
      0.850000E-01      0.246494E-02
      0.900000E-01      0.229881E-02
      0.950000E-01      0.215195E-02
      0.100000          0.201881E-02
      0.105000          0.189511E-02
      0.110000          0.177869E-02
      0.115000          0.166922E-02
      0.120000          0.156711E-02
      0.125000          0.147267E-02
      0.130000          0.138565E-02
      0.135000          0.130540E-02
      0.140000          0.123120E-02
      0.145000          0.116260E-02
      0.150000          0.109934E-02
      0.155000          0.104113E-02
      0.160000          0.987429E-03
      0.165000          0.937347E-03
      0.170000          0.889866E-03
      0.175000          0.844143E-03
      0.180000          0.799779E-03
      0.185000          0.756859E-03
      0.190000          0.715787E-03
      0.195000          0.676985E-03
      0.200000          0.640647E-03
      0.205000          0.606657E-03
      0.210000          0.574687E-03
      0.215000          0.544394E-03
      0.220000          0.515587E-03
      0.225000          0.488278E-03
      0.230000          0.462604E-03
      0.235000          0.438683E-03
      0.240000          0.416492E-03
      0.245000          0.395834E-03
      0.250000          0.376402E-03
      0.255000          0.357898E-03
      0.260000          0.340147E-03
      0.265000          0.323145E-03
      0.270000          0.307039E-03
      0.275000          0.292049E-03
      0.280000          0.278367E-03
      0.285000          0.266088E-03
      0.290000          0.255162E-03
      0.295000          0.245406E-03
      0.300000          0.236540E-03
      0.305000          0.228250E-03
      0.310000          0.220258E-03
      0.315000          0.212375E-03
      0.320000          0.204539E-03
      0.325000          0.196801E-03
      0.330000          0.189293E-03
      0.335000          0.182165E-03
      0.340000          0.175523E-03
      0.345000          0.169397E-03
      0.350000          0.163734E-03
      0.355000          0.158434E-03
      0.360000          0.153397E-03
      0.365000          0.148569E-03
      0.370000          0.143956E-03
      0.375000          0.139610E-03
      0.380000          0.135599E-03
      0.385000          0.131966E-03
      0.390000          0.128703E-03
      0.395000          0.125754E-03
      0.400000          0.123033E-03
      0.405000          0.120457E-03
      0.410000          0.117969E-03
      0.415000          0.115549E-03
      0.420000          0.113205E-03
      0.425000          0.110962E-03
      0.430000          0.108851E-03
      0.435000          0.106890E-03
      0.440000          0.105089E-03
      0.445000          0.103443E-03
      0.450000          0.101936E-03
      0.455000          0.100541E-03
      0.460000          0.992354E-04
      0.465000          0.979984E-04
      0.470000          0.968188E-04
      0.475000          0.956854E-04
      0.480000          0.945750E-04
      0.485000          0.934402E-04
      0.490000          0.922111E-04
      0.495000          0.908129E-04
      0.500000          0.891957E-04
