 I_abs(s)[cm^-1]/c[mg/ml]
       0.00000          0.117449E-01
      0.500000E-02      0.114676E-01
      0.100000E-01      0.106901E-01
      0.150000E-01      0.955950E-02
      0.200000E-01      0.827178E-02
      0.250000E-01      0.701794E-02
      0.300000E-01      0.593767E-02
      0.350000E-01      0.509556E-02
      0.400000E-01      0.448426E-02
      0.450000E-01      0.404869E-02
      0.500000E-01      0.371859E-02
      0.550000E-01      0.343612E-02
      0.600000E-01      0.316993E-02
      0.650000E-01      0.291430E-02
      0.700000E-01      0.267849E-02
      0.750000E-01      0.247374E-02
      0.800000E-01      0.230445E-02
      0.850000E-01      0.216601E-02
      0.900000E-01      0.204825E-02
      0.950000E-01      0.194076E-02
      0.100000          0.183694E-02
      0.105000          0.173491E-02
      0.110000          0.163593E-02
      0.115000          0.154183E-02
      0.120000          0.145323E-02
      0.125000          0.136919E-02
      0.130000          0.128818E-02
      0.135000          0.120920E-02
      0.140000          0.113250E-02
      0.145000          0.105934E-02
      0.150000          0.991306E-03
      0.155000          0.929517E-03
      0.160000          0.874200E-03
      0.165000          0.824753E-03
      0.170000          0.780103E-03
      0.175000          0.739107E-03
      0.180000          0.700810E-03
      0.185000          0.664531E-03
      0.190000          0.629851E-03
      0.195000          0.596560E-03
      0.200000          0.564621E-03
      0.205000          0.534109E-03
      0.210000          0.505132E-03
      0.215000          0.477744E-03
      0.220000          0.451888E-03
      0.225000          0.427421E-03
      0.230000          0.404188E-03
      0.235000          0.382117E-03
      0.240000          0.361258E-03
      0.245000          0.341743E-03
      0.250000          0.323681E-03
      0.255000          0.307052E-03
      0.260000          0.291652E-03
      0.265000          0.277134E-03
      0.270000          0.263110E-03
      0.275000          0.249285E-03
      0.280000          0.235556E-03
      0.285000          0.222039E-03
      0.290000          0.209012E-03
      0.295000          0.196813E-03
      0.300000          0.185728E-03
      0.305000          0.175914E-03
      0.310000          0.167382E-03
      0.315000          0.160036E-03
      0.320000          0.153737E-03
      0.325000          0.148356E-03
      0.330000          0.143794E-03
      0.335000          0.139967E-03
      0.340000          0.136771E-03
      0.345000          0.134064E-03
      0.350000          0.131666E-03
      0.355000          0.129398E-03
      0.360000          0.127124E-03
      0.365000          0.124796E-03
      0.370000          0.122449E-03
      0.375000          0.120167E-03
      0.380000          0.118015E-03
      0.385000          0.115981E-03
      0.390000          0.113954E-03
      0.395000          0.111779E-03
      0.400000          0.109344E-03
      0.405000          0.106670E-03
      0.410000          0.103939E-03
      0.415000          0.101428E-03
      0.420000          0.993790E-04
      0.425000          0.978708E-04
      0.430000          0.967751E-04
      0.435000          0.958093E-04
      0.440000          0.946642E-04
      0.445000          0.931316E-04
      0.450000          0.911703E-04
      0.455000          0.888906E-04
      0.460000          0.864829E-04
      0.465000          0.841356E-04
      0.470000          0.819782E-04
      0.475000          0.800603E-04
      0.480000          0.783597E-04
      0.485000          0.768060E-04
      0.490000          0.753127E-04
      0.495000          0.738102E-04
      0.500000          0.722692E-04
