 I_abs(s)[cm^-1]/c[mg/ml]
       0.00000          0.118307E-01
      0.500000E-02      0.115442E-01
      0.100000E-01      0.107444E-01
      0.150000E-01      0.959059E-02
      0.200000E-01      0.829041E-02
      0.250000E-01      0.703862E-02
      0.300000E-01      0.596839E-02
      0.350000E-01      0.513158E-02
      0.400000E-01      0.450982E-02
      0.450000E-01      0.404556E-02
      0.500000E-01      0.367632E-02
      0.550000E-01      0.335797E-02
      0.600000E-01      0.307107E-02
      0.650000E-01      0.281379E-02
      0.700000E-01      0.258978E-02
      0.750000E-01      0.239903E-02
      0.800000E-01      0.223555E-02
      0.850000E-01      0.209051E-02
      0.900000E-01      0.195687E-02
      0.950000E-01      0.183187E-02
      0.100000          0.171622E-02
      0.105000          0.161149E-02
      0.110000          0.151769E-02
      0.115000          0.143278E-02
      0.120000          0.135379E-02
      0.125000          0.127848E-02
      0.130000          0.120616E-02
      0.135000          0.113741E-02
      0.140000          0.107312E-02
      0.145000          0.101372E-02
      0.150000          0.958996E-03
      0.155000          0.908578E-03
      0.160000          0.862326E-03
      0.165000          0.820366E-03
      0.170000          0.782690E-03
      0.175000          0.748715E-03
      0.180000          0.717200E-03
      0.185000          0.686635E-03
      0.190000          0.655847E-03
      0.195000          0.624431E-03
      0.200000          0.592747E-03
      0.205000          0.561541E-03
      0.210000          0.531477E-03
      0.215000          0.502874E-03
      0.220000          0.475738E-03
      0.225000          0.449975E-03
      0.230000          0.425583E-03
      0.235000          0.402687E-03
      0.240000          0.381427E-03
      0.245000          0.361842E-03
      0.250000          0.343830E-03
      0.255000          0.327216E-03
      0.260000          0.311839E-03
      0.265000          0.297601E-03
      0.270000          0.284427E-03
      0.275000          0.272218E-03
      0.280000          0.260827E-03
      0.285000          0.250110E-03
      0.290000          0.239987E-03
      0.295000          0.230485E-03
      0.300000          0.221691E-03
      0.305000          0.213668E-03
      0.310000          0.206372E-03
      0.315000          0.199639E-03
      0.320000          0.193250E-03
      0.325000          0.187033E-03
      0.330000          0.180923E-03
      0.335000          0.174957E-03
      0.340000          0.169200E-03
      0.345000          0.163669E-03
      0.350000          0.158299E-03
      0.355000          0.152973E-03
      0.360000          0.147593E-03
      0.365000          0.142123E-03
      0.370000          0.136601E-03
      0.375000          0.131103E-03
      0.380000          0.125707E-03
      0.385000          0.120482E-03
      0.390000          0.115488E-03
      0.395000          0.110783E-03
      0.400000          0.106425E-03
      0.405000          0.102457E-03
      0.410000          0.989135E-04
      0.415000          0.958290E-04
      0.420000          0.932517E-04
      0.425000          0.912208E-04
      0.430000          0.897187E-04
      0.435000          0.886238E-04
      0.440000          0.877066E-04
      0.445000          0.866904E-04
      0.450000          0.853515E-04
      0.455000          0.836079E-04
      0.460000          0.815437E-04
      0.465000          0.793565E-04
      0.470000          0.772561E-04
      0.475000          0.753695E-04
      0.480000          0.736997E-04
      0.485000          0.721530E-04
      0.490000          0.706120E-04
      0.495000          0.690055E-04
      0.500000          0.673380E-04
