 I_abs(s)[cm^-1]/c[mg/ml]
       0.00000          0.117235E-01
      0.500000E-02      0.114603E-01
      0.100000E-01      0.107163E-01
      0.150000E-01      0.961545E-02
      0.200000E-01      0.832950E-02
      0.250000E-01      0.703606E-02
      0.300000E-01      0.588028E-02
      0.350000E-01      0.494964E-02
      0.400000E-01      0.426745E-02
      0.450000E-01      0.380393E-02
      0.500000E-01      0.349830E-02
      0.550000E-01      0.328317E-02
      0.600000E-01      0.310354E-02
      0.650000E-01      0.292620E-02
      0.700000E-01      0.273953E-02
      0.750000E-01      0.254694E-02
      0.800000E-01      0.235816E-02
      0.850000E-01      0.218236E-02
      0.900000E-01      0.202452E-02
      0.950000E-01      0.188522E-02
      0.100000          0.176224E-02
      0.105000          0.165255E-02
      0.110000          0.155348E-02
      0.115000          0.146313E-02
      0.120000          0.138012E-02
      0.125000          0.130326E-02
      0.130000          0.123149E-02
      0.135000          0.116399E-02
      0.140000          0.110030E-02
      0.145000          0.104033E-02
      0.150000          0.984130E-03
      0.155000          0.931768E-03
      0.160000          0.883175E-03
      0.165000          0.838222E-03
      0.170000          0.796828E-03
      0.175000          0.758997E-03
      0.180000          0.724716E-03
      0.185000          0.693729E-03
      0.190000          0.665373E-03
      0.195000          0.638590E-03
      0.200000          0.612189E-03
      0.205000          0.585250E-03
      0.210000          0.557471E-03
      0.215000          0.529280E-03
      0.220000          0.501642E-03
      0.225000          0.475638E-03
      0.230000          0.452019E-03
      0.235000          0.430938E-03
      0.240000          0.411952E-03
      0.245000          0.394271E-03
      0.250000          0.377100E-03
      0.255000          0.359929E-03
      0.260000          0.342638E-03
      0.265000          0.325432E-03
      0.270000          0.308673E-03
      0.275000          0.292712E-03
      0.280000          0.277790E-03
      0.285000          0.264027E-03
      0.290000          0.251463E-03
      0.295000          0.240106E-03
      0.300000          0.229939E-03
      0.305000          0.220920E-03
      0.310000          0.212960E-03
      0.315000          0.205919E-03
      0.320000          0.199621E-03
      0.325000          0.193870E-03
      0.330000          0.188467E-03
      0.335000          0.183220E-03
      0.340000          0.177950E-03
      0.345000          0.172528E-03
      0.350000          0.166906E-03
      0.355000          0.161153E-03
      0.360000          0.155457E-03
      0.365000          0.150063E-03
      0.370000          0.145187E-03
      0.375000          0.140919E-03
      0.380000          0.137174E-03
      0.385000          0.133718E-03
      0.390000          0.130264E-03
      0.395000          0.126593E-03
      0.400000          0.122639E-03
      0.405000          0.118498E-03
      0.410000          0.114368E-03
      0.415000          0.110436E-03
      0.420000          0.106798E-03
      0.425000          0.103416E-03
      0.430000          0.100165E-03
      0.435000          0.969029E-04
      0.440000          0.935476E-04
      0.445000          0.901130E-04
      0.450000          0.866924E-04
      0.455000          0.834103E-04
      0.460000          0.803682E-04
      0.465000          0.776130E-04
      0.470000          0.751339E-04
      0.475000          0.728832E-04
      0.480000          0.708015E-04
      0.485000          0.688390E-04
      0.490000          0.669648E-04
      0.495000          0.651696E-04
      0.500000          0.634633E-04
