 I_abs(s)[cm^-1]/c[mg/ml]
       0.00000          0.121626E-01
      0.500000E-02      0.118803E-01
      0.100000E-01      0.110855E-01
      0.150000E-01      0.991923E-02
      0.200000E-01      0.857269E-02
      0.250000E-01      0.723717E-02
      0.300000E-01      0.606027E-02
      0.350000E-01      0.512101E-02
      0.400000E-01      0.442872E-02
      0.450000E-01      0.394170E-02
      0.500000E-01      0.359533E-02
      0.550000E-01      0.332808E-02
      0.600000E-01      0.309739E-02
      0.650000E-01      0.288310E-02
      0.700000E-01      0.268151E-02
      0.750000E-01      0.249595E-02
      0.800000E-01      0.232910E-02
      0.850000E-01      0.217983E-02
      0.900000E-01      0.204421E-02
      0.950000E-01      0.191829E-02
      0.100000          0.180025E-02
      0.105000          0.169064E-02
      0.110000          0.159104E-02
      0.115000          0.150222E-02
      0.120000          0.142319E-02
      0.125000          0.135147E-02
      0.130000          0.128424E-02
      0.135000          0.121949E-02
      0.140000          0.115660E-02
      0.145000          0.109606E-02
      0.150000          0.103868E-02
      0.155000          0.984929E-03
      0.160000          0.934643E-03
      0.165000          0.887234E-03
      0.170000          0.842092E-03
      0.175000          0.798900E-03
      0.180000          0.757686E-03
      0.185000          0.718651E-03
      0.190000          0.681959E-03
      0.195000          0.647623E-03
      0.200000          0.615524E-03
      0.205000          0.585488E-03
      0.210000          0.557325E-03
      0.215000          0.530789E-03
      0.220000          0.505513E-03
      0.225000          0.481021E-03
      0.230000          0.456845E-03
      0.235000          0.432729E-03
      0.240000          0.408788E-03
      0.245000          0.385527E-03
      0.250000          0.363678E-03
      0.255000          0.343917E-03
      0.260000          0.326599E-03
      0.265000          0.311612E-03
      0.270000          0.298429E-03
      0.275000          0.286300E-03
      0.280000          0.274496E-03
      0.285000          0.262513E-03
      0.290000          0.250156E-03
      0.295000          0.237512E-03
      0.300000          0.224851E-03
      0.305000          0.212501E-03
      0.310000          0.200749E-03
      0.315000          0.189785E-03
      0.320000          0.179693E-03
      0.325000          0.170472E-03
      0.330000          0.162061E-03
      0.335000          0.154374E-03
      0.340000          0.147317E-03
      0.345000          0.140799E-03
      0.350000          0.134744E-03
      0.355000          0.129106E-03
      0.360000          0.123886E-03
      0.365000          0.119137E-03
      0.370000          0.114952E-03
      0.375000          0.111423E-03
      0.380000          0.108587E-03
      0.385000          0.106380E-03
      0.390000          0.104620E-03
      0.395000          0.103036E-03
      0.400000          0.101339E-03
      0.405000          0.993130E-04
      0.410000          0.968781E-04
      0.415000          0.941188E-04
      0.420000          0.912454E-04
      0.425000          0.885112E-04
      0.430000          0.861173E-04
      0.435000          0.841451E-04
      0.440000          0.825430E-04
      0.445000          0.811676E-04
      0.450000          0.798556E-04
      0.455000          0.784893E-04
      0.460000          0.770267E-04
      0.465000          0.754928E-04
      0.470000          0.739447E-04
      0.475000          0.724386E-04
      0.480000          0.710123E-04
      0.485000          0.696858E-04
      0.490000          0.684691E-04
      0.495000          0.673650E-04
      0.500000          0.663644E-04
