 I_abs(s)[cm^-1]/c[mg/ml]
       0.00000          0.117377E-01
      0.500000E-02      0.114872E-01
      0.100000E-01      0.107809E-01
      0.150000E-01      0.974196E-02
      0.200000E-01      0.853695E-02
      0.250000E-01      0.733192E-02
      0.300000E-01      0.625449E-02
      0.350000E-01      0.537250E-02
      0.400000E-01      0.469398E-02
      0.450000E-01      0.418415E-02
      0.500000E-01      0.379046E-02
      0.550000E-01      0.346511E-02
      0.600000E-01      0.317803E-02
      0.650000E-01      0.291848E-02
      0.700000E-01      0.268831E-02
      0.750000E-01      0.249255E-02
      0.800000E-01      0.233215E-02
      0.850000E-01      0.220165E-02
      0.900000E-01      0.209111E-02
      0.950000E-01      0.199008E-02
      0.100000          0.189108E-02
      0.105000          0.179090E-02
      0.110000          0.168992E-02
      0.115000          0.159027E-02
      0.120000          0.149418E-02
      0.125000          0.140311E-02
      0.130000          0.131776E-02
      0.135000          0.123844E-02
      0.140000          0.116529E-02
      0.145000          0.109833E-02
      0.150000          0.103718E-02
      0.155000          0.981033E-03
      0.160000          0.928783E-03
      0.165000          0.879370E-03
      0.170000          0.832098E-03
      0.175000          0.786737E-03
      0.180000          0.743383E-03
      0.185000          0.702186E-03
      0.190000          0.663143E-03
      0.195000          0.626075E-03
      0.200000          0.590768E-03
      0.205000          0.557156E-03
      0.210000          0.525408E-03
      0.215000          0.495860E-03
      0.220000          0.468840E-03
      0.225000          0.444478E-03
      0.230000          0.422626E-03
      0.235000          0.402884E-03
      0.240000          0.384717E-03
      0.245000          0.367589E-03
      0.250000          0.351052E-03
      0.255000          0.334792E-03
      0.260000          0.318644E-03
      0.265000          0.302591E-03
      0.270000          0.286749E-03
      0.275000          0.271342E-03
      0.280000          0.256627E-03
      0.285000          0.242819E-03
      0.290000          0.230021E-03
      0.295000          0.218206E-03
      0.300000          0.207252E-03
      0.305000          0.197013E-03
      0.310000          0.187382E-03
      0.315000          0.178309E-03
      0.320000          0.169786E-03
      0.325000          0.161809E-03
      0.330000          0.154349E-03
      0.335000          0.147362E-03
      0.340000          0.140821E-03
      0.345000          0.134739E-03
      0.350000          0.129170E-03
      0.355000          0.124170E-03
      0.360000          0.119750E-03
      0.365000          0.115846E-03
      0.370000          0.112326E-03
      0.375000          0.109031E-03
      0.380000          0.105826E-03
      0.385000          0.102638E-03
      0.390000          0.994626E-04
      0.395000          0.963436E-04
      0.400000          0.933413E-04
      0.405000          0.905072E-04
      0.410000          0.878745E-04
      0.415000          0.854598E-04
      0.420000          0.832695E-04
      0.425000          0.813011E-04
      0.430000          0.795399E-04
      0.435000          0.779538E-04
      0.440000          0.764931E-04
      0.445000          0.750969E-04
      0.450000          0.737061E-04
      0.455000          0.722786E-04
      0.460000          0.708002E-04
      0.465000          0.692864E-04
      0.470000          0.677749E-04
      0.475000          0.663098E-04
      0.480000          0.649238E-04
      0.485000          0.636252E-04
      0.490000          0.623936E-04
      0.495000          0.611885E-04
      0.500000          0.599657E-04
