 I_abs(s)[cm^-1]/c[mg/ml]
       0.00000          0.118020E-01
      0.500000E-02      0.115237E-01
      0.100000E-01      0.107467E-01
      0.150000E-01      0.962605E-02
      0.200000E-01      0.836409E-02
      0.250000E-01      0.715026E-02
      0.300000E-01      0.611372E-02
      0.350000E-01      0.530404E-02
      0.400000E-01      0.470190E-02
      0.450000E-01      0.424964E-02
      0.500000E-01      0.388511E-02
      0.550000E-01      0.356480E-02
      0.600000E-01      0.327046E-02
      0.650000E-01      0.300205E-02
      0.700000E-01      0.276545E-02
      0.750000E-01      0.256281E-02
      0.800000E-01      0.238959E-02
      0.850000E-01      0.223733E-02
      0.900000E-01      0.209824E-02
      0.950000E-01      0.196812E-02
      0.100000          0.184635E-02
      0.105000          0.173370E-02
      0.110000          0.163035E-02
      0.115000          0.153520E-02
      0.120000          0.144668E-02
      0.125000          0.136385E-02
      0.130000          0.128687E-02
      0.135000          0.121651E-02
      0.140000          0.115309E-02
      0.145000          0.109589E-02
      0.150000          0.104330E-02
      0.155000          0.993649E-03
      0.160000          0.945904E-03
      0.165000          0.899943E-03
      0.170000          0.856162E-03
      0.175000          0.814849E-03
      0.180000          0.775800E-03
      0.185000          0.738398E-03
      0.190000          0.702023E-03
      0.195000          0.666447E-03
      0.200000          0.631920E-03
      0.205000          0.598936E-03
      0.210000          0.567883E-03
      0.215000          0.538815E-03
      0.220000          0.511489E-03
      0.225000          0.485565E-03
      0.230000          0.460814E-03
      0.235000          0.437194E-03
      0.240000          0.414791E-03
      0.245000          0.393699E-03
      0.250000          0.373941E-03
      0.255000          0.355467E-03
      0.260000          0.338179E-03
      0.265000          0.321951E-03
      0.270000          0.306631E-03
      0.275000          0.292050E-03
      0.280000          0.278063E-03
      0.285000          0.264624E-03
      0.290000          0.251832E-03
      0.295000          0.239902E-03
      0.300000          0.229063E-03
      0.305000          0.219413E-03
      0.310000          0.210839E-03
      0.315000          0.203039E-03
      0.320000          0.195646E-03
      0.325000          0.188380E-03
      0.330000          0.181149E-03
      0.335000          0.174041E-03
      0.340000          0.167236E-03
      0.345000          0.160883E-03
      0.350000          0.155024E-03
      0.355000          0.149586E-03
      0.360000          0.144430E-03
      0.365000          0.139403E-03
      0.370000          0.134385E-03
      0.375000          0.129309E-03
      0.380000          0.124170E-03
      0.385000          0.119031E-03
      0.390000          0.114015E-03
      0.395000          0.109266E-03
      0.400000          0.104892E-03
      0.405000          0.100910E-03
      0.410000          0.972538E-04
      0.415000          0.938199E-04
      0.420000          0.905487E-04
      0.425000          0.874644E-04
      0.430000          0.846495E-04
      0.435000          0.821685E-04
      0.440000          0.799954E-04
      0.445000          0.780003E-04
      0.450000          0.760081E-04
      0.455000          0.738933E-04
      0.460000          0.716509E-04
      0.465000          0.693997E-04
      0.470000          0.673154E-04
      0.475000          0.655311E-04
      0.480000          0.640583E-04
      0.485000          0.627690E-04
      0.490000          0.614494E-04
      0.495000          0.598991E-04
      0.500000          0.580253E-04
