 I_abs(s)[cm^-1]/c[mg/ml]
       0.00000          0.118953E-01
      0.500000E-02      0.116713E-01
      0.100000E-01      0.110348E-01
      0.150000E-01      0.100836E-01
      0.200000E-01      0.895455E-02
      0.250000E-01      0.779211E-02
      0.300000E-01      0.671858E-02
      0.350000E-01      0.581327E-02
      0.400000E-01      0.510523E-02
      0.450000E-01      0.457967E-02
      0.500000E-01      0.419364E-02
      0.550000E-01      0.389504E-02
      0.600000E-01      0.363861E-02
      0.650000E-01      0.339524E-02
      0.700000E-01      0.315353E-02
      0.750000E-01      0.291537E-02
      0.800000E-01      0.268893E-02
      0.850000E-01      0.248216E-02
      0.900000E-01      0.229896E-02
      0.950000E-01      0.213847E-02
      0.100000          0.199662E-02
      0.105000          0.186852E-02
      0.110000          0.175030E-02
      0.115000          0.163993E-02
      0.120000          0.153691E-02
      0.125000          0.144151E-02
      0.130000          0.135395E-02
      0.135000          0.127400E-02
      0.140000          0.120100E-02
      0.145000          0.113406E-02
      0.150000          0.107222E-02
      0.155000          0.101455E-02
      0.160000          0.960158E-03
      0.165000          0.908214E-03
      0.170000          0.858103E-03
      0.175000          0.809596E-03
      0.180000          0.762970E-03
      0.185000          0.718931E-03
      0.190000          0.678324E-03
      0.195000          0.641735E-03
      0.200000          0.609151E-03
      0.205000          0.579868E-03
      0.210000          0.552686E-03
      0.215000          0.526327E-03
      0.220000          0.499881E-03
      0.225000          0.473087E-03
      0.230000          0.446335E-03
      0.235000          0.420411E-03
      0.240000          0.396129E-03
      0.245000          0.374003E-03
      0.250000          0.354117E-03
      0.255000          0.336198E-03
      0.260000          0.319828E-03
      0.265000          0.304659E-03
      0.270000          0.290543E-03
      0.275000          0.277507E-03
      0.280000          0.265634E-03
      0.285000          0.254919E-03
      0.290000          0.245187E-03
      0.295000          0.236115E-03
      0.300000          0.227330E-03
      0.305000          0.218546E-03
      0.310000          0.209662E-03
      0.315000          0.200779E-03
      0.320000          0.192155E-03
      0.325000          0.184099E-03
      0.330000          0.176871E-03
      0.335000          0.170609E-03
      0.340000          0.165307E-03
      0.345000          0.160827E-03
      0.350000          0.156952E-03
      0.355000          0.153436E-03
      0.360000          0.150059E-03
      0.365000          0.146661E-03
      0.370000          0.143167E-03
      0.375000          0.139583E-03
      0.380000          0.135988E-03
      0.385000          0.132496E-03
      0.390000          0.129215E-03
      0.395000          0.126214E-03
      0.400000          0.123497E-03
      0.405000          0.121001E-03
      0.410000          0.118620E-03
      0.415000          0.116248E-03
      0.420000          0.113816E-03
      0.425000          0.111319E-03
      0.430000          0.108817E-03
      0.435000          0.106406E-03
      0.440000          0.104183E-03
      0.445000          0.102205E-03
      0.450000          0.100475E-03
      0.455000          0.989432E-04
      0.460000          0.975290E-04
      0.465000          0.961468E-04
      0.470000          0.947243E-04
      0.475000          0.932100E-04
      0.480000          0.915729E-04
      0.485000          0.898012E-04
      0.490000          0.879056E-04
      0.495000          0.859251E-04
      0.500000          0.839287E-04
