 I_abs(s)[cm^-1]/c[mg/ml]
       0.00000          0.117591E-01
      0.500000E-02      0.114738E-01
      0.100000E-01      0.106768E-01
      0.150000E-01      0.952665E-02
      0.200000E-01      0.823234E-02
      0.250000E-01      0.699249E-02
      0.300000E-01      0.594586E-02
      0.350000E-01      0.514818E-02
      0.400000E-01      0.457984E-02
      0.450000E-01      0.417588E-02
      0.500000E-01      0.386258E-02
      0.550000E-01      0.358553E-02
      0.600000E-01      0.332063E-02
      0.650000E-01      0.306873E-02
      0.700000E-01      0.284126E-02
      0.750000E-01      0.264645E-02
      0.800000E-01      0.248249E-02
      0.850000E-01      0.233905E-02
      0.900000E-01      0.220377E-02
      0.950000E-01      0.206865E-02
      0.100000          0.193275E-02
      0.105000          0.180054E-02
      0.110000          0.167773E-02
      0.115000          0.156761E-02
      0.120000          0.146979E-02
      0.125000          0.138140E-02
      0.130000          0.129943E-02
      0.135000          0.122247E-02
      0.140000          0.115092E-02
      0.145000          0.108588E-02
      0.150000          0.102779E-02
      0.155000          0.975682E-03
      0.160000          0.927606E-03
      0.165000          0.881632E-03
      0.170000          0.836772E-03
      0.175000          0.793207E-03
      0.180000          0.751777E-03
      0.185000          0.713159E-03
      0.190000          0.677311E-03
      0.195000          0.643477E-03
      0.200000          0.610669E-03
      0.205000          0.578255E-03
      0.210000          0.546267E-03
      0.215000          0.515288E-03
      0.220000          0.486056E-03
      0.225000          0.459065E-03
      0.230000          0.434403E-03
      0.235000          0.411838E-03
      0.240000          0.391057E-03
      0.245000          0.371853E-03
      0.250000          0.354153E-03
      0.255000          0.337934E-03
      0.260000          0.323101E-03
      0.265000          0.309449E-03
      0.270000          0.296714E-03
      0.275000          0.284658E-03
      0.280000          0.273135E-03
      0.285000          0.262077E-03
      0.290000          0.251444E-03
      0.295000          0.241190E-03
      0.300000          0.231277E-03
      0.305000          0.221722E-03
      0.310000          0.212642E-03
      0.315000          0.204231E-03
      0.320000          0.196674E-03
      0.325000          0.190030E-03
      0.330000          0.184152E-03
      0.335000          0.178701E-03
      0.340000          0.173262E-03
      0.345000          0.167502E-03
      0.350000          0.161303E-03
      0.355000          0.154797E-03
      0.360000          0.148291E-03
      0.365000          0.142115E-03
      0.370000          0.136482E-03
      0.375000          0.131433E-03
      0.380000          0.126879E-03
      0.385000          0.122702E-03
      0.390000          0.118851E-03
      0.395000          0.115356E-03
      0.400000          0.112268E-03
      0.405000          0.109577E-03
      0.410000          0.107173E-03
      0.415000          0.104892E-03
      0.420000          0.102609E-03
      0.425000          0.100307E-03
      0.430000          0.980821E-04
      0.435000          0.960551E-04
      0.440000          0.942736E-04
      0.445000          0.926587E-04
      0.450000          0.910388E-04
      0.455000          0.892455E-04
      0.460000          0.872060E-04
      0.465000          0.849768E-04
      0.470000          0.827050E-04
      0.475000          0.805478E-04
      0.480000          0.786018E-04
      0.485000          0.768747E-04
      0.490000          0.753037E-04
      0.495000          0.738013E-04
      0.500000          0.723019E-04
