 I_abs(s)[cm^-1]/c[mg/ml]
       0.00000          0.115812E-01
      0.500000E-02      0.113077E-01
      0.100000E-01      0.105370E-01
      0.150000E-01      0.940531E-02
      0.200000E-01      0.809791E-02
      0.250000E-01      0.680235E-02
      0.300000E-01      0.566564E-02
      0.350000E-01      0.476879E-02
      0.400000E-01      0.412361E-02
      0.450000E-01      0.368901E-02
      0.500000E-01      0.339777E-02
      0.550000E-01      0.318311E-02
      0.600000E-01      0.299660E-02
      0.650000E-01      0.281409E-02
      0.700000E-01      0.263139E-02
      0.750000E-01      0.245482E-02
      0.800000E-01      0.229193E-02
      0.850000E-01      0.214611E-02
      0.900000E-01      0.201575E-02
      0.950000E-01      0.189649E-02
      0.100000          0.178420E-02
      0.105000          0.167685E-02
      0.110000          0.157463E-02
      0.115000          0.147886E-02
      0.120000          0.139066E-02
      0.125000          0.131019E-02
      0.130000          0.123666E-02
      0.135000          0.116884E-02
      0.140000          0.110562E-02
      0.145000          0.104625E-02
      0.150000          0.990344E-03
      0.155000          0.937704E-03
      0.160000          0.888256E-03
      0.165000          0.842057E-03
      0.170000          0.799320E-03
      0.175000          0.760327E-03
      0.180000          0.725195E-03
      0.185000          0.693625E-03
      0.190000          0.664786E-03
      0.195000          0.637455E-03
      0.200000          0.610377E-03
      0.205000          0.582677E-03
      0.210000          0.554133E-03
      0.215000          0.525172E-03
      0.220000          0.496623E-03
      0.225000          0.469361E-03
      0.230000          0.444013E-03
      0.235000          0.420836E-03
      0.240000          0.399764E-03
      0.245000          0.380552E-03
      0.250000          0.362911E-03
      0.255000          0.346587E-03
      0.260000          0.331378E-03
      0.265000          0.317131E-03
      0.270000          0.303748E-03
      0.275000          0.291202E-03
      0.280000          0.279537E-03
      0.285000          0.268833E-03
      0.290000          0.259138E-03
      0.295000          0.250411E-03
      0.300000          0.242512E-03
      0.305000          0.235242E-03
      0.310000          0.228419E-03
      0.315000          0.221935E-03
      0.320000          0.215747E-03
      0.325000          0.209825E-03
      0.330000          0.204071E-03
      0.335000          0.198298E-03
      0.340000          0.192269E-03
      0.345000          0.185798E-03
      0.350000          0.178850E-03
      0.355000          0.171579E-03
      0.360000          0.164276E-03
      0.365000          0.157256E-03
      0.370000          0.150731E-03
      0.375000          0.144749E-03
      0.380000          0.139208E-03
      0.385000          0.133947E-03
      0.390000          0.128846E-03
      0.395000          0.123887E-03
      0.400000          0.119163E-03
      0.405000          0.114818E-03
      0.410000          0.110976E-03
      0.415000          0.107690E-03
      0.420000          0.104919E-03
      0.425000          0.102551E-03
      0.430000          0.100435E-03
      0.435000          0.984200E-04
      0.440000          0.963733E-04
      0.445000          0.941902E-04
      0.450000          0.917952E-04
      0.455000          0.891449E-04
      0.460000          0.862339E-04
      0.465000          0.830995E-04
      0.470000          0.798208E-04
      0.475000          0.765072E-04
      0.480000          0.732783E-04
      0.485000          0.702407E-04
      0.490000          0.674684E-04
      0.495000          0.649922E-04
      0.500000          0.627986E-04
