 I_abs(s)[cm^-1]/c[mg/ml]
       0.00000          0.118450E-01
      0.500000E-02      0.115728E-01
      0.100000E-01      0.108100E-01
      0.150000E-01      0.970245E-02
      0.200000E-01      0.844329E-02
      0.250000E-01      0.721922E-02
      0.300000E-01      0.616477E-02
      0.350000E-01      0.533981E-02
      0.400000E-01      0.473444E-02
      0.450000E-01      0.429416E-02
      0.500000E-01      0.395226E-02
      0.550000E-01      0.365594E-02
      0.600000E-01      0.337814E-02
      0.650000E-01      0.311481E-02
      0.700000E-01      0.287355E-02
      0.750000E-01      0.266154E-02
      0.800000E-01      0.247864E-02
      0.850000E-01      0.231754E-02
      0.900000E-01      0.216844E-02
      0.950000E-01      0.202438E-02
      0.100000          0.188385E-02
      0.105000          0.174992E-02
      0.110000          0.162708E-02
      0.115000          0.151815E-02
      0.120000          0.142295E-02
      0.125000          0.133891E-02
      0.130000          0.126287E-02
      0.135000          0.119255E-02
      0.140000          0.112702E-02
      0.145000          0.106617E-02
      0.150000          0.100979E-02
      0.155000          0.957204E-03
      0.160000          0.907439E-03
      0.165000          0.859887E-03
      0.170000          0.814749E-03
      0.175000          0.772935E-03
      0.180000          0.735440E-03
      0.185000          0.702598E-03
      0.190000          0.673694E-03
      0.195000          0.647151E-03
      0.200000          0.621183E-03
      0.205000          0.594499E-03
      0.210000          0.566709E-03
      0.215000          0.538256E-03
      0.220000          0.510013E-03
      0.225000          0.482810E-03
      0.230000          0.457148E-03
      0.235000          0.433173E-03
      0.240000          0.410819E-03
      0.245000          0.389974E-03
      0.250000          0.370554E-03
      0.255000          0.352479E-03
      0.260000          0.335627E-03
      0.265000          0.319839E-03
      0.270000          0.304973E-03
      0.275000          0.290975E-03
      0.280000          0.277884E-03
      0.285000          0.265774E-03
      0.290000          0.254641E-03
      0.295000          0.244342E-03
      0.300000          0.234615E-03
      0.305000          0.225199E-03
      0.310000          0.215952E-03
      0.315000          0.206928E-03
      0.320000          0.198317E-03
      0.325000          0.190319E-03
      0.330000          0.182994E-03
      0.335000          0.176211E-03
      0.340000          0.169711E-03
      0.345000          0.163249E-03
      0.350000          0.156740E-03
      0.355000          0.150300E-03
      0.360000          0.144174E-03
      0.365000          0.138580E-03
      0.370000          0.133586E-03
      0.375000          0.129073E-03
      0.380000          0.124810E-03
      0.385000          0.120571E-03
      0.390000          0.116243E-03
      0.395000          0.111851E-03
      0.400000          0.107518E-03
      0.405000          0.103402E-03
      0.410000          0.996471E-04
      0.415000          0.963695E-04
      0.420000          0.936517E-04
      0.425000          0.915336E-04
      0.430000          0.899912E-04
      0.435000          0.889216E-04
      0.440000          0.881538E-04
      0.445000          0.874895E-04
      0.450000          0.867544E-04
      0.455000          0.858395E-04
      0.460000          0.847136E-04
      0.465000          0.834113E-04
      0.470000          0.820027E-04
      0.475000          0.805582E-04
      0.480000          0.791173E-04
      0.485000          0.776704E-04
      0.490000          0.761656E-04
      0.495000          0.745415E-04
      0.500000          0.727732E-04
