 I_abs(s)[cm^-1]/c[mg/ml]
       0.00000          0.117449E-01
      0.500000E-02      0.114634E-01
      0.100000E-01      0.106766E-01
      0.150000E-01      0.953832E-02
      0.200000E-01      0.825129E-02
      0.250000E-01      0.700855E-02
      0.300000E-01      0.594573E-02
      0.350000E-01      0.511943E-02
      0.400000E-01      0.451498E-02
      0.450000E-01      0.407483E-02
      0.500000E-01      0.373248E-02
      0.550000E-01      0.343783E-02
      0.600000E-01      0.316690E-02
      0.650000E-01      0.291688E-02
      0.700000E-01      0.269405E-02
      0.750000E-01      0.250255E-02
      0.800000E-01      0.233944E-02
      0.850000E-01      0.219610E-02
      0.900000E-01      0.206327E-02
      0.950000E-01      0.193528E-02
      0.100000          0.181144E-02
      0.105000          0.169430E-02
      0.110000          0.158683E-02
      0.115000          0.149029E-02
      0.120000          0.140391E-02
      0.125000          0.132584E-02
      0.130000          0.125437E-02
      0.135000          0.118855E-02
      0.140000          0.112795E-02
      0.145000          0.107203E-02
      0.150000          0.101977E-02
      0.155000          0.969875E-03
      0.160000          0.921269E-03
      0.165000          0.873606E-03
      0.170000          0.827307E-03
      0.175000          0.783204E-03
      0.180000          0.742005E-03
      0.185000          0.703939E-03
      0.190000          0.668723E-03
      0.195000          0.635785E-03
      0.200000          0.604558E-03
      0.205000          0.574642E-03
      0.210000          0.545826E-03
      0.215000          0.518023E-03
      0.220000          0.491229E-03
      0.225000          0.465526E-03
      0.230000          0.441090E-03
      0.235000          0.418153E-03
      0.240000          0.396902E-03
      0.245000          0.377379E-03
      0.250000          0.359447E-03
      0.255000          0.342850E-03
      0.260000          0.327320E-03
      0.265000          0.312668E-03
      0.270000          0.298780E-03
      0.275000          0.285560E-03
      0.280000          0.272868E-03
      0.285000          0.260522E-03
      0.290000          0.248370E-03
      0.295000          0.236393E-03
      0.300000          0.224754E-03
      0.305000          0.213754E-03
      0.310000          0.203712E-03
      0.315000          0.194824E-03
      0.320000          0.187092E-03
      0.325000          0.180345E-03
      0.330000          0.174327E-03
      0.335000          0.168804E-03
      0.340000          0.163632E-03
      0.345000          0.158756E-03
      0.350000          0.154159E-03
      0.355000          0.149811E-03
      0.360000          0.145630E-03
      0.365000          0.141490E-03
      0.370000          0.137264E-03
      0.375000          0.132871E-03
      0.380000          0.128299E-03
      0.385000          0.123613E-03
      0.390000          0.118930E-03
      0.395000          0.114387E-03
      0.400000          0.110108E-03
      0.405000          0.106187E-03
      0.410000          0.102672E-03
      0.415000          0.995640E-04
      0.420000          0.968201E-04
      0.425000          0.943660E-04
      0.430000          0.921163E-04
      0.435000          0.899955E-04
      0.440000          0.879537E-04
      0.445000          0.859689E-04
      0.450000          0.840388E-04
      0.455000          0.821667E-04
      0.460000          0.803509E-04
      0.465000          0.785819E-04
      0.470000          0.768458E-04
      0.475000          0.751285E-04
      0.480000          0.734199E-04
      0.485000          0.717158E-04
      0.490000          0.700235E-04
      0.495000          0.683663E-04
      0.500000          0.667854E-04
