 I_abs(s)[cm^-1]/c[mg/ml]
       0.00000          0.117734E-01
      0.500000E-02      0.115330E-01
      0.100000E-01      0.108521E-01
      0.150000E-01      0.984180E-02
      0.200000E-01      0.865590E-02
      0.250000E-01      0.745418E-02
      0.300000E-01      0.636785E-02
      0.350000E-01      0.547663E-02
      0.400000E-01      0.480247E-02
      0.450000E-01      0.431922E-02
      0.500000E-01      0.397281E-02
      0.550000E-01      0.370379E-02
      0.600000E-01      0.346505E-02
      0.650000E-01      0.323049E-02
      0.700000E-01      0.299428E-02
      0.750000E-01      0.276362E-02
      0.800000E-01      0.254951E-02
      0.850000E-01      0.235962E-02
      0.900000E-01      0.219520E-02
      0.950000E-01      0.205201E-02
      0.100000          0.192359E-02
      0.105000          0.180450E-02
      0.110000          0.169217E-02
      0.115000          0.158667E-02
      0.120000          0.148926E-02
      0.125000          0.140072E-02
      0.130000          0.132045E-02
      0.135000          0.124664E-02
      0.140000          0.117723E-02
      0.145000          0.111092E-02
      0.150000          0.104766E-02
      0.155000          0.988388E-03
      0.160000          0.934225E-03
      0.165000          0.885662E-03
      0.170000          0.842139E-03
      0.175000          0.802226E-03
      0.180000          0.764240E-03
      0.185000          0.726935E-03
      0.190000          0.689918E-03
      0.195000          0.653595E-03
      0.200000          0.618755E-03
      0.205000          0.586043E-03
      0.210000          0.555601E-03
      0.215000          0.527042E-03
      0.220000          0.499723E-03
      0.225000          0.473138E-03
      0.230000          0.447198E-03
      0.235000          0.422275E-03
      0.240000          0.398999E-03
      0.245000          0.377932E-03
      0.250000          0.359296E-03
      0.255000          0.342883E-03
      0.260000          0.328164E-03
      0.265000          0.314525E-03
      0.270000          0.301502E-03
      0.275000          0.288901E-03
      0.280000          0.276777E-03
      0.285000          0.265290E-03
      0.290000          0.254558E-03
      0.295000          0.244558E-03
      0.300000          0.235142E-03
      0.305000          0.226120E-03
      0.310000          0.217370E-03
      0.315000          0.208893E-03
      0.320000          0.200802E-03
      0.325000          0.193249E-03
      0.330000          0.186339E-03
      0.335000          0.180084E-03
      0.340000          0.174402E-03
      0.345000          0.169165E-03
      0.350000          0.164253E-03
      0.355000          0.159595E-03
      0.360000          0.155169E-03
      0.365000          0.150992E-03
      0.370000          0.147091E-03
      0.375000          0.143488E-03
      0.380000          0.140189E-03
      0.385000          0.137179E-03
      0.390000          0.134428E-03
      0.395000          0.131886E-03
      0.400000          0.129491E-03
      0.405000          0.127182E-03
      0.410000          0.124906E-03
      0.415000          0.122629E-03
      0.420000          0.120324E-03
      0.425000          0.117973E-03
      0.430000          0.115561E-03
      0.435000          0.113091E-03
      0.440000          0.110607E-03
      0.445000          0.108192E-03
      0.450000          0.105960E-03
      0.455000          0.104014E-03
      0.460000          0.102399E-03
      0.465000          0.101074E-03
      0.470000          0.999242E-04
      0.475000          0.987985E-04
      0.480000          0.975664E-04
      0.485000          0.961620E-04
      0.490000          0.945978E-04
      0.495000          0.929482E-04
      0.500000          0.913128E-04
