 I_abs(s)[cm^-1]/c[mg/ml]
       0.00000          0.122426E-01
      0.500000E-02      0.119784E-01
      0.100000E-01      0.112378E-01
      0.150000E-01      0.101609E-01
      0.200000E-01      0.893206E-02
      0.250000E-01      0.772681E-02
      0.300000E-01      0.666898E-02
      0.350000E-01      0.581117E-02
      0.400000E-01      0.514226E-02
      0.450000E-01      0.461356E-02
      0.500000E-01      0.416980E-02
      0.550000E-01      0.377188E-02
      0.600000E-01      0.340479E-02
      0.650000E-01      0.307211E-02
      0.700000E-01      0.278376E-02
      0.750000E-01      0.254516E-02
      0.800000E-01      0.235257E-02
      0.850000E-01      0.219512E-02
      0.900000E-01      0.206035E-02
      0.950000E-01      0.193915E-02
      0.100000          0.182768E-02
      0.105000          0.172587E-02
      0.110000          0.163459E-02
      0.115000          0.155327E-02
      0.120000          0.147935E-02
      0.125000          0.140928E-02
      0.130000          0.134003E-02
      0.135000          0.127011E-02
      0.140000          0.119966E-02
      0.145000          0.112979E-02
      0.150000          0.106189E-02
      0.155000          0.997155E-03
      0.160000          0.936489E-03
      0.165000          0.880484E-03
      0.170000          0.829353E-03
      0.175000          0.782786E-03
      0.180000          0.739911E-03
      0.185000          0.699503E-03
      0.190000          0.660428E-03
      0.195000          0.622086E-03
      0.200000          0.584602E-03
      0.205000          0.548657E-03
      0.210000          0.515053E-03
      0.215000          0.484285E-03
      0.220000          0.456347E-03
      0.225000          0.430835E-03
      0.230000          0.407245E-03
      0.235000          0.385242E-03
      0.240000          0.364758E-03
      0.245000          0.345895E-03
      0.250000          0.328741E-03
      0.255000          0.313223E-03
      0.260000          0.299078E-03
      0.265000          0.285937E-03
      0.270000          0.273434E-03
      0.275000          0.261301E-03
      0.280000          0.249400E-03
      0.285000          0.237711E-03
      0.290000          0.226311E-03
      0.295000          0.215330E-03
      0.300000          0.204917E-03
      0.305000          0.195194E-03
      0.310000          0.186212E-03
      0.315000          0.177932E-03
      0.320000          0.170242E-03
      0.325000          0.163002E-03
      0.330000          0.156105E-03
      0.335000          0.149510E-03
      0.340000          0.143239E-03
      0.345000          0.137329E-03
      0.350000          0.131771E-03
      0.355000          0.126482E-03
      0.360000          0.121323E-03
      0.365000          0.116169E-03
      0.370000          0.110992E-03
      0.375000          0.105897E-03
      0.380000          0.101092E-03
      0.385000          0.967900E-04
      0.390000          0.931049E-04
      0.395000          0.899968E-04
      0.400000          0.872984E-04
      0.405000          0.848037E-04
      0.410000          0.823660E-04
      0.415000          0.799500E-04
      0.420000          0.776218E-04
      0.425000          0.754936E-04
      0.430000          0.736610E-04
      0.435000          0.721624E-04
      0.440000          0.709694E-04
      0.445000          0.700026E-04
      0.450000          0.691644E-04
      0.455000          0.683782E-04
      0.460000          0.676204E-04
      0.465000          0.669278E-04
      0.470000          0.663689E-04
      0.475000          0.659900E-04
      0.480000          0.657678E-04
      0.485000          0.656028E-04
      0.490000          0.653658E-04
      0.495000          0.649688E-04
      0.500000          0.644156E-04
