 I_abs(s)[cm^-1]/c[mg/ml]
       0.00000          0.113064E-01
      0.500000E-02      0.110347E-01
      0.100000E-01      0.102703E-01
      0.150000E-01      0.915119E-02
      0.200000E-01      0.786488E-02
      0.250000E-01      0.660045E-02
      0.300000E-01      0.550485E-02
      0.350000E-01      0.465680E-02
      0.400000E-01      0.406374E-02
      0.450000E-01      0.367884E-02
      0.500000E-01      0.342900E-02
      0.550000E-01      0.324281E-02
      0.600000E-01      0.306955E-02
      0.650000E-01      0.288564E-02
      0.700000E-01      0.269008E-02
      0.750000E-01      0.249410E-02
      0.800000E-01      0.231060E-02
      0.850000E-01      0.214751E-02
      0.900000E-01      0.200602E-02
      0.950000E-01      0.188245E-02
      0.100000          0.177157E-02
      0.105000          0.166907E-02
      0.110000          0.157261E-02
      0.115000          0.148146E-02
      0.120000          0.139559E-02
      0.125000          0.131506E-02
      0.130000          0.123976E-02
      0.135000          0.116948E-02
      0.140000          0.110409E-02
      0.145000          0.104342E-02
      0.150000          0.987216E-03
      0.155000          0.935050E-03
      0.160000          0.886498E-03
      0.165000          0.841386E-03
      0.170000          0.799941E-03
      0.175000          0.762680E-03
      0.180000          0.730015E-03
      0.185000          0.701783E-03
      0.190000          0.676982E-03
      0.195000          0.653902E-03
      0.200000          0.630632E-03
      0.205000          0.605711E-03
      0.210000          0.578605E-03
      0.215000          0.549800E-03
      0.220000          0.520482E-03
      0.225000          0.491982E-03
      0.230000          0.465268E-03
      0.235000          0.440692E-03
      0.240000          0.418057E-03
      0.245000          0.396903E-03
      0.250000          0.376837E-03
      0.255000          0.357740E-03
      0.260000          0.339782E-03
      0.265000          0.323284E-03
      0.270000          0.308523E-03
      0.275000          0.295575E-03
      0.280000          0.284258E-03
      0.285000          0.274168E-03
      0.290000          0.264785E-03
      0.295000          0.255609E-03
      0.300000          0.246272E-03
      0.305000          0.236620E-03
      0.310000          0.226729E-03
      0.315000          0.216851E-03
      0.320000          0.207310E-03
      0.325000          0.198368E-03
      0.330000          0.190132E-03
      0.335000          0.182521E-03
      0.340000          0.175332E-03
      0.345000          0.168347E-03
      0.350000          0.161453E-03
      0.355000          0.154692E-03
      0.360000          0.148238E-03
      0.365000          0.142300E-03
      0.370000          0.137024E-03
      0.375000          0.132420E-03
      0.380000          0.128378E-03
      0.385000          0.124721E-03
      0.390000          0.121285E-03
      0.395000          0.117973E-03
      0.400000          0.114756E-03
      0.405000          0.111644E-03
      0.410000          0.108649E-03
      0.415000          0.105756E-03
      0.420000          0.102930E-03
      0.425000          0.100138E-03
      0.430000          0.973657E-04
      0.435000          0.946352E-04
      0.440000          0.919934E-04
      0.445000          0.894982E-04
      0.450000          0.872006E-04
      0.455000          0.851299E-04
      0.460000          0.832838E-04
      0.465000          0.816246E-04
      0.470000          0.800833E-04
      0.475000          0.785741E-04
      0.480000          0.770187E-04
      0.485000          0.753717E-04
      0.490000          0.736362E-04
      0.495000          0.718605E-04
      0.500000          0.701165E-04
