 I_abs(s)[cm^-1]/c[mg/ml]
       0.00000          0.122499E-01
      0.500000E-02      0.120214E-01
      0.100000E-01      0.113739E-01
      0.150000E-01      0.104114E-01
      0.200000E-01      0.927688E-02
      0.250000E-01      0.811793E-02
      0.300000E-01      0.705439E-02
      0.350000E-01      0.615817E-02
      0.400000E-01      0.544903E-02
      0.450000E-01      0.490500E-02
      0.500000E-01      0.448132E-02
      0.550000E-01      0.413039E-02
      0.600000E-01      0.381624E-02
      0.650000E-01      0.352031E-02
      0.700000E-01      0.323938E-02
      0.750000E-01      0.297881E-02
      0.800000E-01      0.274519E-02
      0.850000E-01      0.254144E-02
      0.900000E-01      0.236551E-02
      0.950000E-01      0.221188E-02
      0.100000          0.207413E-02
      0.105000          0.194719E-02
      0.110000          0.182811E-02
      0.115000          0.171579E-02
      0.120000          0.161001E-02
      0.125000          0.151071E-02
      0.130000          0.141770E-02
      0.135000          0.133076E-02
      0.140000          0.124990E-02
      0.145000          0.117533E-02
      0.150000          0.110721E-02
      0.155000          0.104538E-02
      0.160000          0.989170E-03
      0.165000          0.937504E-03
      0.170000          0.889236E-03
      0.175000          0.843509E-03
      0.180000          0.799922E-03
      0.185000          0.758452E-03
      0.190000          0.719191E-03
      0.195000          0.682076E-03
      0.200000          0.646787E-03
      0.205000          0.612835E-03
      0.210000          0.579793E-03
      0.215000          0.547501E-03
      0.220000          0.516142E-03
      0.225000          0.486149E-03
      0.230000          0.458010E-03
      0.235000          0.432085E-03
      0.240000          0.408517E-03
      0.245000          0.387249E-03
      0.250000          0.368116E-03
      0.255000          0.350914E-03
      0.260000          0.335431E-03
      0.265000          0.321412E-03
      0.270000          0.308526E-03
      0.275000          0.296377E-03
      0.280000          0.284564E-03
      0.285000          0.272790E-03
      0.290000          0.260938E-03
      0.295000          0.249094E-03
      0.300000          0.237489E-03
      0.305000          0.226397E-03
      0.310000          0.216032E-03
      0.315000          0.206491E-03
      0.320000          0.197763E-03
      0.325000          0.189779E-03
      0.330000          0.182468E-03
      0.335000          0.175793E-03
      0.340000          0.169736E-03
      0.345000          0.164270E-03
      0.350000          0.159319E-03
      0.355000          0.154758E-03
      0.360000          0.150433E-03
      0.365000          0.146211E-03
      0.370000          0.142018E-03
      0.375000          0.137856E-03
      0.380000          0.133779E-03
      0.385000          0.129862E-03
      0.390000          0.126154E-03
      0.395000          0.122667E-03
      0.400000          0.119377E-03
      0.405000          0.116240E-03
      0.410000          0.113221E-03
      0.415000          0.110296E-03
      0.420000          0.107456E-03
      0.425000          0.104700E-03
      0.430000          0.102028E-03
      0.435000          0.994496E-04
      0.440000          0.969842E-04
      0.445000          0.946624E-04
      0.450000          0.925163E-04
      0.455000          0.905633E-04
      0.460000          0.887917E-04
      0.465000          0.871560E-04
      0.470000          0.855866E-04
      0.475000          0.840110E-04
      0.480000          0.823780E-04
      0.485000          0.806745E-04
      0.490000          0.789298E-04
      0.495000          0.772056E-04
      0.500000          0.755756E-04
