 I_abs(s)[cm^-1]/c[mg/ml]
       0.00000          0.115671E-01
      0.500000E-02      0.112875E-01
      0.100000E-01      0.105019E-01
      0.150000E-01      0.935498E-02
      0.200000E-01      0.804354E-02
      0.250000E-01      0.676588E-02
      0.300000E-01      0.567525E-02
      0.350000E-01      0.485136E-02
      0.400000E-01      0.429633E-02
      0.450000E-01      0.395268E-02
      0.500000E-01      0.373432E-02
      0.550000E-01      0.355854E-02
      0.600000E-01      0.336874E-02
      0.650000E-01      0.314284E-02
      0.700000E-01      0.288824E-02
      0.750000E-01      0.262852E-02
      0.800000E-01      0.238888E-02
      0.850000E-01      0.218574E-02
      0.900000E-01      0.202305E-02
      0.950000E-01      0.189448E-02
      0.100000          0.178870E-02
      0.105000          0.169470E-02
      0.110000          0.160506E-02
      0.115000          0.151660E-02
      0.120000          0.142931E-02
      0.125000          0.134466E-02
      0.130000          0.126435E-02
      0.135000          0.118976E-02
      0.140000          0.112189E-02
      0.145000          0.106135E-02
      0.150000          0.100823E-02
      0.155000          0.961810E-03
      0.160000          0.920511E-03
      0.165000          0.882122E-03
      0.170000          0.844454E-03
      0.175000          0.806073E-03
      0.180000          0.766784E-03
      0.185000          0.727599E-03
      0.190000          0.690198E-03
      0.195000          0.656134E-03
      0.200000          0.626145E-03
      0.205000          0.599873E-03
      0.210000          0.576069E-03
      0.215000          0.553156E-03
      0.220000          0.529859E-03
      0.225000          0.505628E-03
      0.230000          0.480715E-03
      0.235000          0.455931E-03
      0.240000          0.432224E-03
      0.245000          0.410289E-03
      0.250000          0.390353E-03
      0.255000          0.372173E-03
      0.260000          0.355222E-03
      0.265000          0.338939E-03
      0.270000          0.322938E-03
      0.275000          0.307122E-03
      0.280000          0.291662E-03
      0.285000          0.276887E-03
      0.290000          0.263125E-03
      0.295000          0.250578E-03
      0.300000          0.239249E-03
      0.305000          0.228952E-03
      0.310000          0.219389E-03
      0.315000          0.210256E-03
      0.320000          0.201331E-03
      0.325000          0.192528E-03
      0.330000          0.183894E-03
      0.335000          0.175560E-03
      0.340000          0.167687E-03
      0.345000          0.160399E-03
      0.350000          0.153758E-03
      0.355000          0.147737E-03
      0.360000          0.142234E-03
      0.365000          0.137077E-03
      0.370000          0.132065E-03
      0.375000          0.127015E-03
      0.380000          0.121824E-03
      0.385000          0.116517E-03
      0.390000          0.111266E-03
      0.395000          0.106356E-03
      0.400000          0.102090E-03
      0.405000          0.986852E-04
      0.410000          0.961815E-04
      0.415000          0.944151E-04
      0.420000          0.930698E-04
      0.425000          0.917832E-04
      0.430000          0.902640E-04
      0.435000          0.883708E-04
      0.440000          0.861250E-04
      0.445000          0.836640E-04
      0.450000          0.811639E-04
      0.455000          0.787721E-04
      0.460000          0.765731E-04
      0.465000          0.745916E-04
      0.470000          0.728152E-04
      0.475000          0.712168E-04
      0.480000          0.697648E-04
      0.485000          0.684225E-04
      0.490000          0.671475E-04
      0.495000          0.658993E-04
      0.500000          0.646540E-04
