 I_abs(s)[cm^-1]/c[mg/ml]
       0.00000          0.120466E-01
      0.500000E-02      0.117542E-01
      0.100000E-01      0.109378E-01
      0.150000E-01      0.976054E-02
      0.200000E-01      0.843714E-02
      0.250000E-01      0.717150E-02
      0.300000E-01      0.610529E-02
      0.350000E-01      0.529415E-02
      0.400000E-01      0.471568E-02
      0.450000E-01      0.430051E-02
      0.500000E-01      0.397062E-02
      0.550000E-01      0.366881E-02
      0.600000E-01      0.337069E-02
      0.650000E-01      0.307942E-02
      0.700000E-01      0.281067E-02
      0.750000E-01      0.257750E-02
      0.800000E-01      0.238218E-02
      0.850000E-01      0.221660E-02
      0.900000E-01      0.206836E-02
      0.950000E-01      0.192766E-02
      0.100000          0.179098E-02
      0.105000          0.166051E-02
      0.110000          0.154073E-02
      0.115000          0.143477E-02
      0.120000          0.134262E-02
      0.125000          0.126152E-02
      0.130000          0.118793E-02
      0.135000          0.111928E-02
      0.140000          0.105488E-02
      0.145000          0.995425E-03
      0.150000          0.942015E-03
      0.155000          0.895139E-03
      0.160000          0.854285E-03
      0.165000          0.818126E-03
      0.170000          0.785038E-03
      0.175000          0.753595E-03
      0.180000          0.722868E-03
      0.185000          0.692504E-03
      0.190000          0.662651E-03
      0.195000          0.633802E-03
      0.200000          0.606570E-03
      0.205000          0.581427E-03
      0.210000          0.558470E-03
      0.215000          0.537300E-03
      0.220000          0.517107E-03
      0.225000          0.496933E-03
      0.230000          0.476017E-03
      0.235000          0.454050E-03
      0.240000          0.431234E-03
      0.245000          0.408132E-03
      0.250000          0.385389E-03
      0.255000          0.363490E-03
      0.260000          0.342641E-03
      0.265000          0.322823E-03
      0.270000          0.303930E-03
      0.275000          0.285916E-03
      0.280000          0.268842E-03
      0.285000          0.252840E-03
      0.290000          0.238020E-03
      0.295000          0.224396E-03
      0.300000          0.211891E-03
      0.305000          0.200388E-03
      0.310000          0.189803E-03
      0.315000          0.180108E-03
      0.320000          0.171299E-03
      0.325000          0.163338E-03
      0.330000          0.156125E-03
      0.335000          0.149517E-03
      0.340000          0.143386E-03
      0.345000          0.137671E-03
      0.350000          0.132374E-03
      0.355000          0.127512E-03
      0.360000          0.123065E-03
      0.365000          0.118963E-03
      0.370000          0.115117E-03
      0.375000          0.111476E-03
      0.380000          0.108056E-03
      0.385000          0.104904E-03
      0.390000          0.102044E-03
      0.395000          0.994276E-04
      0.400000          0.969431E-04
      0.405000          0.944645E-04
      0.410000          0.919183E-04
      0.415000          0.893182E-04
      0.420000          0.867531E-04
      0.425000          0.843399E-04
      0.430000          0.821712E-04
      0.435000          0.802821E-04
      0.440000          0.786447E-04
      0.445000          0.771865E-04
      0.450000          0.758207E-04
      0.455000          0.744765E-04
      0.460000          0.731223E-04
      0.465000          0.717716E-04
      0.470000          0.704705E-04
      0.475000          0.692730E-04
      0.480000          0.682155E-04
      0.485000          0.673027E-04
      0.490000          0.665098E-04
      0.495000          0.657945E-04
      0.500000          0.651106E-04
