 I_abs(s)[cm^-1]/c[mg/ml]
       0.00000          0.115742E-01
      0.500000E-02      0.112761E-01
      0.100000E-01      0.104420E-01
      0.150000E-01      0.923433E-02
      0.200000E-01      0.786850E-02
      0.250000E-01      0.655306E-02
      0.300000E-01      0.543862E-02
      0.350000E-01      0.459268E-02
      0.400000E-01      0.400436E-02
      0.450000E-01      0.361189E-02
      0.500000E-01      0.333817E-02
      0.550000E-01      0.311973E-02
      0.600000E-01      0.292059E-02
      0.650000E-01      0.273027E-02
      0.700000E-01      0.255257E-02
      0.750000E-01      0.239307E-02
      0.800000E-01      0.225189E-02
      0.850000E-01      0.212326E-02
      0.900000E-01      0.199972E-02
      0.950000E-01      0.187676E-02
      0.100000          0.175492E-02
      0.105000          0.163849E-02
      0.110000          0.153231E-02
      0.115000          0.143881E-02
      0.120000          0.135699E-02
      0.125000          0.128345E-02
      0.130000          0.121438E-02
      0.135000          0.114734E-02
      0.140000          0.108190E-02
      0.145000          0.101906E-02
      0.150000          0.960327E-03
      0.155000          0.906807E-03
      0.160000          0.858890E-03
      0.165000          0.816329E-03
      0.170000          0.778460E-03
      0.175000          0.744337E-03
      0.180000          0.712793E-03
      0.185000          0.682544E-03
      0.190000          0.652444E-03
      0.195000          0.621804E-03
      0.200000          0.590609E-03
      0.205000          0.559453E-03
      0.210000          0.529199E-03
      0.215000          0.500537E-03
      0.220000          0.473699E-03
      0.225000          0.448468E-03
      0.230000          0.424443E-03
      0.235000          0.401369E-03
      0.240000          0.379301E-03
      0.245000          0.358538E-03
      0.250000          0.339372E-03
      0.255000          0.321863E-03
      0.260000          0.305770E-03
      0.265000          0.290674E-03
      0.270000          0.276196E-03
      0.275000          0.262160E-03
      0.280000          0.248605E-03
      0.285000          0.235676E-03
      0.290000          0.223478E-03
      0.295000          0.212013E-03
      0.300000          0.201209E-03
      0.305000          0.191021E-03
      0.310000          0.181489E-03
      0.315000          0.172723E-03
      0.320000          0.164808E-03
      0.325000          0.157716E-03
      0.330000          0.151277E-03
      0.335000          0.145244E-03
      0.340000          0.139420E-03
      0.345000          0.133748E-03
      0.350000          0.128341E-03
      0.355000          0.123416E-03
      0.360000          0.119176E-03
      0.365000          0.115695E-03
      0.370000          0.112862E-03
      0.375000          0.110397E-03
      0.380000          0.107931E-03
      0.385000          0.105125E-03
      0.390000          0.101780E-03
      0.395000          0.979003E-04
      0.400000          0.936913E-04
      0.405000          0.894822E-04
      0.410000          0.856094E-04
      0.415000          0.823052E-04
      0.420000          0.796385E-04
      0.425000          0.775276E-04
      0.430000          0.758084E-04
      0.435000          0.743174E-04
      0.440000          0.729490E-04
      0.445000          0.716689E-04
      0.450000          0.704899E-04
      0.455000          0.694360E-04
      0.460000          0.685132E-04
      0.465000          0.676948E-04
      0.470000          0.669204E-04
      0.475000          0.661020E-04
      0.480000          0.651406E-04
      0.485000          0.639525E-04
      0.490000          0.625005E-04
      0.495000          0.608160E-04
      0.500000          0.589971E-04
