 I_abs(s)[cm^-1]/c[mg/ml]
       0.00000          0.121118E-01
      0.500000E-02      0.118582E-01
      0.100000E-01      0.111434E-01
      0.150000E-01      0.100924E-01
      0.200000E-01      0.887450E-02
      0.250000E-01      0.765922E-02
      0.300000E-01      0.657730E-02
      0.350000E-01      0.569835E-02
      0.400000E-01      0.502969E-02
      0.450000E-01      0.453296E-02
      0.500000E-01      0.414961E-02
      0.550000E-01      0.382479E-02
      0.600000E-01      0.352235E-02
      0.650000E-01      0.322836E-02
      0.700000E-01      0.294558E-02
      0.750000E-01      0.268403E-02
      0.800000E-01      0.245253E-02
      0.850000E-01      0.225443E-02
      0.900000E-01      0.208744E-02
      0.950000E-01      0.194608E-02
      0.100000          0.182448E-02
      0.105000          0.171804E-02
      0.110000          0.162364E-02
      0.115000          0.153900E-02
      0.120000          0.146201E-02
      0.125000          0.139057E-02
      0.130000          0.132283E-02
      0.135000          0.125755E-02
      0.140000          0.119425E-02
      0.145000          0.113299E-02
      0.150000          0.107403E-02
      0.155000          0.101753E-02
      0.160000          0.963513E-03
      0.165000          0.911939E-03
      0.170000          0.862851E-03
      0.175000          0.816369E-03
      0.180000          0.772560E-03
      0.185000          0.731310E-03
      0.190000          0.692293E-03
      0.195000          0.655100E-03
      0.200000          0.619445E-03
      0.205000          0.585317E-03
      0.210000          0.552966E-03
      0.215000          0.522737E-03
      0.220000          0.494839E-03
      0.225000          0.469194E-03
      0.230000          0.445440E-03
      0.235000          0.423073E-03
      0.240000          0.401644E-03
      0.245000          0.380893E-03
      0.250000          0.360785E-03
      0.255000          0.341441E-03
      0.260000          0.323033E-03
      0.265000          0.305704E-03
      0.270000          0.289533E-03
      0.275000          0.274530E-03
      0.280000          0.260647E-03
      0.285000          0.247787E-03
      0.290000          0.235809E-03
      0.295000          0.224552E-03
      0.300000          0.213881E-03
      0.305000          0.203728E-03
      0.310000          0.194110E-03
      0.315000          0.185100E-03
      0.320000          0.176765E-03
      0.325000          0.169101E-03
      0.330000          0.162000E-03
      0.335000          0.155281E-03
      0.340000          0.148759E-03
      0.345000          0.142325E-03
      0.350000          0.135985E-03
      0.355000          0.129849E-03
      0.360000          0.124067E-03
      0.365000          0.118759E-03
      0.370000          0.113969E-03
      0.375000          0.109677E-03
      0.380000          0.105828E-03
      0.385000          0.102390E-03
      0.390000          0.993635E-04
      0.395000          0.967663E-04
      0.400000          0.945900E-04
      0.405000          0.927630E-04
      0.410000          0.911482E-04
      0.415000          0.895784E-04
      0.420000          0.879117E-04
      0.425000          0.860787E-04
      0.430000          0.840975E-04
      0.435000          0.820545E-04
      0.440000          0.800640E-04
      0.445000          0.782270E-04
      0.450000          0.766055E-04
      0.455000          0.752159E-04
      0.460000          0.740374E-04
      0.465000          0.730260E-04
      0.470000          0.721294E-04
      0.475000          0.712975E-04
      0.480000          0.704886E-04
      0.485000          0.696697E-04
      0.490000          0.688147E-04
      0.495000          0.679007E-04
      0.500000          0.669076E-04
