 I_abs(s)[cm^-1]/c[mg/ml]
       0.00000          0.141639E-01
      0.500000E-02      0.141060E-01
      0.100000E-01      0.139340E-01
      0.150000E-01      0.136528E-01
      0.200000E-01      0.132704E-01
      0.250000E-01      0.127973E-01
      0.300000E-01      0.122463E-01
      0.350000E-01      0.116317E-01
      0.400000E-01      0.109688E-01
      0.450000E-01      0.102732E-01
      0.500000E-01      0.956007E-02
      0.550000E-01      0.884386E-02
      0.600000E-01      0.813755E-02
      0.650000E-01      0.745242E-02
      0.700000E-01      0.679774E-02
      0.750000E-01      0.618064E-02
      0.800000E-01      0.560612E-02
      0.850000E-01      0.507707E-02
      0.900000E-01      0.459456E-02
      0.950000E-01      0.415798E-02
      0.100000          0.376543E-02
      0.105000          0.341400E-02
      0.110000          0.310007E-02
      0.115000          0.281970E-02
      0.120000          0.256882E-02
      0.125000          0.234349E-02
      0.130000          0.214006E-02
      0.135000          0.195531E-02
      0.140000          0.178651E-02
      0.145000          0.163142E-02
      0.150000          0.148829E-02
      0.155000          0.135582E-02
      0.160000          0.123307E-02
      0.165000          0.111938E-02
      0.170000          0.101433E-02
      0.175000          0.917613E-03
      0.180000          0.829004E-03
      0.185000          0.748289E-03
      0.190000          0.675232E-03
      0.195000          0.609549E-03
      0.200000          0.550896E-03
      0.205000          0.498865E-03
      0.210000          0.452994E-03
      0.215000          0.412775E-03
      0.220000          0.377677E-03
      0.225000          0.347152E-03
      0.230000          0.320662E-03
      0.235000          0.297688E-03
      0.240000          0.277740E-03
      0.245000          0.260372E-03
      0.250000          0.245182E-03
      0.255000          0.231819E-03
      0.260000          0.219982E-03
      0.265000          0.209419E-03
      0.270000          0.199922E-03
      0.275000          0.191325E-03
      0.280000          0.183501E-03
      0.285000          0.176349E-03
      0.290000          0.169797E-03
      0.295000          0.163791E-03
      0.300000          0.158291E-03
      0.305000          0.153269E-03
      0.310000          0.148702E-03
      0.315000          0.144568E-03
      0.320000          0.140846E-03
      0.325000          0.137515E-03
      0.330000          0.134549E-03
      0.335000          0.131919E-03
      0.340000          0.129594E-03
      0.345000          0.127540E-03
      0.350000          0.125722E-03
      0.355000          0.124104E-03
      0.360000          0.122650E-03
      0.365000          0.121327E-03
      0.370000          0.120105E-03
      0.375000          0.118956E-03
      0.380000          0.117858E-03
      0.385000          0.116792E-03
      0.390000          0.115742E-03
      0.395000          0.114700E-03
      0.400000          0.113659E-03
      0.405000          0.112617E-03
      0.410000          0.111576E-03
      0.415000          0.110539E-03
      0.420000          0.109513E-03
      0.425000          0.108508E-03
      0.430000          0.107535E-03
      0.435000          0.106605E-03
      0.440000          0.105733E-03
      0.445000          0.104932E-03
      0.450000          0.104215E-03
      0.455000          0.103596E-03
      0.460000          0.103087E-03
      0.465000          0.102696E-03
      0.470000          0.102431E-03
      0.475000          0.102295E-03
      0.480000          0.102286E-03
      0.485000          0.102398E-03
      0.490000          0.102621E-03
      0.495000          0.102938E-03
      0.500000          0.103328E-03
