 I_abs(s)[cm^-1]/c[mg/ml]
       0.00000          0.139064E-01
      0.500000E-02      0.138531E-01
      0.100000E-01      0.136946E-01
      0.150000E-01      0.134351E-01
      0.200000E-01      0.130813E-01
      0.250000E-01      0.126421E-01
      0.300000E-01      0.121286E-01
      0.350000E-01      0.115532E-01
      0.400000E-01      0.109294E-01
      0.450000E-01      0.102709E-01
      0.500000E-01      0.959173E-02
      0.550000E-01      0.890524E-02
      0.600000E-01      0.822385E-02
      0.650000E-01      0.755864E-02
      0.700000E-01      0.691913E-02
      0.750000E-01      0.631300E-02
      0.800000E-01      0.574604E-02
      0.850000E-01      0.522213E-02
      0.900000E-01      0.474328E-02
      0.950000E-01      0.430984E-02
      0.100000          0.392068E-02
      0.105000          0.357345E-02
      0.110000          0.326487E-02
      0.115000          0.299102E-02
      0.120000          0.274762E-02
      0.125000          0.253033E-02
      0.130000          0.233493E-02
      0.135000          0.215754E-02
      0.140000          0.199477E-02
      0.145000          0.184376E-02
      0.150000          0.170228E-02
      0.155000          0.156869E-02
      0.160000          0.144191E-02
      0.165000          0.132134E-02
      0.170000          0.120678E-02
      0.175000          0.109833E-02
      0.180000          0.996274E-03
      0.185000          0.900969E-03
      0.190000          0.812785E-03
      0.195000          0.732008E-03
      0.200000          0.658801E-03
      0.205000          0.593162E-03
      0.210000          0.534916E-03
      0.215000          0.483717E-03
      0.220000          0.439070E-03
      0.225000          0.400360E-03
      0.230000          0.366888E-03
      0.235000          0.337918E-03
      0.240000          0.312709E-03
      0.245000          0.290560E-03
      0.250000          0.270835E-03
      0.255000          0.252986E-03
      0.260000          0.236571E-03
      0.265000          0.221254E-03
      0.270000          0.206806E-03
      0.275000          0.193092E-03
      0.280000          0.180064E-03
      0.285000          0.167732E-03
      0.290000          0.156155E-03
      0.295000          0.145415E-03
      0.300000          0.135599E-03
      0.305000          0.126786E-03
      0.310000          0.119037E-03
      0.315000          0.112379E-03
      0.320000          0.106808E-03
      0.325000          0.102285E-03
      0.330000          0.987382E-04
      0.335000          0.960696E-04
      0.340000          0.941596E-04
      0.345000          0.928757E-04
      0.350000          0.920804E-04
      0.355000          0.916388E-04
      0.360000          0.914249E-04
      0.365000          0.913274E-04
      0.370000          0.912539E-04
      0.375000          0.911328E-04
      0.380000          0.909148E-04
      0.385000          0.905721E-04
      0.390000          0.900970E-04
      0.395000          0.894991E-04
      0.400000          0.888023E-04
      0.405000          0.880413E-04
      0.410000          0.872575E-04
      0.415000          0.864959E-04
      0.420000          0.858010E-04
      0.425000          0.852147E-04
      0.430000          0.847732E-04
      0.435000          0.845054E-04
      0.440000          0.844312E-04
      0.445000          0.845612E-04
      0.450000          0.848958E-04
      0.455000          0.854260E-04
      0.460000          0.861338E-04
      0.465000          0.869932E-04
      0.470000          0.879715E-04
      0.475000          0.890311E-04
      0.480000          0.901308E-04
      0.485000          0.912283E-04
      0.490000          0.922814E-04
      0.495000          0.932503E-04
      0.500000          0.940991E-04
