 I_abs(s)[cm^-1]/c[mg/ml]
       0.00000          0.141248E-01
      0.500000E-02      0.140743E-01
      0.100000E-01      0.139241E-01
      0.150000E-01      0.136776E-01
      0.200000E-01      0.133404E-01
      0.250000E-01      0.129203E-01
      0.300000E-01      0.124265E-01
      0.350000E-01      0.118696E-01
      0.400000E-01      0.112613E-01
      0.450000E-01      0.106139E-01
      0.500000E-01      0.993977E-02
      0.550000E-01      0.925105E-02
      0.600000E-01      0.855938E-02
      0.650000E-01      0.787550E-02
      0.700000E-01      0.720897E-02
      0.750000E-01      0.656798E-02
      0.800000E-01      0.595923E-02
      0.850000E-01      0.538785E-02
      0.900000E-01      0.485742E-02
      0.950000E-01      0.437000E-02
      0.100000          0.392626E-02
      0.105000          0.352565E-02
      0.110000          0.316659E-02
      0.115000          0.284666E-02
      0.120000          0.256283E-02
      0.125000          0.231170E-02
      0.130000          0.208965E-02
      0.135000          0.189308E-02
      0.140000          0.171852E-02
      0.145000          0.156275E-02
      0.150000          0.142292E-02
      0.155000          0.129657E-02
      0.160000          0.118167E-02
      0.165000          0.107660E-02
      0.170000          0.980126E-03
      0.175000          0.891357E-03
      0.180000          0.809677E-03
      0.185000          0.734686E-03
      0.190000          0.666133E-03
      0.195000          0.603851E-03
      0.200000          0.547707E-03
      0.205000          0.497556E-03
      0.210000          0.453204E-03
      0.215000          0.414394E-03
      0.220000          0.380792E-03
      0.225000          0.351991E-03
      0.230000          0.327516E-03
      0.235000          0.306847E-03
      0.240000          0.289434E-03
      0.245000          0.274721E-03
      0.250000          0.262168E-03
      0.255000          0.251270E-03
      0.260000          0.241579E-03
      0.265000          0.232708E-03
      0.270000          0.224345E-03
      0.275000          0.216254E-03
      0.280000          0.208275E-03
      0.285000          0.200315E-03
      0.290000          0.192343E-03
      0.295000          0.184377E-03
      0.300000          0.176476E-03
      0.305000          0.168720E-03
      0.310000          0.161207E-03
      0.315000          0.154036E-03
      0.320000          0.147303E-03
      0.325000          0.141087E-03
      0.330000          0.135454E-03
      0.335000          0.130444E-03
      0.340000          0.126079E-03
      0.345000          0.122357E-03
      0.350000          0.119258E-03
      0.355000          0.116742E-03
      0.360000          0.114757E-03
      0.365000          0.113243E-03
      0.370000          0.112130E-03
      0.375000          0.111349E-03
      0.380000          0.110828E-03
      0.385000          0.110502E-03
      0.390000          0.110309E-03
      0.395000          0.110195E-03
      0.400000          0.110116E-03
      0.405000          0.110034E-03
      0.410000          0.109922E-03
      0.415000          0.109761E-03
      0.420000          0.109540E-03
      0.425000          0.109256E-03
      0.430000          0.108912E-03
      0.435000          0.108515E-03
      0.440000          0.108078E-03
      0.445000          0.107615E-03
      0.450000          0.107140E-03
      0.455000          0.106671E-03
      0.460000          0.106223E-03
      0.465000          0.105808E-03
      0.470000          0.105438E-03
      0.475000          0.105121E-03
      0.480000          0.104861E-03
      0.485000          0.104659E-03
      0.490000          0.104514E-03
      0.495000          0.104419E-03
      0.500000          0.104367E-03
