 I_abs(s)[cm^-1]/c[mg/ml]
       0.00000          0.140700E-01
      0.500000E-02      0.140205E-01
      0.100000E-01      0.138731E-01
      0.150000E-01      0.136313E-01
      0.200000E-01      0.133006E-01
      0.250000E-01      0.128888E-01
      0.300000E-01      0.124049E-01
      0.350000E-01      0.118595E-01
      0.400000E-01      0.112641E-01
      0.450000E-01      0.106307E-01
      0.500000E-01      0.997147E-02
      0.550000E-01      0.929819E-02
      0.600000E-01      0.862216E-02
      0.650000E-01      0.795370E-02
      0.700000E-01      0.730198E-02
      0.750000E-01      0.667479E-02
      0.800000E-01      0.607843E-02
      0.850000E-01      0.551771E-02
      0.900000E-01      0.499589E-02
      0.950000E-01      0.451485E-02
      0.100000          0.407511E-02
      0.105000          0.367611E-02
      0.110000          0.331630E-02
      0.115000          0.299341E-02
      0.120000          0.270464E-02
      0.125000          0.244685E-02
      0.130000          0.221676E-02
      0.135000          0.201111E-02
      0.140000          0.182677E-02
      0.145000          0.166088E-02
      0.150000          0.151089E-02
      0.155000          0.137460E-02
      0.160000          0.125017E-02
      0.165000          0.113615E-02
      0.170000          0.103137E-02
      0.175000          0.934994E-03
      0.180000          0.846383E-03
      0.185000          0.765092E-03
      0.190000          0.690797E-03
      0.195000          0.623253E-03
      0.200000          0.562245E-03
      0.205000          0.507560E-03
      0.210000          0.458956E-03
      0.215000          0.416151E-03
      0.220000          0.378814E-03
      0.225000          0.346562E-03
      0.230000          0.318970E-03
      0.235000          0.295579E-03
      0.240000          0.275909E-03
      0.245000          0.259475E-03
      0.250000          0.245797E-03
      0.255000          0.234418E-03
      0.260000          0.224912E-03
      0.265000          0.216895E-03
      0.270000          0.210028E-03
      0.275000          0.204022E-03
      0.280000          0.198639E-03
      0.285000          0.193691E-03
      0.290000          0.189034E-03
      0.295000          0.184566E-03
      0.300000          0.180223E-03
      0.305000          0.175968E-03
      0.310000          0.171787E-03
      0.315000          0.167686E-03
      0.320000          0.163682E-03
      0.325000          0.159797E-03
      0.330000          0.156060E-03
      0.335000          0.152496E-03
      0.340000          0.149128E-03
      0.345000          0.145974E-03
      0.350000          0.143046E-03
      0.355000          0.140348E-03
      0.360000          0.137879E-03
      0.365000          0.135629E-03
      0.370000          0.133584E-03
      0.375000          0.131723E-03
      0.380000          0.130023E-03
      0.385000          0.128458E-03
      0.390000          0.127001E-03
      0.395000          0.125625E-03
      0.400000          0.124306E-03
      0.405000          0.123021E-03
      0.410000          0.121750E-03
      0.415000          0.120482E-03
      0.420000          0.119206E-03
      0.425000          0.117919E-03
      0.430000          0.116622E-03
      0.435000          0.115321E-03
      0.440000          0.114027E-03
      0.445000          0.112753E-03
      0.450000          0.111514E-03
      0.455000          0.110327E-03
      0.460000          0.109206E-03
      0.465000          0.108167E-03
      0.470000          0.107219E-03
      0.475000          0.106372E-03
      0.480000          0.105627E-03
      0.485000          0.104984E-03
      0.490000          0.104436E-03
      0.495000          0.103973E-03
      0.500000          0.103580E-03
