 I_abs(s)[cm^-1]/c[mg/ml]
       0.00000          0.141561E-01
      0.500000E-02      0.141068E-01
      0.100000E-01      0.139600E-01
      0.150000E-01      0.137190E-01
      0.200000E-01      0.133892E-01
      0.250000E-01      0.129779E-01
      0.300000E-01      0.124940E-01
      0.350000E-01      0.119478E-01
      0.400000E-01      0.113505E-01
      0.450000E-01      0.107138E-01
      0.500000E-01      0.100498E-01
      0.550000E-01      0.937035E-02
      0.600000E-01      0.868679E-02
      0.650000E-01      0.800967E-02
      0.700000E-01      0.734847E-02
      0.750000E-01      0.671137E-02
      0.800000E-01      0.610514E-02
      0.850000E-01      0.553505E-02
      0.900000E-01      0.500485E-02
      0.950000E-01      0.451682E-02
      0.100000          0.407187E-02
      0.105000          0.366964E-02
      0.110000          0.330875E-02
      0.115000          0.298692E-02
      0.120000          0.270122E-02
      0.125000          0.244827E-02
      0.130000          0.222444E-02
      0.135000          0.202603E-02
      0.140000          0.184943E-02
      0.145000          0.169128E-02
      0.150000          0.154851E-02
      0.155000          0.141847E-02
      0.160000          0.129894E-02
      0.165000          0.118815E-02
      0.170000          0.108474E-02
      0.175000          0.987745E-03
      0.180000          0.896549E-03
      0.185000          0.810806E-03
      0.190000          0.730382E-03
      0.195000          0.655288E-03
      0.200000          0.585615E-03
      0.205000          0.521484E-03
      0.210000          0.462994E-03
      0.215000          0.410191E-03
      0.220000          0.363041E-03
      0.225000          0.321420E-03
      0.230000          0.285111E-03
      0.235000          0.253806E-03
      0.240000          0.227126E-03
      0.245000          0.204632E-03
      0.250000          0.185848E-03
      0.255000          0.170283E-03
      0.260000          0.157451E-03
      0.265000          0.146886E-03
      0.270000          0.138163E-03
      0.275000          0.130906E-03
      0.280000          0.124793E-03
      0.285000          0.119566E-03
      0.290000          0.115023E-03
      0.295000          0.111019E-03
      0.300000          0.107459E-03
      0.305000          0.104290E-03
      0.310000          0.101488E-03
      0.315000          0.990559E-04
      0.320000          0.970089E-04
      0.325000          0.953680E-04
      0.330000          0.941533E-04
      0.335000          0.933780E-04
      0.340000          0.930450E-04
      0.345000          0.931447E-04
      0.350000          0.936539E-04
      0.355000          0.945370E-04
      0.360000          0.957472E-04
      0.365000          0.972296E-04
      0.370000          0.989235E-04
      0.375000          0.100766E-03
      0.380000          0.102696E-03
      0.385000          0.104656E-03
      0.390000          0.106594E-03
      0.395000          0.108469E-03
      0.400000          0.110246E-03
      0.405000          0.111904E-03
      0.410000          0.113431E-03
      0.415000          0.114824E-03
      0.420000          0.116091E-03
      0.425000          0.117245E-03
      0.430000          0.118304E-03
      0.435000          0.119293E-03
      0.440000          0.120233E-03
      0.445000          0.121147E-03
      0.450000          0.122055E-03
      0.455000          0.122974E-03
      0.460000          0.123912E-03
      0.465000          0.124873E-03
      0.470000          0.125853E-03
      0.475000          0.126841E-03
      0.480000          0.127820E-03
      0.485000          0.128768E-03
      0.490000          0.129654E-03
      0.495000          0.130449E-03
      0.500000          0.131118E-03
