 I_abs(s)[cm^-1]/c[mg/ml]
       0.00000          0.138211E-01
      0.500000E-02      0.137717E-01
      0.100000E-01      0.136249E-01
      0.150000E-01      0.133841E-01
      0.200000E-01      0.130550E-01
      0.250000E-01      0.126454E-01
      0.300000E-01      0.121644E-01
      0.350000E-01      0.116230E-01
      0.400000E-01      0.110326E-01
      0.450000E-01      0.104056E-01
      0.500000E-01      0.975419E-02
      0.550000E-01      0.909054E-02
      0.600000E-01      0.842605E-02
      0.650000E-01      0.777120E-02
      0.700000E-01      0.713524E-02
      0.750000E-01      0.652599E-02
      0.800000E-01      0.594973E-02
      0.850000E-01      0.541114E-02
      0.900000E-01      0.491327E-02
      0.950000E-01      0.445768E-02
      0.100000          0.404453E-02
      0.105000          0.367276E-02
      0.110000          0.334032E-02
      0.115000          0.304436E-02
      0.120000          0.278149E-02
      0.125000          0.254798E-02
      0.130000          0.234001E-02
      0.135000          0.215382E-02
      0.140000          0.198588E-02
      0.145000          0.183299E-02
      0.150000          0.169242E-02
      0.155000          0.156187E-02
      0.160000          0.143958E-02
      0.165000          0.132423E-02
      0.170000          0.121496E-02
      0.175000          0.111127E-02
      0.180000          0.101297E-02
      0.185000          0.920088E-03
      0.190000          0.832816E-03
      0.195000          0.751408E-03
      0.200000          0.676127E-03
      0.205000          0.607189E-03
      0.210000          0.544724E-03
      0.215000          0.488745E-03
      0.220000          0.439134E-03
      0.225000          0.395645E-03
      0.230000          0.357908E-03
      0.235000          0.325454E-03
      0.240000          0.297729E-03
      0.245000          0.274134E-03
      0.250000          0.254043E-03
      0.255000          0.236838E-03
      0.260000          0.221931E-03
      0.265000          0.208788E-03
      0.270000          0.196941E-03
      0.275000          0.186002E-03
      0.280000          0.175669E-03
      0.285000          0.165723E-03
      0.290000          0.156025E-03
      0.295000          0.146509E-03
      0.300000          0.137167E-03
      0.305000          0.128042E-03
      0.310000          0.119208E-03
      0.315000          0.110761E-03
      0.320000          0.102806E-03
      0.325000          0.954426E-04
      0.330000          0.887597E-04
      0.335000          0.828265E-04
      0.340000          0.776886E-04
      0.345000          0.733661E-04
      0.350000          0.698531E-04
      0.355000          0.671197E-04
      0.360000          0.651153E-04
      0.365000          0.637726E-04
      0.370000          0.630130E-04
      0.375000          0.627509E-04
      0.380000          0.628994E-04
      0.385000          0.633747E-04
      0.390000          0.640996E-04
      0.395000          0.650066E-04
      0.400000          0.660402E-04
      0.405000          0.671575E-04
      0.410000          0.683287E-04
      0.415000          0.695361E-04
      0.420000          0.707731E-04
      0.425000          0.720418E-04
      0.430000          0.733508E-04
      0.435000          0.747133E-04
      0.440000          0.761439E-04
      0.445000          0.776567E-04
      0.450000          0.792636E-04
      0.455000          0.809718E-04
      0.460000          0.827836E-04
      0.465000          0.846950E-04
      0.470000          0.866957E-04
      0.475000          0.887692E-04
      0.480000          0.908935E-04
      0.485000          0.930417E-04
      0.490000          0.951834E-04
      0.495000          0.972858E-04
      0.500000          0.993152E-04
