 I_abs(s)[cm^-1]/c[mg/ml]
       0.00000          0.139686E-01
      0.500000E-02      0.139201E-01
      0.100000E-01      0.137755E-01
      0.150000E-01      0.135382E-01
      0.200000E-01      0.132135E-01
      0.250000E-01      0.128087E-01
      0.300000E-01      0.123326E-01
      0.350000E-01      0.117954E-01
      0.400000E-01      0.112080E-01
      0.450000E-01      0.105822E-01
      0.500000E-01      0.992996E-02
      0.550000E-01      0.926290E-02
      0.600000E-01      0.859227E-02
      0.650000E-01      0.792847E-02
      0.700000E-01      0.728083E-02
      0.750000E-01      0.665738E-02
      0.800000E-01      0.606475E-02
      0.850000E-01      0.550806E-02
      0.900000E-01      0.499092E-02
      0.950000E-01      0.451547E-02
      0.100000          0.408247E-02
      0.105000          0.369148E-02
      0.110000          0.334097E-02
      0.115000          0.302857E-02
      0.120000          0.275129E-02
      0.125000          0.250567E-02
      0.130000          0.228804E-02
      0.135000          0.209470E-02
      0.140000          0.192204E-02
      0.145000          0.176673E-02
      0.150000          0.162576E-02
      0.155000          0.149657E-02
      0.160000          0.137703E-02
      0.165000          0.126547E-02
      0.170000          0.116065E-02
      0.175000          0.106174E-02
      0.180000          0.968244E-03
      0.185000          0.879921E-03
      0.190000          0.796744E-03
      0.195000          0.718812E-03
      0.200000          0.646288E-03
      0.205000          0.579340E-03
      0.210000          0.518100E-03
      0.215000          0.462625E-03
      0.220000          0.412876E-03
      0.225000          0.368712E-03
      0.230000          0.329886E-03
      0.235000          0.296063E-03
      0.240000          0.266828E-03
      0.245000          0.241715E-03
      0.250000          0.220229E-03
      0.255000          0.201869E-03
      0.260000          0.186153E-03
      0.265000          0.172633E-03
      0.270000          0.160915E-03
      0.275000          0.150664E-03
      0.280000          0.141610E-03
      0.285000          0.133551E-03
      0.290000          0.126343E-03
      0.295000          0.119897E-03
      0.300000          0.114165E-03
      0.305000          0.109133E-03
      0.310000          0.104802E-03
      0.315000          0.101184E-03
      0.320000          0.982858E-04
      0.325000          0.961049E-04
      0.330000          0.946215E-04
      0.335000          0.937962E-04
      0.340000          0.935685E-04
      0.345000          0.938590E-04
      0.350000          0.945720E-04
      0.355000          0.956010E-04
      0.360000          0.968340E-04
      0.365000          0.981597E-04
      0.370000          0.994737E-04
      0.375000          0.100684E-03
      0.380000          0.101715E-03
      0.385000          0.102512E-03
      0.390000          0.103042E-03
      0.395000          0.103294E-03
      0.400000          0.103278E-03
      0.405000          0.103025E-03
      0.410000          0.102582E-03
      0.415000          0.102007E-03
      0.420000          0.101367E-03
      0.425000          0.100730E-03
      0.430000          0.100164E-03
      0.435000          0.997299E-04
      0.440000          0.994797E-04
      0.445000          0.994520E-04
      0.450000          0.996709E-04
      0.455000          0.100145E-03
      0.460000          0.100865E-03
      0.465000          0.101810E-03
      0.470000          0.102941E-03
      0.475000          0.104211E-03
      0.480000          0.105563E-03
      0.485000          0.106933E-03
      0.490000          0.108257E-03
      0.495000          0.109471E-03
      0.500000          0.110515E-03
