 I_abs(s)[cm^-1]/c[mg/ml]
       0.00000          0.140700E-01
      0.500000E-02      0.140180E-01
      0.100000E-01      0.138632E-01
      0.150000E-01      0.136096E-01
      0.200000E-01      0.132632E-01
      0.250000E-01      0.128324E-01
      0.300000E-01      0.123274E-01
      0.350000E-01      0.117597E-01
      0.400000E-01      0.111418E-01
      0.450000E-01      0.104867E-01
      0.500000E-01      0.980761E-02
      0.550000E-01      0.911715E-02
      0.600000E-01      0.842729E-02
      0.650000E-01      0.774886E-02
      0.700000E-01      0.709133E-02
      0.750000E-01      0.646260E-02
      0.800000E-01      0.586892E-02
      0.850000E-01      0.531482E-02
      0.900000E-01      0.480317E-02
      0.950000E-01      0.433533E-02
      0.100000          0.391124E-02
      0.105000          0.352968E-02
      0.110000          0.318846E-02
      0.115000          0.288468E-02
      0.120000          0.261495E-02
      0.125000          0.237563E-02
      0.130000          0.216300E-02
      0.135000          0.197345E-02
      0.140000          0.180360E-02
      0.145000          0.165042E-02
      0.150000          0.151126E-02
      0.155000          0.138390E-02
      0.160000          0.126656E-02
      0.165000          0.115784E-02
      0.170000          0.105672E-02
      0.175000          0.962466E-03
      0.180000          0.874621E-03
      0.185000          0.792899E-03
      0.190000          0.717145E-03
      0.195000          0.647281E-03
      0.200000          0.583260E-03
      0.205000          0.525032E-03
      0.210000          0.472511E-03
      0.215000          0.425565E-03
      0.220000          0.384004E-03
      0.225000          0.347576E-03
      0.230000          0.315973E-03
      0.235000          0.288839E-03
      0.240000          0.265781E-03
      0.245000          0.246378E-03
      0.250000          0.230197E-03
      0.255000          0.216807E-03
      0.260000          0.205784E-03
      0.265000          0.196729E-03
      0.270000          0.189269E-03
      0.275000          0.183068E-03
      0.280000          0.177827E-03
      0.285000          0.173293E-03
      0.290000          0.169252E-03
      0.295000          0.165534E-03
      0.300000          0.162008E-03
      0.305000          0.158581E-03
      0.310000          0.155191E-03
      0.315000          0.151805E-03
      0.320000          0.148412E-03
      0.325000          0.145020E-03
      0.330000          0.141648E-03
      0.335000          0.138323E-03
      0.340000          0.135078E-03
      0.345000          0.131944E-03
      0.350000          0.128949E-03
      0.355000          0.126118E-03
      0.360000          0.123467E-03
      0.365000          0.121010E-03
      0.370000          0.118749E-03
      0.375000          0.116685E-03
      0.380000          0.114813E-03
      0.385000          0.113121E-03
      0.390000          0.111601E-03
      0.395000          0.110238E-03
      0.400000          0.109022E-03
      0.405000          0.107941E-03
      0.410000          0.106987E-03
      0.415000          0.106151E-03
      0.420000          0.105431E-03
      0.425000          0.104821E-03
      0.430000          0.104320E-03
      0.435000          0.103927E-03
      0.440000          0.103639E-03
      0.445000          0.103455E-03
      0.450000          0.103371E-03
      0.455000          0.103381E-03
      0.460000          0.103478E-03
      0.465000          0.103649E-03
      0.470000          0.103883E-03
      0.475000          0.104164E-03
      0.480000          0.104475E-03
      0.485000          0.104797E-03
      0.490000          0.105111E-03
      0.495000          0.105396E-03
      0.500000          0.105634E-03
