 I_abs(s)[cm^-1]/c[mg/ml]
       0.00000          0.140935E-01
      0.500000E-02      0.140417E-01
      0.100000E-01      0.138879E-01
      0.150000E-01      0.136355E-01
      0.200000E-01      0.132906E-01
      0.250000E-01      0.128614E-01
      0.300000E-01      0.123576E-01
      0.350000E-01      0.117905E-01
      0.400000E-01      0.111725E-01
      0.450000E-01      0.105163E-01
      0.500000E-01      0.983486E-02
      0.550000E-01      0.914100E-02
      0.600000E-01      0.844669E-02
      0.650000E-01      0.776296E-02
      0.700000E-01      0.709951E-02
      0.750000E-01      0.646454E-02
      0.800000E-01      0.586463E-02
      0.850000E-01      0.530463E-02
      0.900000E-01      0.478772E-02
      0.950000E-01      0.431548E-02
      0.100000          0.388800E-02
      0.105000          0.350411E-02
      0.110000          0.316161E-02
      0.115000          0.285743E-02
      0.120000          0.258800E-02
      0.125000          0.234937E-02
      0.130000          0.213754E-02
      0.135000          0.194858E-02
      0.140000          0.177882E-02
      0.145000          0.162501E-02
      0.150000          0.148433E-02
      0.155000          0.135452E-02
      0.160000          0.123382E-02
      0.165000          0.112097E-02
      0.170000          0.101520E-02
      0.175000          0.916068E-03
      0.180000          0.823469E-03
      0.185000          0.737495E-03
      0.190000          0.658360E-03
      0.195000          0.586318E-03
      0.200000          0.521596E-03
      0.205000          0.464328E-03
      0.210000          0.414526E-03
      0.215000          0.372043E-03
      0.220000          0.336576E-03
      0.225000          0.307664E-03
      0.230000          0.284711E-03
      0.235000          0.267009E-03
      0.240000          0.253777E-03
      0.245000          0.244194E-03
      0.250000          0.237437E-03
      0.255000          0.232715E-03
      0.260000          0.229303E-03
      0.265000          0.226559E-03
      0.270000          0.223949E-03
      0.275000          0.221052E-03
      0.280000          0.217565E-03
      0.285000          0.213300E-03
      0.290000          0.208174E-03
      0.295000          0.202196E-03
      0.300000          0.195450E-03
      0.305000          0.188079E-03
      0.310000          0.180265E-03
      0.315000          0.172210E-03
      0.320000          0.164123E-03
      0.325000          0.156204E-03
      0.330000          0.148631E-03
      0.335000          0.141557E-03
      0.340000          0.135099E-03
      0.345000          0.129340E-03
      0.350000          0.124326E-03
      0.355000          0.120069E-03
      0.360000          0.116553E-03
      0.365000          0.113736E-03
      0.370000          0.111557E-03
      0.375000          0.109940E-03
      0.380000          0.108803E-03
      0.385000          0.108062E-03
      0.390000          0.107633E-03
      0.395000          0.107440E-03
      0.400000          0.107416E-03
      0.405000          0.107503E-03
      0.410000          0.107655E-03
      0.415000          0.107839E-03
      0.420000          0.108034E-03
      0.425000          0.108226E-03
      0.430000          0.108412E-03
      0.435000          0.108595E-03
      0.440000          0.108783E-03
      0.445000          0.108986E-03
      0.450000          0.109213E-03
      0.455000          0.109473E-03
      0.460000          0.109773E-03
      0.465000          0.110112E-03
      0.470000          0.110489E-03
      0.475000          0.110893E-03
      0.480000          0.111310E-03
      0.485000          0.111722E-03
      0.490000          0.112106E-03
      0.495000          0.112436E-03
      0.500000          0.112684E-03
