 I_abs(s)[cm^-1]/c[mg/ml]
       0.00000          0.138598E-01
      0.500000E-02      0.138058E-01
      0.100000E-01      0.136453E-01
      0.150000E-01      0.133828E-01
      0.200000E-01      0.130255E-01
      0.250000E-01      0.125829E-01
      0.300000E-01      0.120667E-01
      0.350000E-01      0.114899E-01
      0.400000E-01      0.108666E-01
      0.450000E-01      0.102111E-01
      0.500000E-01      0.953757E-02
      0.550000E-01      0.885947E-02
      0.600000E-01      0.818905E-02
      0.650000E-01      0.753705E-02
      0.700000E-01      0.691242E-02
      0.750000E-01      0.632217E-02
      0.800000E-01      0.577133E-02
      0.850000E-01      0.526297E-02
      0.900000E-01      0.479840E-02
      0.950000E-01      0.437731E-02
      0.100000          0.399810E-02
      0.105000          0.365812E-02
      0.110000          0.335399E-02
      0.115000          0.308189E-02
      0.120000          0.283783E-02
      0.125000          0.261790E-02
      0.130000          0.241841E-02
      0.135000          0.223607E-02
      0.140000          0.206805E-02
      0.145000          0.191202E-02
      0.150000          0.176618E-02
      0.155000          0.162917E-02
      0.160000          0.150009E-02
      0.165000          0.137833E-02
      0.170000          0.126357E-02
      0.175000          0.115566E-02
      0.180000          0.105455E-02
      0.185000          0.960228E-03
      0.190000          0.872685E-03
      0.195000          0.791863E-03
      0.200000          0.717637E-03
      0.205000          0.649811E-03
      0.210000          0.588120E-03
      0.215000          0.532233E-03
      0.220000          0.481775E-03
      0.225000          0.436339E-03
      0.230000          0.395502E-03
      0.235000          0.358845E-03
      0.240000          0.325963E-03
      0.245000          0.296474E-03
      0.250000          0.270028E-03
      0.255000          0.246308E-03
      0.260000          0.225033E-03
      0.265000          0.205953E-03
      0.270000          0.188853E-03
      0.275000          0.173540E-03
      0.280000          0.159848E-03
      0.285000          0.147630E-03
      0.290000          0.136755E-03
      0.295000          0.127105E-03
      0.300000          0.118572E-03
      0.305000          0.111058E-03
      0.310000          0.104470E-03
      0.315000          0.987248E-04
      0.320000          0.937405E-04
      0.325000          0.894416E-04
      0.330000          0.857568E-04
      0.335000          0.826191E-04
      0.340000          0.799656E-04
      0.345000          0.777383E-04
      0.350000          0.758840E-04
      0.355000          0.743551E-04
      0.360000          0.731095E-04
      0.365000          0.721115E-04
      0.370000          0.713317E-04
      0.375000          0.707471E-04
      0.380000          0.703409E-04
      0.385000          0.701019E-04
      0.390000          0.700239E-04
      0.395000          0.701044E-04
      0.400000          0.703439E-04
      0.405000          0.707443E-04
      0.410000          0.713077E-04
      0.415000          0.720351E-04
      0.420000          0.729255E-04
      0.425000          0.739752E-04
      0.430000          0.751767E-04
      0.435000          0.765189E-04
      0.440000          0.779868E-04
      0.445000          0.795622E-04
      0.450000          0.812237E-04
      0.455000          0.829474E-04
      0.460000          0.847080E-04
      0.465000          0.864795E-04
      0.470000          0.882357E-04
      0.475000          0.899515E-04
      0.480000          0.916028E-04
      0.485000          0.931679E-04
      0.490000          0.946275E-04
      0.495000          0.959648E-04
      0.500000          0.971663E-04
