 I_abs(s)[cm^-1]/c[mg/ml]
       0.00000          0.137052E-01
      0.500000E-02      0.136498E-01
      0.100000E-01      0.134855E-01
      0.150000E-01      0.132168E-01
      0.200000E-01      0.128515E-01
      0.250000E-01      0.123996E-01
      0.300000E-01      0.118734E-01
      0.350000E-01      0.112867E-01
      0.400000E-01      0.106543E-01
      0.450000E-01      0.999117E-02
      0.500000E-01      0.931219E-02
      0.550000E-01      0.863132E-02
      0.600000E-01      0.796124E-02
      0.650000E-01      0.731297E-02
      0.700000E-01      0.669553E-02
      0.750000E-01      0.611586E-02
      0.800000E-01      0.557873E-02
      0.850000E-01      0.508683E-02
      0.900000E-01      0.464093E-02
      0.950000E-01      0.424012E-02
      0.100000          0.388210E-02
      0.105000          0.356354E-02
      0.110000          0.328038E-02
      0.115000          0.302819E-02
      0.120000          0.280246E-02
      0.125000          0.259883E-02
      0.130000          0.241334E-02
      0.135000          0.224254E-02
      0.140000          0.208358E-02
      0.145000          0.193425E-02
      0.150000          0.179295E-02
      0.155000          0.165864E-02
      0.160000          0.153075E-02
      0.165000          0.140909E-02
      0.170000          0.129371E-02
      0.175000          0.118482E-02
      0.180000          0.108271E-02
      0.185000          0.987622E-03
      0.190000          0.899719E-03
      0.195000          0.819048E-03
      0.200000          0.745515E-03
      0.205000          0.678881E-03
      0.210000          0.618779E-03
      0.215000          0.564739E-03
      0.220000          0.516217E-03
      0.225000          0.472629E-03
      0.230000          0.433386E-03
      0.235000          0.397922E-03
      0.240000          0.365714E-03
      0.245000          0.336307E-03
      0.250000          0.309314E-03
      0.255000          0.284425E-03
      0.260000          0.261403E-03
      0.265000          0.240075E-03
      0.270000          0.220323E-03
      0.275000          0.202070E-03
      0.280000          0.185269E-03
      0.285000          0.169886E-03
      0.290000          0.155897E-03
      0.295000          0.143273E-03
      0.300000          0.131978E-03
      0.305000          0.121961E-03
      0.310000          0.113161E-03
      0.315000          0.105500E-03
      0.320000          0.988899E-04
      0.325000          0.932354E-04
      0.330000          0.884349E-04
      0.335000          0.843859E-04
      0.340000          0.809884E-04
      0.345000          0.781482E-04
      0.350000          0.757792E-04
      0.355000          0.738055E-04
      0.360000          0.721627E-04
      0.365000          0.707985E-04
      0.370000          0.696722E-04
      0.375000          0.687545E-04
      0.380000          0.680261E-04
      0.385000          0.674764E-04
      0.390000          0.671011E-04
      0.395000          0.669014E-04
      0.400000          0.668809E-04
      0.405000          0.670446E-04
      0.410000          0.673966E-04
      0.415000          0.679391E-04
      0.420000          0.686706E-04
      0.425000          0.695856E-04
      0.430000          0.706737E-04
      0.435000          0.719198E-04
      0.440000          0.733038E-04
      0.445000          0.748017E-04
      0.450000          0.763864E-04
      0.455000          0.780280E-04
      0.460000          0.796961E-04
      0.465000          0.813600E-04
      0.470000          0.829906E-04
      0.475000          0.845612E-04
      0.480000          0.860485E-04
      0.485000          0.874334E-04
      0.490000          0.887013E-04
      0.495000          0.898426E-04
      0.500000          0.908523E-04
