 I_abs(s)[cm^-1]/c[mg/ml]
       0.00000          0.140778E-01
      0.500000E-02      0.140299E-01
      0.100000E-01      0.138872E-01
      0.150000E-01      0.136529E-01
      0.200000E-01      0.133321E-01
      0.250000E-01      0.129319E-01
      0.300000E-01      0.124608E-01
      0.350000E-01      0.119286E-01
      0.400000E-01      0.113461E-01
      0.450000E-01      0.107246E-01
      0.500000E-01      0.100757E-01
      0.550000E-01      0.941079E-02
      0.600000E-01      0.874093E-02
      0.650000E-01      0.807631E-02
      0.700000E-01      0.742614E-02
      0.750000E-01      0.679843E-02
      0.800000E-01      0.619983E-02
      0.850000E-01      0.563556E-02
      0.900000E-01      0.510940E-02
      0.950000E-01      0.462369E-02
      0.100000          0.417946E-02
      0.105000          0.377654E-02
      0.110000          0.341372E-02
      0.115000          0.308893E-02
      0.120000          0.279945E-02
      0.125000          0.254211E-02
      0.130000          0.231347E-02
      0.135000          0.211002E-02
      0.140000          0.192830E-02
      0.145000          0.176508E-02
      0.150000          0.161742E-02
      0.155000          0.148275E-02
      0.160000          0.135892E-02
      0.165000          0.124420E-02
      0.170000          0.113728E-02
      0.175000          0.103722E-02
      0.180000          0.943407E-03
      0.185000          0.855505E-03
      0.190000          0.773380E-03
      0.195000          0.697039E-03
      0.200000          0.626566E-03
      0.205000          0.562067E-03
      0.210000          0.503624E-03
      0.215000          0.451260E-03
      0.220000          0.404910E-03
      0.225000          0.364414E-03
      0.230000          0.329508E-03
      0.235000          0.299832E-03
      0.240000          0.274945E-03
      0.245000          0.254339E-03
      0.250000          0.237462E-03
      0.255000          0.223743E-03
      0.260000          0.212614E-03
      0.265000          0.203527E-03
      0.270000          0.195975E-03
      0.275000          0.189505E-03
      0.280000          0.183731E-03
      0.285000          0.178332E-03
      0.290000          0.173063E-03
      0.295000          0.167747E-03
      0.300000          0.162269E-03
      0.305000          0.156577E-03
      0.310000          0.150663E-03
      0.315000          0.144561E-03
      0.320000          0.138334E-03
      0.325000          0.132064E-03
      0.330000          0.125844E-03
      0.335000          0.119773E-03
      0.340000          0.113943E-03
      0.345000          0.108441E-03
      0.350000          0.103343E-03
      0.355000          0.987069E-04
      0.360000          0.945790E-04
      0.365000          0.909882E-04
      0.370000          0.879484E-04
      0.375000          0.854588E-04
      0.380000          0.835063E-04
      0.385000          0.820662E-04
      0.390000          0.811048E-04
      0.395000          0.805811E-04
      0.400000          0.804490E-04
      0.405000          0.806585E-04
      0.410000          0.811584E-04
      0.415000          0.818973E-04
      0.420000          0.828251E-04
      0.425000          0.838946E-04
      0.430000          0.850626E-04
      0.435000          0.862903E-04
      0.440000          0.875444E-04
      0.445000          0.887975E-04
      0.450000          0.900281E-04
      0.455000          0.912207E-04
      0.460000          0.923652E-04
      0.465000          0.934566E-04
      0.470000          0.944944E-04
      0.475000          0.954813E-04
      0.480000          0.964223E-04
      0.485000          0.973238E-04
      0.490000          0.981926E-04
      0.495000          0.990345E-04
      0.500000          0.998536E-04
