 I_abs(s)[cm^-1]/c[mg/ml]
       0.00000          0.131404E-01
      0.500000E-02      0.130203E-01
      0.100000E-01      0.126661E-01
      0.150000E-01      0.120959E-01
      0.200000E-01      0.113382E-01
      0.250000E-01      0.104302E-01
      0.300000E-01      0.941512E-02
      0.350000E-01      0.833900E-02
      0.400000E-01      0.724798E-02
      0.450000E-01      0.618523E-02
      0.500000E-01      0.518850E-02
      0.550000E-01      0.428814E-02
      0.600000E-01      0.350576E-02
      0.650000E-01      0.285372E-02
      0.700000E-01      0.233528E-02
      0.750000E-01      0.194545E-02
      0.800000E-01      0.167235E-02
      0.850000E-01      0.149892E-02
      0.900000E-01      0.140492E-02
      0.950000E-01      0.136886E-02
      0.100000          0.136976E-02
      0.105000          0.138873E-02
      0.110000          0.141004E-02
      0.115000          0.142181E-02
      0.120000          0.141633E-02
      0.125000          0.138984E-02
      0.130000          0.134209E-02
      0.135000          0.127565E-02
      0.140000          0.119500E-02
      0.145000          0.110572E-02
      0.150000          0.101365E-02
      0.155000          0.924169E-03
      0.160000          0.841725E-03
      0.165000          0.769488E-03
      0.170000          0.709243E-03
      0.175000          0.661439E-03
      0.180000          0.625374E-03
      0.185000          0.599479E-03
      0.190000          0.581636E-03
      0.195000          0.569500E-03
      0.200000          0.560783E-03
      0.205000          0.553480E-03
      0.210000          0.546010E-03
      0.215000          0.537291E-03
      0.220000          0.526739E-03
      0.225000          0.514207E-03
      0.230000          0.499899E-03
      0.235000          0.484248E-03
      0.240000          0.467809E-03
      0.245000          0.451155E-03
      0.250000          0.434802E-03
      0.255000          0.419155E-03
      0.260000          0.404486E-03
      0.265000          0.390932E-03
      0.270000          0.378518E-03
      0.275000          0.367181E-03
      0.280000          0.356802E-03
      0.285000          0.347241E-03
      0.290000          0.338355E-03
      0.295000          0.330021E-03
      0.300000          0.322137E-03
      0.305000          0.314625E-03
      0.310000          0.307429E-03
      0.315000          0.300501E-03
      0.320000          0.293800E-03
      0.325000          0.287286E-03
      0.330000          0.280914E-03
      0.335000          0.274641E-03
      0.340000          0.268428E-03
      0.345000          0.262244E-03
      0.350000          0.256075E-03
      0.355000          0.249926E-03
      0.360000          0.243825E-03
      0.365000          0.237819E-03
      0.370000          0.231971E-03
      0.375000          0.226350E-03
      0.380000          0.221026E-03
      0.385000          0.216055E-03
      0.390000          0.211471E-03
      0.395000          0.207281E-03
      0.400000          0.203463E-03
      0.405000          0.199962E-03
      0.410000          0.196699E-03
      0.415000          0.193574E-03
      0.420000          0.190483E-03
      0.425000          0.187323E-03
      0.430000          0.184007E-03
      0.435000          0.180471E-03
      0.440000          0.176681E-03
      0.445000          0.172637E-03
      0.450000          0.168369E-03
      0.455000          0.163936E-03
      0.460000          0.159416E-03
      0.465000          0.154895E-03
      0.470000          0.150462E-03
      0.475000          0.146194E-03
      0.480000          0.142147E-03
      0.485000          0.138357E-03
      0.490000          0.134831E-03
      0.495000          0.131553E-03
      0.500000          0.128485E-03
