 I_abs(s)[cm^-1]/c[mg/ml]
       0.00000          0.139453E-01
      0.500000E-02      0.138872E-01
      0.100000E-01      0.137146E-01
      0.150000E-01      0.134327E-01
      0.200000E-01      0.130498E-01
      0.250000E-01      0.125769E-01
      0.300000E-01      0.120271E-01
      0.350000E-01      0.114153E-01
      0.400000E-01      0.107571E-01
      0.450000E-01      0.100684E-01
      0.500000E-01      0.936445E-02
      0.550000E-01      0.865964E-02
      0.600000E-01      0.796677E-02
      0.650000E-01      0.729676E-02
      0.700000E-01      0.665841E-02
      0.750000E-01      0.605831E-02
      0.800000E-01      0.550085E-02
      0.850000E-01      0.498841E-02
      0.900000E-01      0.452152E-02
      0.950000E-01      0.409921E-02
      0.100000          0.371932E-02
      0.105000          0.337878E-02
      0.110000          0.307405E-02
      0.115000          0.280129E-02
      0.120000          0.255668E-02
      0.125000          0.233660E-02
      0.130000          0.213774E-02
      0.135000          0.195721E-02
      0.140000          0.179256E-02
      0.145000          0.164177E-02
      0.150000          0.150322E-02
      0.155000          0.137566E-02
      0.160000          0.125808E-02
      0.165000          0.114972E-02
      0.170000          0.104996E-02
      0.175000          0.958289E-03
      0.180000          0.874250E-03
      0.185000          0.797426E-03
      0.190000          0.727413E-03
      0.195000          0.663811E-03
      0.200000          0.606221E-03
      0.205000          0.554247E-03
      0.210000          0.507495E-03
      0.215000          0.465580E-03
      0.220000          0.428124E-03
      0.225000          0.394762E-03
      0.230000          0.365141E-03
      0.235000          0.338917E-03
      0.240000          0.315761E-03
      0.245000          0.295352E-03
      0.250000          0.277385E-03
      0.255000          0.261568E-03
      0.260000          0.247626E-03
      0.265000          0.235302E-03
      0.270000          0.224364E-03
      0.275000          0.214602E-03
      0.280000          0.205835E-03
      0.285000          0.197909E-03
      0.290000          0.190694E-03
      0.295000          0.184086E-03
      0.300000          0.178003E-03
      0.305000          0.172381E-03
      0.310000          0.167166E-03
      0.315000          0.162316E-03
      0.320000          0.157794E-03
      0.325000          0.153565E-03
      0.330000          0.149596E-03
      0.335000          0.145851E-03
      0.340000          0.142297E-03
      0.345000          0.138902E-03
      0.350000          0.135635E-03
      0.355000          0.132471E-03
      0.360000          0.129393E-03
      0.365000          0.126389E-03
      0.370000          0.123460E-03
      0.375000          0.120614E-03
      0.380000          0.117869E-03
      0.385000          0.115250E-03
      0.390000          0.112786E-03
      0.395000          0.110509E-03
      0.400000          0.108453E-03
      0.405000          0.106644E-03
      0.410000          0.105106E-03
      0.415000          0.103851E-03
      0.420000          0.102885E-03
      0.425000          0.102199E-03
      0.430000          0.101775E-03
      0.435000          0.101583E-03
      0.440000          0.101584E-03
      0.445000          0.101732E-03
      0.450000          0.101976E-03
      0.455000          0.102262E-03
      0.460000          0.102536E-03
      0.465000          0.102748E-03
      0.470000          0.102854E-03
      0.475000          0.102815E-03
      0.480000          0.102604E-03
      0.485000          0.102201E-03
      0.490000          0.101601E-03
      0.495000          0.100805E-03
      0.500000          0.998265E-04
