 I_abs(s)[cm^-1]/c[mg/ml]
       0.00000          0.137283E-01
      0.500000E-02      0.136708E-01
      0.100000E-01      0.135000E-01
      0.150000E-01      0.132210E-01
      0.200000E-01      0.128421E-01
      0.250000E-01      0.123743E-01
      0.300000E-01      0.118309E-01
      0.350000E-01      0.112267E-01
      0.400000E-01      0.105775E-01
      0.450000E-01      0.989925E-02
      0.500000E-01      0.920759E-02
      0.550000E-01      0.851705E-02
      0.600000E-01      0.784067E-02
      0.650000E-01      0.718953E-02
      0.700000E-01      0.657252E-02
      0.750000E-01      0.599619E-02
      0.800000E-01      0.546476E-02
      0.850000E-01      0.498025E-02
      0.900000E-01      0.454267E-02
      0.950000E-01      0.415037E-02
      0.100000          0.380036E-02
      0.105000          0.348870E-02
      0.110000          0.321090E-02
      0.115000          0.296223E-02
      0.120000          0.273808E-02
      0.125000          0.253416E-02
      0.130000          0.234674E-02
      0.135000          0.217271E-02
      0.140000          0.200966E-02
      0.145000          0.185585E-02
      0.150000          0.171019E-02
      0.155000          0.157209E-02
      0.160000          0.144136E-02
      0.165000          0.131811E-02
      0.170000          0.120258E-02
      0.175000          0.109506E-02
      0.180000          0.995788E-03
      0.185000          0.904881E-03
      0.190000          0.822288E-03
      0.195000          0.747781E-03
      0.200000          0.680959E-03
      0.205000          0.621270E-03
      0.210000          0.568049E-03
      0.215000          0.520564E-03
      0.220000          0.478055E-03
      0.225000          0.439787E-03
      0.230000          0.405077E-03
      0.235000          0.373329E-03
      0.240000          0.344048E-03
      0.245000          0.316851E-03
      0.250000          0.291461E-03
      0.255000          0.267702E-03
      0.260000          0.245481E-03
      0.265000          0.224766E-03
      0.270000          0.205573E-03
      0.275000          0.187936E-03
      0.280000          0.171895E-03
      0.285000          0.157478E-03
      0.290000          0.144692E-03
      0.295000          0.133511E-03
      0.300000          0.123878E-03
      0.305000          0.115705E-03
      0.310000          0.108875E-03
      0.315000          0.103247E-03
      0.320000          0.986689E-04
      0.325000          0.949797E-04
      0.330000          0.920213E-04
      0.335000          0.896445E-04
      0.340000          0.877151E-04
      0.345000          0.861190E-04
      0.350000          0.847646E-04
      0.355000          0.835840E-04
      0.360000          0.825328E-04
      0.365000          0.815880E-04
      0.370000          0.807446E-04
      0.375000          0.800121E-04
      0.380000          0.794097E-04
      0.385000          0.789619E-04
      0.390000          0.786939E-04
      0.395000          0.786279E-04
      0.400000          0.787798E-04
      0.405000          0.791570E-04
      0.410000          0.797570E-04
      0.415000          0.805671E-04
      0.420000          0.815654E-04
      0.425000          0.827220E-04
      0.430000          0.840011E-04
      0.435000          0.853635E-04
      0.440000          0.867694E-04
      0.445000          0.881809E-04
      0.450000          0.895643E-04
      0.455000          0.908916E-04
      0.460000          0.921418E-04
      0.465000          0.933017E-04
      0.470000          0.943653E-04
      0.475000          0.953329E-04
      0.480000          0.962104E-04
      0.485000          0.970072E-04
      0.490000          0.977346E-04
      0.495000          0.984041E-04
      0.500000          0.990256E-04
