 I_abs(s)[cm^-1]/c[mg/ml]
       0.00000          0.139842E-01
      0.500000E-02      0.139329E-01
      0.100000E-01      0.137805E-01
      0.150000E-01      0.135306E-01
      0.200000E-01      0.131894E-01
      0.250000E-01      0.127652E-01
      0.300000E-01      0.122679E-01
      0.350000E-01      0.117091E-01
      0.400000E-01      0.111012E-01
      0.450000E-01      0.104570E-01
      0.500000E-01      0.978964E-02
      0.550000E-01      0.911167E-02
      0.600000E-01      0.843498E-02
      0.650000E-01      0.777032E-02
      0.700000E-01      0.712707E-02
      0.750000E-01      0.651302E-02
      0.800000E-01      0.593428E-02
      0.850000E-01      0.539524E-02
      0.900000E-01      0.489859E-02
      0.950000E-01      0.444545E-02
      0.100000          0.403552E-02
      0.105000          0.366729E-02
      0.110000          0.333832E-02
      0.115000          0.304539E-02
      0.120000          0.278487E-02
      0.125000          0.255287E-02
      0.130000          0.234550E-02
      0.135000          0.215901E-02
      0.140000          0.198999E-02
      0.145000          0.183543E-02
      0.150000          0.169280E-02
      0.155000          0.156005E-02
      0.160000          0.143565E-02
      0.165000          0.131851E-02
      0.170000          0.120793E-02
      0.175000          0.110355E-02
      0.180000          0.100522E-02
      0.185000          0.912993E-03
      0.190000          0.826976E-03
      0.195000          0.747309E-03
      0.200000          0.674095E-03
      0.205000          0.607365E-03
      0.210000          0.547049E-03
      0.215000          0.492966E-03
      0.220000          0.444830E-03
      0.225000          0.402256E-03
      0.230000          0.364782E-03
      0.235000          0.331894E-03
      0.240000          0.303052E-03
      0.245000          0.277712E-03
      0.250000          0.255355E-03
      0.255000          0.235504E-03
      0.260000          0.217739E-03
      0.265000          0.201703E-03
      0.270000          0.187111E-03
      0.275000          0.173745E-03
      0.280000          0.161448E-03
      0.285000          0.150121E-03
      0.290000          0.139703E-03
      0.295000          0.130172E-03
      0.300000          0.121520E-03
      0.305000          0.113753E-03
      0.310000          0.106878E-03
      0.315000          0.100893E-03
      0.320000          0.957857E-04
      0.325000          0.915307E-04
      0.330000          0.880857E-04
      0.335000          0.853943E-04
      0.340000          0.833876E-04
      0.345000          0.819872E-04
      0.350000          0.811089E-04
      0.355000          0.806662E-04
      0.360000          0.805744E-04
      0.365000          0.807529E-04
      0.370000          0.811286E-04
      0.375000          0.816374E-04
      0.380000          0.822251E-04
      0.385000          0.828487E-04
      0.390000          0.834753E-04
      0.395000          0.840823E-04
      0.400000          0.846562E-04
      0.405000          0.851912E-04
      0.410000          0.856882E-04
      0.415000          0.861535E-04
      0.420000          0.865970E-04
      0.425000          0.870315E-04
      0.430000          0.874714E-04
      0.435000          0.879316E-04
      0.440000          0.884270E-04
      0.445000          0.889714E-04
      0.450000          0.895767E-04
      0.455000          0.902531E-04
      0.460000          0.910079E-04
      0.465000          0.918452E-04
      0.470000          0.927661E-04
      0.475000          0.937678E-04
      0.480000          0.948439E-04
      0.485000          0.959843E-04
      0.490000          0.971754E-04
      0.495000          0.984000E-04
      0.500000          0.996385E-04
