 I_abs(s)[cm^-1]/c[mg/ml]
       0.00000          0.138288E-01
      0.500000E-02      0.137738E-01
      0.100000E-01      0.136101E-01
      0.150000E-01      0.133423E-01
      0.200000E-01      0.129776E-01
      0.250000E-01      0.125258E-01
      0.300000E-01      0.119985E-01
      0.350000E-01      0.114090E-01
      0.400000E-01      0.107717E-01
      0.450000E-01      0.101012E-01
      0.500000E-01      0.941212E-02
      0.550000E-01      0.871836E-02
      0.600000E-01      0.803273E-02
      0.650000E-01      0.736653E-02
      0.700000E-01      0.672926E-02
      0.750000E-01      0.612843E-02
      0.800000E-01      0.556951E-02
      0.850000E-01      0.505589E-02
      0.900000E-01      0.458909E-02
      0.950000E-01      0.416886E-02
      0.100000          0.379348E-02
      0.105000          0.346006E-02
      0.110000          0.316484E-02
      0.115000          0.290352E-02
      0.120000          0.267156E-02
      0.125000          0.246444E-02
      0.130000          0.227788E-02
      0.135000          0.210805E-02
      0.140000          0.195165E-02
      0.145000          0.180601E-02
      0.150000          0.166908E-02
      0.155000          0.153942E-02
      0.160000          0.141613E-02
      0.165000          0.129877E-02
      0.170000          0.118724E-02
      0.175000          0.108170E-02
      0.180000          0.982431E-03
      0.185000          0.889772E-03
      0.190000          0.804019E-03
      0.195000          0.725372E-03
      0.200000          0.653898E-03
      0.205000          0.589508E-03
      0.210000          0.531961E-03
      0.215000          0.480870E-03
      0.220000          0.435739E-03
      0.225000          0.395985E-03
      0.230000          0.360982E-03
      0.235000          0.330096E-03
      0.240000          0.302715E-03
      0.245000          0.278279E-03
      0.250000          0.256302E-03
      0.255000          0.236376E-03
      0.260000          0.218186E-03
      0.265000          0.201500E-03
      0.270000          0.186162E-03
      0.275000          0.172083E-03
      0.280000          0.159219E-03
      0.285000          0.147564E-03
      0.290000          0.137124E-03
      0.295000          0.127911E-03
      0.300000          0.119929E-03
      0.305000          0.113163E-03
      0.310000          0.107578E-03
      0.315000          0.103114E-03
      0.320000          0.996899E-04
      0.325000          0.972026E-04
      0.330000          0.955357E-04
      0.335000          0.945636E-04
      0.340000          0.941580E-04
      0.345000          0.941938E-04
      0.350000          0.945548E-04
      0.355000          0.951375E-04
      0.360000          0.958543E-04
      0.365000          0.966356E-04
      0.370000          0.974297E-04
      0.375000          0.982025E-04
      0.380000          0.989356E-04
      0.385000          0.996245E-04
      0.390000          0.100275E-03
      0.395000          0.100901E-03
      0.400000          0.101520E-03
      0.405000          0.102153E-03
      0.410000          0.102819E-03
      0.415000          0.103536E-03
      0.420000          0.104315E-03
      0.425000          0.105164E-03
      0.430000          0.106084E-03
      0.435000          0.107071E-03
      0.440000          0.108116E-03
      0.445000          0.109203E-03
      0.450000          0.110313E-03
      0.455000          0.111426E-03
      0.460000          0.112518E-03
      0.465000          0.113565E-03
      0.470000          0.114545E-03
      0.475000          0.115436E-03
      0.480000          0.116220E-03
      0.485000          0.116880E-03
      0.490000          0.117406E-03
      0.495000          0.117790E-03
      0.500000          0.118027E-03
