 I_abs(s)[cm^-1]/c[mg/ml]
       0.00000          0.137901E-01
      0.500000E-02      0.137313E-01
      0.100000E-01      0.135565E-01
      0.150000E-01      0.132713E-01
      0.200000E-01      0.128843E-01
      0.250000E-01      0.124070E-01
      0.300000E-01      0.118533E-01
      0.350000E-01      0.112386E-01
      0.400000E-01      0.105795E-01
      0.450000E-01      0.989239E-02
      0.500000E-01      0.919351E-02
      0.550000E-01      0.849778E-02
      0.600000E-01      0.781849E-02
      0.650000E-01      0.716685E-02
      0.700000E-01      0.655171E-02
      0.750000E-01      0.597944E-02
      0.800000E-01      0.545398E-02
      0.850000E-01      0.497695E-02
      0.900000E-01      0.454793E-02
      0.950000E-01      0.416478E-02
      0.100000          0.382403E-02
      0.105000          0.352130E-02
      0.110000          0.325169E-02
      0.115000          0.301016E-02
      0.120000          0.279186E-02
      0.125000          0.259236E-02
      0.130000          0.240786E-02
      0.135000          0.223527E-02
      0.140000          0.207228E-02
      0.145000          0.191729E-02
      0.150000          0.176938E-02
      0.155000          0.162817E-02
      0.160000          0.149368E-02
      0.165000          0.136621E-02
      0.170000          0.124621E-02
      0.175000          0.113412E-02
      0.180000          0.103034E-02
      0.185000          0.935073E-03
      0.190000          0.848380E-03
      0.195000          0.770094E-03
      0.200000          0.699860E-03
      0.205000          0.637157E-03
      0.210000          0.581335E-03
      0.215000          0.531664E-03
      0.220000          0.487382E-03
      0.225000          0.447736E-03
      0.230000          0.412023E-03
      0.235000          0.379616E-03
      0.240000          0.349982E-03
      0.245000          0.322691E-03
      0.250000          0.297412E-03
      0.255000          0.273910E-03
      0.260000          0.252026E-03
      0.265000          0.231662E-03
      0.270000          0.212767E-03
      0.275000          0.195314E-03
      0.280000          0.179286E-03
      0.285000          0.164667E-03
      0.290000          0.151429E-03
      0.295000          0.139531E-03
      0.300000          0.128911E-03
      0.305000          0.119494E-03
      0.310000          0.111191E-03
      0.315000          0.103903E-03
      0.320000          0.975257E-04
      0.325000          0.919576E-04
      0.330000          0.871005E-04
      0.335000          0.828652E-04
      0.340000          0.791733E-04
      0.345000          0.759590E-04
      0.350000          0.731690E-04
      0.355000          0.707621E-04
      0.360000          0.687081E-04
      0.365000          0.669853E-04
      0.370000          0.655791E-04
      0.375000          0.644789E-04
      0.380000          0.636767E-04
      0.385000          0.631646E-04
      0.390000          0.629336E-04
      0.395000          0.629722E-04
      0.400000          0.632661E-04
      0.405000          0.637975E-04
      0.410000          0.645457E-04
      0.415000          0.654874E-04
      0.420000          0.665976E-04
      0.425000          0.678504E-04
      0.430000          0.692202E-04
      0.435000          0.706825E-04
      0.440000          0.722147E-04
      0.445000          0.737969E-04
      0.450000          0.754124E-04
      0.455000          0.770473E-04
      0.460000          0.786911E-04
      0.465000          0.803359E-04
      0.470000          0.819756E-04
      0.475000          0.836059E-04
      0.480000          0.852228E-04
      0.485000          0.868223E-04
      0.490000          0.883992E-04
      0.495000          0.899473E-04
      0.500000          0.914581E-04
