 I_abs(s)[cm^-1]/c[mg/ml]
       0.00000          0.140778E-01
      0.500000E-02      0.140233E-01
      0.100000E-01      0.138612E-01
      0.150000E-01      0.135960E-01
      0.200000E-01      0.132350E-01
      0.250000E-01      0.127877E-01
      0.300000E-01      0.122657E-01
      0.350000E-01      0.116823E-01
      0.400000E-01      0.110515E-01
      0.450000E-01      0.103876E-01
      0.500000E-01      0.970506E-02
      0.550000E-01      0.901722E-02
      0.600000E-01      0.833650E-02
      0.650000E-01      0.767373E-02
      0.700000E-01      0.703794E-02
      0.750000E-01      0.643622E-02
      0.800000E-01      0.587366E-02
      0.850000E-01      0.535341E-02
      0.900000E-01      0.487681E-02
      0.950000E-01      0.444360E-02
      0.100000          0.405222E-02
      0.105000          0.370006E-02
      0.110000          0.338379E-02
      0.115000          0.309968E-02
      0.120000          0.284382E-02
      0.125000          0.261240E-02
      0.130000          0.240189E-02
      0.135000          0.220913E-02
      0.140000          0.203147E-02
      0.145000          0.186677E-02
      0.150000          0.171339E-02
      0.155000          0.157015E-02
      0.160000          0.143624E-02
      0.165000          0.131117E-02
      0.170000          0.119464E-02
      0.175000          0.108648E-02
      0.180000          0.986586E-03
      0.185000          0.894805E-03
      0.190000          0.810946E-03
      0.195000          0.734731E-03
      0.200000          0.665791E-03
      0.205000          0.603668E-03
      0.210000          0.547839E-03
      0.215000          0.497736E-03
      0.220000          0.452773E-03
      0.225000          0.412374E-03
      0.230000          0.375997E-03
      0.235000          0.343150E-03
      0.240000          0.313404E-03
      0.245000          0.286399E-03
      0.250000          0.261839E-03
      0.255000          0.239490E-03
      0.260000          0.219167E-03
      0.265000          0.200722E-03
      0.270000          0.184036E-03
      0.275000          0.169004E-03
      0.280000          0.155525E-03
      0.285000          0.143502E-03
      0.290000          0.132832E-03
      0.295000          0.123408E-03
      0.300000          0.115124E-03
      0.305000          0.107872E-03
      0.310000          0.101548E-03
      0.315000          0.960574E-04
      0.320000          0.913162E-04
      0.325000          0.872524E-04
      0.330000          0.838067E-04
      0.335000          0.809311E-04
      0.340000          0.785865E-04
      0.345000          0.767395E-04
      0.350000          0.753589E-04
      0.355000          0.744119E-04
      0.360000          0.738616E-04
      0.365000          0.736652E-04
      0.370000          0.737733E-04
      0.375000          0.741306E-04
      0.380000          0.746781E-04
      0.385000          0.753557E-04
      0.390000          0.761059E-04
      0.395000          0.768773E-04
      0.400000          0.776283E-04
      0.405000          0.783297E-04
      0.410000          0.789663E-04
      0.415000          0.795376E-04
      0.420000          0.800568E-04
      0.425000          0.805489E-04
      0.430000          0.810472E-04
      0.435000          0.815894E-04
      0.440000          0.822134E-04
      0.445000          0.829524E-04
      0.450000          0.838308E-04
      0.455000          0.848616E-04
      0.460000          0.860432E-04
      0.465000          0.873588E-04
      0.470000          0.887772E-04
      0.475000          0.902536E-04
      0.480000          0.917332E-04
      0.485000          0.931547E-04
      0.490000          0.944548E-04
      0.495000          0.955728E-04
      0.500000          0.964552E-04
