 I_abs(s)[cm^-1]/c[mg/ml]
       0.00000          0.140388E-01
      0.500000E-02      0.139813E-01
      0.100000E-01      0.138106E-01
      0.150000E-01      0.135316E-01
      0.200000E-01      0.131524E-01
      0.250000E-01      0.126835E-01
      0.300000E-01      0.121379E-01
      0.350000E-01      0.115300E-01
      0.400000E-01      0.108752E-01
      0.450000E-01      0.101893E-01
      0.500000E-01      0.948763E-02
      0.550000E-01      0.878475E-02
      0.600000E-01      0.809372E-02
      0.650000E-01      0.742580E-02
      0.700000E-01      0.679018E-02
      0.750000E-01      0.619378E-02
      0.800000E-01      0.564127E-02
      0.850000E-01      0.513513E-02
      0.900000E-01      0.467585E-02
      0.950000E-01      0.426221E-02
      0.100000          0.389161E-02
      0.105000          0.356043E-02
      0.110000          0.326440E-02
      0.115000          0.299897E-02
      0.120000          0.275959E-02
      0.125000          0.254201E-02
      0.130000          0.234244E-02
      0.135000          0.215773E-02
      0.140000          0.198538E-02
      0.145000          0.182361E-02
      0.150000          0.167122E-02
      0.155000          0.152761E-02
      0.160000          0.139256E-02
      0.165000          0.126616E-02
      0.170000          0.114865E-02
      0.175000          0.104031E-02
      0.180000          0.941372E-03
      0.185000          0.851895E-03
      0.190000          0.771762E-03
      0.195000          0.700640E-03
      0.200000          0.637985E-03
      0.205000          0.583076E-03
      0.210000          0.535053E-03
      0.215000          0.492976E-03
      0.220000          0.455881E-03
      0.225000          0.422836E-03
      0.230000          0.392990E-03
      0.235000          0.365608E-03
      0.240000          0.340101E-03
      0.245000          0.316031E-03
      0.250000          0.293110E-03
      0.255000          0.271190E-03
      0.260000          0.250234E-03
      0.265000          0.230292E-03
      0.270000          0.211468E-03
      0.275000          0.193890E-03
      0.280000          0.177682E-03
      0.285000          0.162943E-03
      0.290000          0.149731E-03
      0.295000          0.138053E-03
      0.300000          0.127867E-03
      0.305000          0.119083E-03
      0.310000          0.111573E-03
      0.315000          0.105183E-03
      0.320000          0.997487E-04
      0.325000          0.951051E-04
      0.330000          0.911029E-04
      0.335000          0.876159E-04
      0.340000          0.845474E-04
      0.345000          0.818336E-04
      0.350000          0.794419E-04
      0.355000          0.773677E-04
      0.360000          0.756281E-04
      0.365000          0.742537E-04
      0.370000          0.732803E-04
      0.375000          0.727406E-04
      0.380000          0.726570E-04
      0.385000          0.730359E-04
      0.390000          0.738642E-04
      0.395000          0.751078E-04
      0.400000          0.767128E-04
      0.405000          0.786080E-04
      0.410000          0.807093E-04
      0.415000          0.829257E-04
      0.420000          0.851649E-04
      0.425000          0.873399E-04
      0.430000          0.893739E-04
      0.435000          0.912055E-04
      0.440000          0.927918E-04
      0.445000          0.941099E-04
      0.450000          0.951575E-04
      0.455000          0.959514E-04
      0.460000          0.965250E-04
      0.465000          0.969244E-04
      0.470000          0.972039E-04
      0.475000          0.974217E-04
      0.480000          0.976344E-04
      0.485000          0.978927E-04
      0.490000          0.982381E-04
      0.495000          0.986991E-04
      0.500000          0.992902E-04
