 I_abs(s)[cm^-1]/c[mg/ml]
       0.00000          0.137592E-01
      0.500000E-02      0.137055E-01
      0.100000E-01      0.135459E-01
      0.150000E-01      0.132846E-01
      0.200000E-01      0.129288E-01
      0.250000E-01      0.124876E-01
      0.300000E-01      0.119725E-01
      0.350000E-01      0.113963E-01
      0.400000E-01      0.107726E-01
      0.450000E-01      0.101157E-01
      0.500000E-01      0.943962E-02
      0.550000E-01      0.875782E-02
      0.600000E-01      0.808265E-02
      0.650000E-01      0.742507E-02
      0.700000E-01      0.679431E-02
      0.750000E-01      0.619774E-02
      0.800000E-01      0.564076E-02
      0.850000E-01      0.512686E-02
      0.900000E-01      0.465770E-02
      0.950000E-01      0.423332E-02
      0.100000          0.385233E-02
      0.105000          0.351226E-02
      0.110000          0.320977E-02
      0.115000          0.294100E-02
      0.120000          0.270184E-02
      0.125000          0.248814E-02
      0.130000          0.229596E-02
      0.135000          0.212169E-02
      0.140000          0.196218E-02
      0.145000          0.181481E-02
      0.150000          0.167750E-02
      0.155000          0.154868E-02
      0.160000          0.142727E-02
      0.165000          0.131256E-02
      0.170000          0.120420E-02
      0.175000          0.110203E-02
      0.180000          0.100607E-02
      0.185000          0.916386E-03
      0.190000          0.833067E-03
      0.195000          0.756155E-03
      0.200000          0.685619E-03
      0.205000          0.621335E-03
      0.210000          0.563081E-03
      0.215000          0.510549E-03
      0.220000          0.463353E-03
      0.225000          0.421053E-03
      0.230000          0.383178E-03
      0.235000          0.349248E-03
      0.240000          0.318793E-03
      0.245000          0.291374E-03
      0.250000          0.266592E-03
      0.255000          0.244100E-03
      0.260000          0.223605E-03
      0.265000          0.204868E-03
      0.270000          0.187704E-03
      0.275000          0.171971E-03
      0.280000          0.157569E-03
      0.285000          0.144427E-03
      0.290000          0.132500E-03
      0.295000          0.121754E-03
      0.300000          0.112169E-03
      0.305000          0.103723E-03
      0.310000          0.963952E-04
      0.315000          0.901562E-04
      0.320000          0.849694E-04
      0.325000          0.807875E-04
      0.330000          0.775523E-04
      0.335000          0.751943E-04
      0.340000          0.736338E-04
      0.345000          0.727823E-04
      0.350000          0.725442E-04
      0.355000          0.728196E-04
      0.360000          0.735066E-04
      0.365000          0.745046E-04
      0.370000          0.757171E-04
      0.375000          0.770550E-04
      0.380000          0.784389E-04
      0.385000          0.798019E-04
      0.390000          0.810911E-04
      0.395000          0.822687E-04
      0.400000          0.833126E-04
      0.405000          0.842160E-04
      0.410000          0.849863E-04
      0.415000          0.856428E-04
      0.420000          0.862150E-04
      0.425000          0.867393E-04
      0.430000          0.872558E-04
      0.435000          0.878056E-04
      0.440000          0.884273E-04
      0.445000          0.891544E-04
      0.450000          0.900131E-04
      0.455000          0.910205E-04
      0.460000          0.921835E-04
      0.465000          0.934987E-04
      0.470000          0.949522E-04
      0.475000          0.965211E-04
      0.480000          0.981745E-04
      0.485000          0.998752E-04
      0.490000          0.101582E-03
      0.495000          0.103252E-03
      0.500000          0.104843E-03
