 I_abs(s)[cm^-1]/c[mg/ml]
       0.00000          0.140622E-01
      0.500000E-02      0.140036E-01
      0.100000E-01      0.138293E-01
      0.150000E-01      0.135443E-01
      0.200000E-01      0.131566E-01
      0.250000E-01      0.126767E-01
      0.300000E-01      0.121174E-01
      0.350000E-01      0.114932E-01
      0.400000E-01      0.108196E-01
      0.450000E-01      0.101125E-01
      0.500000E-01      0.938763E-02
      0.550000E-01      0.865985E-02
      0.600000E-01      0.794280E-02
      0.650000E-01      0.724842E-02
      0.700000E-01      0.658661E-02
      0.750000E-01      0.596510E-02
      0.800000E-01      0.538937E-02
      0.850000E-01      0.486268E-02
      0.900000E-01      0.438624E-02
      0.950000E-01      0.395945E-02
      0.100000          0.358015E-02
      0.105000          0.324502E-02
      0.110000          0.294986E-02
      0.115000          0.269002E-02
      0.120000          0.246063E-02
      0.125000          0.225695E-02
      0.130000          0.207457E-02
      0.135000          0.190959E-02
      0.140000          0.175871E-02
      0.145000          0.161931E-02
      0.150000          0.148941E-02
      0.155000          0.136766E-02
      0.160000          0.125323E-02
      0.165000          0.114571E-02
      0.170000          0.104501E-02
      0.175000          0.951229E-03
      0.180000          0.864566E-03
      0.185000          0.785204E-03
      0.190000          0.713254E-03
      0.195000          0.648704E-03
      0.200000          0.591390E-03
      0.205000          0.540992E-03
      0.210000          0.497045E-03
      0.215000          0.458969E-03
      0.220000          0.426099E-03
      0.225000          0.397729E-03
      0.230000          0.373148E-03
      0.235000          0.351679E-03
      0.240000          0.332708E-03
      0.245000          0.315702E-03
      0.250000          0.300229E-03
      0.255000          0.285954E-03
      0.260000          0.272640E-03
      0.265000          0.260138E-03
      0.270000          0.248366E-03
      0.275000          0.237299E-03
      0.280000          0.226948E-03
      0.285000          0.217338E-03
      0.290000          0.208501E-03
      0.295000          0.200458E-03
      0.300000          0.193214E-03
      0.305000          0.186752E-03
      0.310000          0.181033E-03
      0.315000          0.175999E-03
      0.320000          0.171574E-03
      0.325000          0.167672E-03
      0.330000          0.164206E-03
      0.335000          0.161086E-03
      0.340000          0.158234E-03
      0.345000          0.155579E-03
      0.350000          0.153066E-03
      0.355000          0.150652E-03
      0.360000          0.148309E-03
      0.365000          0.146022E-03
      0.370000          0.143783E-03
      0.375000          0.141591E-03
      0.380000          0.139449E-03
      0.385000          0.137359E-03
      0.390000          0.135320E-03
      0.395000          0.133329E-03
      0.400000          0.131375E-03
      0.405000          0.129447E-03
      0.410000          0.127525E-03
      0.415000          0.125590E-03
      0.420000          0.123621E-03
      0.425000          0.121602E-03
      0.430000          0.119517E-03
      0.435000          0.117358E-03
      0.440000          0.115124E-03
      0.445000          0.112824E-03
      0.450000          0.110473E-03
      0.455000          0.108095E-03
      0.460000          0.105721E-03
      0.465000          0.103387E-03
      0.470000          0.101131E-03
      0.475000          0.989911E-04
      0.480000          0.970036E-04
      0.485000          0.951998E-04
      0.490000          0.936040E-04
      0.495000          0.922321E-04
      0.500000          0.910906E-04
