 I_abs(s)[cm^-1]/c[mg/ml]
       0.00000          0.140310E-01
      0.500000E-02      0.139782E-01
      0.100000E-01      0.138211E-01
      0.150000E-01      0.135639E-01
      0.200000E-01      0.132130E-01
      0.250000E-01      0.127771E-01
      0.300000E-01      0.122668E-01
      0.350000E-01      0.116942E-01
      0.400000E-01      0.110724E-01
      0.450000E-01      0.104149E-01
      0.500000E-01      0.973524E-02
      0.550000E-01      0.904650E-02
      0.600000E-01      0.836092E-02
      0.650000E-01      0.768946E-02
      0.700000E-01      0.704161E-02
      0.750000E-01      0.642513E-02
      0.800000E-01      0.584598E-02
      0.850000E-01      0.530831E-02
      0.900000E-01      0.481447E-02
      0.950000E-01      0.436523E-02
      0.100000          0.395989E-02
      0.105000          0.359658E-02
      0.110000          0.327247E-02
      0.115000          0.298408E-02
      0.120000          0.272751E-02
      0.125000          0.249873E-02
      0.130000          0.229374E-02
      0.135000          0.210881E-02
      0.140000          0.194057E-02
      0.145000          0.178612E-02
      0.150000          0.164307E-02
      0.155000          0.150957E-02
      0.160000          0.138425E-02
      0.165000          0.126621E-02
      0.170000          0.115491E-02
      0.175000          0.105011E-02
      0.180000          0.951793E-03
      0.185000          0.860045E-03
      0.190000          0.775017E-03
      0.195000          0.696845E-03
      0.200000          0.625602E-03
      0.205000          0.561270E-03
      0.210000          0.503713E-03
      0.215000          0.452681E-03
      0.220000          0.407813E-03
      0.225000          0.368657E-03
      0.230000          0.334689E-03
      0.235000          0.305342E-03
      0.240000          0.280032E-03
      0.245000          0.258181E-03
      0.250000          0.239245E-03
      0.255000          0.222723E-03
      0.260000          0.208177E-03
      0.265000          0.195231E-03
      0.270000          0.183581E-03
      0.275000          0.172989E-03
      0.280000          0.163277E-03
      0.285000          0.154320E-03
      0.290000          0.146036E-03
      0.295000          0.138380E-03
      0.300000          0.131328E-03
      0.305000          0.124874E-03
      0.310000          0.119018E-03
      0.315000          0.113766E-03
      0.320000          0.109117E-03
      0.325000          0.105070E-03
      0.330000          0.101613E-03
      0.335000          0.987288E-04
      0.340000          0.963922E-04
      0.345000          0.945714E-04
      0.350000          0.932291E-04
      0.355000          0.923238E-04
      0.360000          0.918109E-04
      0.365000          0.916443E-04
      0.370000          0.917771E-04
      0.375000          0.921628E-04
      0.380000          0.927563E-04
      0.385000          0.935147E-04
      0.390000          0.943977E-04
      0.395000          0.953686E-04
      0.400000          0.963945E-04
      0.405000          0.974468E-04
      0.410000          0.985014E-04
      0.415000          0.995391E-04
      0.420000          0.100545E-03
      0.425000          0.101510E-03
      0.430000          0.102427E-03
      0.435000          0.103294E-03
      0.440000          0.104112E-03
      0.445000          0.104885E-03
      0.450000          0.105616E-03
      0.455000          0.106311E-03
      0.460000          0.106974E-03
      0.465000          0.107608E-03
      0.470000          0.108217E-03
      0.475000          0.108798E-03
      0.480000          0.109350E-03
      0.485000          0.109867E-03
      0.490000          0.110342E-03
      0.495000          0.110765E-03
      0.500000          0.111126E-03
