 I_abs(s)[cm^-1]/c[mg/ml]
       0.00000          0.141796E-01
      0.500000E-02      0.141250E-01
      0.100000E-01      0.139626E-01
      0.150000E-01      0.136966E-01
      0.200000E-01      0.133334E-01
      0.250000E-01      0.128820E-01
      0.300000E-01      0.123531E-01
      0.350000E-01      0.117591E-01
      0.400000E-01      0.111133E-01
      0.450000E-01      0.104293E-01
      0.500000E-01      0.972110E-02
      0.550000E-01      0.900209E-02
      0.600000E-01      0.828484E-02
      0.650000E-01      0.758074E-02
      0.700000E-01      0.689973E-02
      0.750000E-01      0.625009E-02
      0.800000E-01      0.563833E-02
      0.850000E-01      0.506920E-02
      0.900000E-01      0.454572E-02
      0.950000E-01      0.406929E-02
      0.100000          0.363988E-02
      0.105000          0.325622E-02
      0.110000          0.291604E-02
      0.115000          0.261632E-02
      0.120000          0.235351E-02
      0.125000          0.212376E-02
      0.130000          0.192311E-02
      0.135000          0.174767E-02
      0.140000          0.159376E-02
      0.145000          0.145798E-02
      0.150000          0.133733E-02
      0.155000          0.122920E-02
      0.160000          0.113142E-02
      0.165000          0.104221E-02
      0.170000          0.960208E-03
      0.175000          0.884366E-03
      0.180000          0.813947E-03
      0.185000          0.748453E-03
      0.190000          0.687575E-03
      0.195000          0.631142E-03
      0.200000          0.579069E-03
      0.205000          0.531319E-03
      0.210000          0.487865E-03
      0.215000          0.448662E-03
      0.220000          0.413624E-03
      0.225000          0.382614E-03
      0.230000          0.355435E-03
      0.235000          0.331828E-03
      0.240000          0.311480E-03
      0.245000          0.294033E-03
      0.250000          0.279093E-03
      0.255000          0.266253E-03
      0.260000          0.255104E-03
      0.265000          0.245252E-03
      0.270000          0.236337E-03
      0.275000          0.228039E-03
      0.280000          0.220096E-03
      0.285000          0.212303E-03
      0.290000          0.204520E-03
      0.295000          0.196667E-03
      0.300000          0.188722E-03
      0.305000          0.180710E-03
      0.310000          0.172695E-03
      0.315000          0.164769E-03
      0.320000          0.157039E-03
      0.325000          0.149616E-03
      0.330000          0.142604E-03
      0.335000          0.136092E-03
      0.340000          0.130149E-03
      0.345000          0.124817E-03
      0.350000          0.120115E-03
      0.355000          0.116033E-03
      0.360000          0.112543E-03
      0.365000          0.109596E-03
      0.370000          0.107131E-03
      0.375000          0.105081E-03
      0.380000          0.103377E-03
      0.385000          0.101952E-03
      0.390000          0.100750E-03
      0.395000          0.997191E-04
      0.400000          0.988228E-04
      0.405000          0.980344E-04
      0.410000          0.973380E-04
      0.415000          0.967268E-04
      0.420000          0.962008E-04
      0.425000          0.957645E-04
      0.430000          0.954244E-04
      0.435000          0.951865E-04
      0.440000          0.950549E-04
      0.445000          0.950300E-04
      0.450000          0.951080E-04
      0.455000          0.952806E-04
      0.460000          0.955350E-04
      0.465000          0.958548E-04
      0.470000          0.962208E-04
      0.475000          0.966120E-04
      0.480000          0.970065E-04
      0.485000          0.973831E-04
      0.490000          0.977216E-04
      0.495000          0.980042E-04
      0.500000          0.982154E-04
