 I_abs(s)[cm^-1]/c[mg/ml]
       0.00000          0.139530E-01
      0.500000E-02      0.139038E-01
      0.100000E-01      0.137571E-01
      0.150000E-01      0.135165E-01
      0.200000E-01      0.131874E-01
      0.250000E-01      0.127774E-01
      0.300000E-01      0.122956E-01
      0.350000E-01      0.117524E-01
      0.400000E-01      0.111594E-01
      0.450000E-01      0.105285E-01
      0.500000E-01      0.987192E-02
      0.550000E-01      0.920171E-02
      0.600000E-01      0.852929E-02
      0.650000E-01      0.786521E-02
      0.700000E-01      0.721889E-02
      0.750000E-01      0.659838E-02
      0.800000E-01      0.601023E-02
      0.850000E-01      0.545943E-02
      0.900000E-01      0.494940E-02
      0.950000E-01      0.448205E-02
      0.100000          0.405785E-02
      0.105000          0.367605E-02
      0.110000          0.333485E-02
      0.115000          0.303158E-02
      0.120000          0.276295E-02
      0.125000          0.252529E-02
      0.130000          0.231474E-02
      0.135000          0.212743E-02
      0.140000          0.195966E-02
      0.145000          0.180805E-02
      0.150000          0.166960E-02
      0.155000          0.154177E-02
      0.160000          0.142254E-02
      0.165000          0.131033E-02
      0.170000          0.120406E-02
      0.175000          0.110304E-02
      0.180000          0.100691E-02
      0.185000          0.915606E-03
      0.190000          0.829246E-03
      0.195000          0.748062E-03
      0.200000          0.672336E-03
      0.205000          0.602337E-03
      0.210000          0.538274E-03
      0.215000          0.480260E-03
      0.220000          0.428296E-03
      0.225000          0.382255E-03
      0.230000          0.341890E-03
      0.235000          0.306847E-03
      0.240000          0.276683E-03
      0.245000          0.250892E-03
      0.250000          0.228930E-03
      0.255000          0.210243E-03
      0.260000          0.194292E-03
      0.265000          0.180573E-03
      0.270000          0.168637E-03
      0.275000          0.158098E-03
      0.280000          0.148642E-03
      0.285000          0.140027E-03
      0.290000          0.132081E-03
      0.295000          0.124695E-03
      0.300000          0.117813E-03
      0.305000          0.111420E-03
      0.310000          0.105532E-03
      0.315000          0.100184E-03
      0.320000          0.954155E-04
      0.325000          0.912653E-04
      0.330000          0.877620E-04
      0.335000          0.849190E-04
      0.340000          0.827317E-04
      0.345000          0.811762E-04
      0.350000          0.802105E-04
      0.355000          0.797768E-04
      0.360000          0.798052E-04
      0.365000          0.802177E-04
      0.370000          0.809331E-04
      0.375000          0.818710E-04
      0.380000          0.829566E-04
      0.385000          0.841234E-04
      0.390000          0.853162E-04
      0.395000          0.864926E-04
      0.400000          0.876237E-04
      0.405000          0.886943E-04
      0.410000          0.897011E-04
      0.415000          0.906519E-04
      0.420000          0.915625E-04
      0.425000          0.924551E-04
      0.430000          0.933546E-04
      0.435000          0.942869E-04
      0.440000          0.952756E-04
      0.445000          0.963402E-04
      0.450000          0.974942E-04
      0.455000          0.987437E-04
      0.460000          0.100087E-03
      0.465000          0.101514E-03
      0.470000          0.103006E-03
      0.475000          0.104538E-03
      0.480000          0.106079E-03
      0.485000          0.107592E-03
      0.490000          0.109039E-03
      0.495000          0.110379E-03
      0.500000          0.111575E-03
