 I_abs(s)[cm^-1]/c[mg/ml]
       0.00000          0.140622E-01
      0.500000E-02      0.140084E-01
      0.100000E-01      0.138485E-01
      0.150000E-01      0.135864E-01
      0.200000E-01      0.132288E-01
      0.250000E-01      0.127844E-01
      0.300000E-01      0.122640E-01
      0.350000E-01      0.116799E-01
      0.400000E-01      0.110452E-01
      0.450000E-01      0.103737E-01
      0.500000E-01      0.967919E-02
      0.550000E-01      0.897518E-02
      0.600000E-01      0.827416E-02
      0.650000E-01      0.758748E-02
      0.700000E-01      0.692498E-02
      0.750000E-01      0.629476E-02
      0.800000E-01      0.570314E-02
      0.850000E-01      0.515453E-02
      0.900000E-01      0.465154E-02
      0.950000E-01      0.419511E-02
      0.100000          0.378465E-02
      0.105000          0.341831E-02
      0.110000          0.309320E-02
      0.115000          0.280574E-02
      0.120000          0.255184E-02
      0.125000          0.232724E-02
      0.130000          0.212768E-02
      0.135000          0.194916E-02
      0.140000          0.178802E-02
      0.145000          0.164112E-02
      0.150000          0.150584E-02
      0.155000          0.138015E-02
      0.160000          0.126255E-02
      0.165000          0.115206E-02
      0.170000          0.104811E-02
      0.175000          0.950491E-03
      0.180000          0.859228E-03
      0.185000          0.774501E-03
      0.190000          0.696550E-03
      0.195000          0.625603E-03
      0.200000          0.561812E-03
      0.205000          0.505207E-03
      0.210000          0.455674E-03
      0.215000          0.412943E-03
      0.220000          0.376593E-03
      0.225000          0.346073E-03
      0.230000          0.320729E-03
      0.235000          0.299840E-03
      0.240000          0.282650E-03
      0.245000          0.268411E-03
      0.250000          0.256412E-03
      0.255000          0.246008E-03
      0.260000          0.236643E-03
      0.265000          0.227863E-03
      0.270000          0.219323E-03
      0.275000          0.210788E-03
      0.280000          0.202126E-03
      0.285000          0.193297E-03
      0.290000          0.184335E-03
      0.295000          0.175337E-03
      0.300000          0.166437E-03
      0.305000          0.157794E-03
      0.310000          0.149571E-03
      0.315000          0.141923E-03
      0.320000          0.134986E-03
      0.325000          0.128865E-03
      0.330000          0.123633E-03
      0.335000          0.119325E-03
      0.340000          0.115939E-03
      0.345000          0.113440E-03
      0.350000          0.111765E-03
      0.355000          0.110825E-03
      0.360000          0.110517E-03
      0.365000          0.110724E-03
      0.370000          0.111328E-03
      0.375000          0.112215E-03
      0.380000          0.113275E-03
      0.385000          0.114412E-03
      0.390000          0.115545E-03
      0.395000          0.116611E-03
      0.400000          0.117565E-03
      0.405000          0.118377E-03
      0.410000          0.119036E-03
      0.415000          0.119546E-03
      0.420000          0.119921E-03
      0.425000          0.120184E-03
      0.430000          0.120367E-03
      0.435000          0.120500E-03
      0.440000          0.120614E-03
      0.445000          0.120738E-03
      0.450000          0.120893E-03
      0.455000          0.121093E-03
      0.460000          0.121344E-03
      0.465000          0.121639E-03
      0.470000          0.121965E-03
      0.475000          0.122298E-03
      0.480000          0.122608E-03
      0.485000          0.122858E-03
      0.490000          0.123007E-03
      0.495000          0.123015E-03
      0.500000          0.122843E-03
