 I_abs(s)[cm^-1]/c[mg/ml]
       0.00000          0.138909E-01
      0.500000E-02      0.138378E-01
      0.100000E-01      0.136798E-01
      0.150000E-01      0.134210E-01
      0.200000E-01      0.130680E-01
      0.250000E-01      0.126295E-01
      0.300000E-01      0.121161E-01
      0.350000E-01      0.115401E-01
      0.400000E-01      0.109144E-01
      0.450000E-01      0.102529E-01
      0.500000E-01      0.956903E-02
      0.550000E-01      0.887612E-02
      0.600000E-01      0.818650E-02
      0.650000E-01      0.751129E-02
      0.700000E-01      0.686011E-02
      0.750000E-01      0.624087E-02
      0.800000E-01      0.565969E-02
      0.850000E-01      0.512085E-02
      0.900000E-01      0.462688E-02
      0.950000E-01      0.417863E-02
      0.100000          0.377554E-02
      0.105000          0.341581E-02
      0.110000          0.309668E-02
      0.115000          0.281468E-02
      0.120000          0.256593E-02
      0.125000          0.234633E-02
      0.130000          0.215185E-02
      0.135000          0.197861E-02
      0.140000          0.182313E-02
      0.145000          0.168232E-02
      0.150000          0.155360E-02
      0.155000          0.143492E-02
      0.160000          0.132467E-02
      0.165000          0.122171E-02
      0.170000          0.112529E-02
      0.175000          0.103493E-02
      0.180000          0.950409E-03
      0.185000          0.871631E-03
      0.190000          0.798589E-03
      0.195000          0.731293E-03
      0.200000          0.669725E-03
      0.205000          0.613811E-03
      0.210000          0.563397E-03
      0.215000          0.518248E-03
      0.220000          0.478049E-03
      0.225000          0.442422E-03
      0.230000          0.410937E-03
      0.235000          0.383137E-03
      0.240000          0.358559E-03
      0.245000          0.336747E-03
      0.250000          0.317278E-03
      0.255000          0.299766E-03
      0.260000          0.283873E-03
      0.265000          0.269314E-03
      0.270000          0.255856E-03
      0.275000          0.243316E-03
      0.280000          0.231555E-03
      0.285000          0.220474E-03
      0.290000          0.210004E-03
      0.295000          0.200101E-03
      0.300000          0.190740E-03
      0.305000          0.181906E-03
      0.310000          0.173596E-03
      0.315000          0.165808E-03
      0.320000          0.158542E-03
      0.325000          0.151801E-03
      0.330000          0.145583E-03
      0.335000          0.139887E-03
      0.340000          0.134708E-03
      0.345000          0.130037E-03
      0.350000          0.125863E-03
      0.355000          0.122171E-03
      0.360000          0.118939E-03
      0.365000          0.116142E-03
      0.370000          0.113750E-03
      0.375000          0.111727E-03
      0.380000          0.110034E-03
      0.385000          0.108627E-03
      0.390000          0.107461E-03
      0.395000          0.106488E-03
      0.400000          0.105663E-03
      0.405000          0.104942E-03
      0.410000          0.104285E-03
      0.415000          0.103658E-03
      0.420000          0.103033E-03
      0.425000          0.102388E-03
      0.430000          0.101710E-03
      0.435000          0.100994E-03
      0.440000          0.100240E-03
      0.445000          0.994528E-04
      0.450000          0.986435E-04
      0.455000          0.978246E-04
      0.460000          0.970099E-04
      0.465000          0.962129E-04
      0.470000          0.954449E-04
      0.475000          0.947146E-04
      0.480000          0.940270E-04
      0.485000          0.933830E-04
      0.490000          0.927797E-04
      0.495000          0.922104E-04
      0.500000          0.916658E-04
