 I_abs(s)[cm^-1]/c[mg/ml]
       0.00000          0.144951E-01
      0.500000E-02      0.144429E-01
      0.100000E-01      0.142873E-01
      0.150000E-01      0.140316E-01
      0.200000E-01      0.136812E-01
      0.250000E-01      0.132433E-01
      0.300000E-01      0.127269E-01
      0.350000E-01      0.121423E-01
      0.400000E-01      0.115008E-01
      0.450000E-01      0.108145E-01
      0.500000E-01      0.100960E-01
      0.550000E-01      0.935752E-02
      0.600000E-01      0.861135E-02
      0.650000E-01      0.786893E-02
      0.700000E-01      0.714083E-02
      0.750000E-01      0.643647E-02
      0.800000E-01      0.576394E-02
      0.850000E-01      0.512990E-02
      0.900000E-01      0.453952E-02
      0.950000E-01      0.399643E-02
      0.100000          0.350280E-02
      0.105000          0.305943E-02
      0.110000          0.266587E-02
      0.115000          0.232055E-02
      0.120000          0.202102E-02
      0.125000          0.176407E-02
      0.130000          0.154597E-02
      0.135000          0.136268E-02
      0.140000          0.120994E-02
      0.145000          0.108354E-02
      0.150000          0.979374E-03
      0.155000          0.893589E-03
      0.160000          0.822672E-03
      0.165000          0.763499E-03
      0.170000          0.713377E-03
      0.175000          0.670050E-03
      0.180000          0.631696E-03
      0.185000          0.596895E-03
      0.190000          0.564594E-03
      0.195000          0.534062E-03
      0.200000          0.504832E-03
      0.205000          0.476655E-03
      0.210000          0.449440E-03
      0.215000          0.423212E-03
      0.220000          0.398065E-03
      0.225000          0.374128E-03
      0.230000          0.351536E-03
      0.235000          0.330408E-03
      0.240000          0.310834E-03
      0.245000          0.292864E-03
      0.250000          0.276510E-03
      0.255000          0.261746E-03
      0.260000          0.248509E-03
      0.265000          0.236712E-03
      0.270000          0.226246E-03
      0.275000          0.216993E-03
      0.280000          0.208827E-03
      0.285000          0.201625E-03
      0.290000          0.195272E-03
      0.295000          0.189661E-03
      0.300000          0.184696E-03
      0.305000          0.180295E-03
      0.310000          0.176386E-03
      0.315000          0.172909E-03
      0.320000          0.169812E-03
      0.325000          0.167053E-03
      0.330000          0.164591E-03
      0.335000          0.162392E-03
      0.340000          0.160422E-03
      0.345000          0.158652E-03
      0.350000          0.157049E-03
      0.355000          0.155585E-03
      0.360000          0.154230E-03
      0.365000          0.152958E-03
      0.370000          0.151743E-03
      0.375000          0.150563E-03
      0.380000          0.149397E-03
      0.385000          0.148227E-03
      0.390000          0.147042E-03
      0.395000          0.145831E-03
      0.400000          0.144586E-03
      0.405000          0.143303E-03
      0.410000          0.141981E-03
      0.415000          0.140618E-03
      0.420000          0.139214E-03
      0.425000          0.137771E-03
      0.430000          0.136289E-03
      0.435000          0.134769E-03
      0.440000          0.133210E-03
      0.445000          0.131611E-03
      0.450000          0.129973E-03
      0.455000          0.128293E-03
      0.460000          0.126572E-03
      0.465000          0.124810E-03
      0.470000          0.123009E-03
      0.475000          0.121171E-03
      0.480000          0.119301E-03
      0.485000          0.117407E-03
      0.490000          0.115498E-03
      0.495000          0.113585E-03
      0.500000          0.111680E-03
