 I_abs(s)[cm^-1]/c[mg/ml]
       0.00000          0.138366E-01
      0.500000E-02      0.137879E-01
      0.100000E-01      0.136430E-01
      0.150000E-01      0.134054E-01
      0.200000E-01      0.130806E-01
      0.250000E-01      0.126760E-01
      0.300000E-01      0.122008E-01
      0.350000E-01      0.116655E-01
      0.400000E-01      0.110815E-01
      0.450000E-01      0.104606E-01
      0.500000E-01      0.981493E-02
      0.550000E-01      0.915636E-02
      0.600000E-01      0.849609E-02
      0.650000E-01      0.784442E-02
      0.700000E-01      0.721047E-02
      0.750000E-01      0.660200E-02
      0.800000E-01      0.602523E-02
      0.850000E-01      0.548487E-02
      0.900000E-01      0.498403E-02
      0.950000E-01      0.452438E-02
      0.100000          0.410620E-02
      0.105000          0.372862E-02
      0.110000          0.338975E-02
      0.115000          0.308695E-02
      0.120000          0.281700E-02
      0.125000          0.257640E-02
      0.130000          0.236148E-02
      0.135000          0.216866E-02
      0.140000          0.199453E-02
      0.145000          0.183605E-02
      0.150000          0.169054E-02
      0.155000          0.155580E-02
      0.160000          0.143009E-02
      0.165000          0.131210E-02
      0.170000          0.120096E-02
      0.175000          0.109613E-02
      0.180000          0.997358E-03
      0.185000          0.904610E-03
      0.190000          0.817982E-03
      0.195000          0.737633E-03
      0.200000          0.663725E-03
      0.205000          0.596374E-03
      0.210000          0.535609E-03
      0.215000          0.481349E-03
      0.220000          0.433395E-03
      0.225000          0.391427E-03
      0.230000          0.355019E-03
      0.235000          0.323657E-03
      0.240000          0.296763E-03
      0.245000          0.273726E-03
      0.250000          0.253924E-03
      0.255000          0.236757E-03
      0.260000          0.221667E-03
      0.265000          0.208156E-03
      0.270000          0.195802E-03
      0.275000          0.184266E-03
      0.280000          0.173292E-03
      0.285000          0.162708E-03
      0.290000          0.152417E-03
      0.295000          0.142387E-03
      0.300000          0.132641E-03
      0.305000          0.123238E-03
      0.310000          0.114266E-03
      0.315000          0.105822E-03
      0.320000          0.980072E-04
      0.325000          0.909115E-04
      0.330000          0.846087E-04
      0.335000          0.791505E-04
      0.340000          0.745637E-04
      0.345000          0.708496E-04
      0.350000          0.679849E-04
      0.355000          0.659243E-04
      0.360000          0.646046E-04
      0.365000          0.639488E-04
      0.370000          0.638708E-04
      0.375000          0.642801E-04
      0.380000          0.650859E-04
      0.385000          0.662013E-04
      0.390000          0.675454E-04
      0.395000          0.690463E-04
      0.400000          0.706422E-04
      0.405000          0.722820E-04
      0.410000          0.739253E-04
      0.415000          0.755421E-04
      0.420000          0.771118E-04
      0.425000          0.786218E-04
      0.430000          0.800663E-04
      0.435000          0.814452E-04
      0.440000          0.827622E-04
      0.445000          0.840240E-04
      0.450000          0.852393E-04
      0.455000          0.864171E-04
      0.460000          0.875671E-04
      0.465000          0.886979E-04
      0.470000          0.898174E-04
      0.475000          0.909318E-04
      0.480000          0.920455E-04
      0.485000          0.931611E-04
      0.490000          0.942786E-04
      0.495000          0.953959E-04
      0.500000          0.965083E-04
