 I_abs(s)[cm^-1]/c[mg/ml]
       0.00000          0.139297E-01
      0.500000E-02      0.138814E-01
      0.100000E-01      0.137376E-01
      0.150000E-01      0.135015E-01
      0.200000E-01      0.131786E-01
      0.250000E-01      0.127762E-01
      0.300000E-01      0.123029E-01
      0.350000E-01      0.117690E-01
      0.400000E-01      0.111856E-01
      0.450000E-01      0.105644E-01
      0.500000E-01      0.991702E-02
      0.550000E-01      0.925529E-02
      0.600000E-01      0.859028E-02
      0.650000E-01      0.793226E-02
      0.700000E-01      0.729042E-02
      0.750000E-01      0.667264E-02
      0.800000E-01      0.608540E-02
      0.850000E-01      0.553366E-02
      0.900000E-01      0.502089E-02
      0.950000E-01      0.454909E-02
      0.100000          0.411896E-02
      0.105000          0.372995E-02
      0.110000          0.338053E-02
      0.115000          0.306833E-02
      0.120000          0.279039E-02
      0.125000          0.254334E-02
      0.130000          0.232360E-02
      0.135000          0.212759E-02
      0.140000          0.195185E-02
      0.145000          0.179317E-02
      0.150000          0.164868E-02
      0.155000          0.151595E-02
      0.160000          0.139296E-02
      0.165000          0.127812E-02
      0.170000          0.117026E-02
      0.175000          0.106860E-02
      0.180000          0.972641E-03
      0.185000          0.882158E-03
      0.190000          0.797104E-03
      0.195000          0.717548E-03
      0.200000          0.643619E-03
      0.205000          0.575454E-03
      0.210000          0.513150E-03
      0.215000          0.456742E-03
      0.220000          0.406177E-03
      0.225000          0.361309E-03
      0.230000          0.321901E-03
      0.235000          0.287627E-03
      0.240000          0.258098E-03
      0.245000          0.232868E-03
      0.250000          0.211464E-03
      0.255000          0.193403E-03
      0.260000          0.178210E-03
      0.265000          0.165435E-03
      0.270000          0.154667E-03
      0.275000          0.145545E-03
      0.280000          0.137757E-03
      0.285000          0.131048E-03
      0.290000          0.125217E-03
      0.295000          0.120109E-03
      0.300000          0.115614E-03
      0.305000          0.111655E-03
      0.310000          0.108182E-03
      0.315000          0.105166E-03
      0.320000          0.102585E-03
      0.325000          0.100427E-03
      0.330000          0.986768E-04
      0.335000          0.973168E-04
      0.340000          0.963232E-04
      0.345000          0.956653E-04
      0.350000          0.953059E-04
      0.355000          0.952018E-04
      0.360000          0.953063E-04
      0.365000          0.955708E-04
      0.370000          0.959470E-04
      0.375000          0.963898E-04
      0.380000          0.968586E-04
      0.385000          0.973194E-04
      0.390000          0.977457E-04
      0.395000          0.981190E-04
      0.400000          0.984293E-04
      0.405000          0.986744E-04
      0.410000          0.988594E-04
      0.415000          0.989951E-04
      0.420000          0.990973E-04
      0.425000          0.991846E-04
      0.430000          0.992770E-04
      0.435000          0.993947E-04
      0.440000          0.995562E-04
      0.445000          0.997774E-04
      0.450000          0.100070E-03
      0.455000          0.100443E-03
      0.460000          0.100897E-03
      0.465000          0.101431E-03
      0.470000          0.102037E-03
      0.475000          0.102703E-03
      0.480000          0.103414E-03
      0.485000          0.104150E-03
      0.490000          0.104891E-03
      0.495000          0.105613E-03
      0.500000          0.106294E-03
