 I_abs(s)[cm^-1]/c[mg/ml]
       0.00000          0.139920E-01
      0.500000E-02      0.139397E-01
      0.100000E-01      0.137842E-01
      0.150000E-01      0.135291E-01
      0.200000E-01      0.131807E-01
      0.250000E-01      0.127473E-01
      0.300000E-01      0.122388E-01
      0.350000E-01      0.116667E-01
      0.400000E-01      0.110436E-01
      0.450000E-01      0.103825E-01
      0.500000E-01      0.969661E-02
      0.550000E-01      0.899874E-02
      0.600000E-01      0.830104E-02
      0.650000E-01      0.761460E-02
      0.700000E-01      0.694917E-02
      0.750000E-01      0.631297E-02
      0.800000E-01      0.571255E-02
      0.850000E-01      0.515273E-02
      0.900000E-01      0.463667E-02
      0.950000E-01      0.416591E-02
      0.100000          0.374058E-02
      0.105000          0.335950E-02
      0.110000          0.302052E-02
      0.115000          0.272066E-02
      0.120000          0.245640E-02
      0.125000          0.222393E-02
      0.130000          0.201932E-02
      0.135000          0.183872E-02
      0.140000          0.167854E-02
      0.145000          0.153551E-02
      0.150000          0.140680E-02
      0.155000          0.129003E-02
      0.160000          0.118328E-02
      0.165000          0.108508E-02
      0.170000          0.994357E-03
      0.175000          0.910355E-03
      0.180000          0.832598E-03
      0.185000          0.760800E-03
      0.190000          0.694800E-03
      0.195000          0.634503E-03
      0.200000          0.579828E-03
      0.205000          0.530665E-03
      0.210000          0.486855E-03
      0.215000          0.448170E-03
      0.220000          0.414317E-03
      0.225000          0.384934E-03
      0.230000          0.359614E-03
      0.235000          0.337914E-03
      0.240000          0.319377E-03
      0.245000          0.303552E-03
      0.250000          0.290009E-03
      0.255000          0.278354E-03
      0.260000          0.268236E-03
      0.265000          0.259356E-03
      0.270000          0.251465E-03
      0.275000          0.244363E-03
      0.280000          0.237891E-03
      0.285000          0.231926E-03
      0.290000          0.226372E-03
      0.295000          0.221151E-03
      0.300000          0.216196E-03
      0.305000          0.211446E-03
      0.310000          0.206840E-03
      0.315000          0.202314E-03
      0.320000          0.197808E-03
      0.325000          0.193258E-03
      0.330000          0.188606E-03
      0.335000          0.183802E-03
      0.340000          0.178807E-03
      0.345000          0.173600E-03
      0.350000          0.168176E-03
      0.355000          0.162555E-03
      0.360000          0.156777E-03
      0.365000          0.150904E-03
      0.370000          0.145015E-03
      0.375000          0.139207E-03
      0.380000          0.133584E-03
      0.385000          0.128256E-03
      0.390000          0.123331E-03
      0.395000          0.118909E-03
      0.400000          0.115074E-03
      0.405000          0.111892E-03
      0.410000          0.109407E-03
      0.415000          0.107636E-03
      0.420000          0.106568E-03
      0.425000          0.106167E-03
      0.430000          0.106371E-03
      0.435000          0.107095E-03
      0.440000          0.108239E-03
      0.445000          0.109687E-03
      0.450000          0.111317E-03
      0.455000          0.113007E-03
      0.460000          0.114637E-03
      0.465000          0.116098E-03
      0.470000          0.117295E-03
      0.475000          0.118150E-03
      0.480000          0.118607E-03
      0.485000          0.118630E-03
      0.490000          0.118208E-03
      0.495000          0.117347E-03
      0.500000          0.116078E-03
