 I_abs(s)[cm^-1]/c[mg/ml]
       0.00000          0.140622E-01
      0.500000E-02      0.140035E-01
      0.100000E-01      0.138291E-01
      0.150000E-01      0.135440E-01
      0.200000E-01      0.131564E-01
      0.250000E-01      0.126770E-01
      0.300000E-01      0.121190E-01
      0.350000E-01      0.114970E-01
      0.400000E-01      0.108266E-01
      0.450000E-01      0.101238E-01
      0.500000E-01      0.940419E-02
      0.550000E-01      0.868260E-02
      0.600000E-01      0.797232E-02
      0.650000E-01      0.728488E-02
      0.700000E-01      0.662975E-02
      0.750000E-01      0.601416E-02
      0.800000E-01      0.544309E-02
      0.850000E-01      0.491939E-02
      0.900000E-01      0.444391E-02
      0.950000E-01      0.401583E-02
      0.100000          0.363292E-02
      0.105000          0.329193E-02
      0.110000          0.298891E-02
      0.115000          0.271955E-02
      0.120000          0.247948E-02
      0.125000          0.226451E-02
      0.130000          0.207081E-02
      0.135000          0.189504E-02
      0.140000          0.173442E-02
      0.145000          0.158673E-02
      0.150000          0.145031E-02
      0.155000          0.132395E-02
      0.160000          0.120684E-02
      0.165000          0.109846E-02
      0.170000          0.998483E-03
      0.175000          0.906689E-03
      0.180000          0.822882E-03
      0.185000          0.746841E-03
      0.190000          0.678279E-03
      0.195000          0.616826E-03
      0.200000          0.562028E-03
      0.205000          0.513360E-03
      0.210000          0.470246E-03
      0.215000          0.432086E-03
      0.220000          0.398285E-03
      0.225000          0.368277E-03
      0.230000          0.341546E-03
      0.235000          0.317640E-03
      0.240000          0.296180E-03
      0.245000          0.276860E-03
      0.250000          0.259443E-03
      0.255000          0.243748E-03
      0.260000          0.229645E-03
      0.265000          0.217034E-03
      0.270000          0.205839E-03
      0.275000          0.195990E-03
      0.280000          0.187418E-03
      0.285000          0.180048E-03
      0.290000          0.173793E-03
      0.295000          0.168554E-03
      0.300000          0.164222E-03
      0.305000          0.160681E-03
      0.310000          0.157810E-03
      0.315000          0.155487E-03
      0.320000          0.153597E-03
      0.325000          0.152030E-03
      0.330000          0.150689E-03
      0.335000          0.149489E-03
      0.340000          0.148359E-03
      0.345000          0.147241E-03
      0.350000          0.146094E-03
      0.355000          0.144885E-03
      0.360000          0.143598E-03
      0.365000          0.142222E-03
      0.370000          0.140758E-03
      0.375000          0.139212E-03
      0.380000          0.137596E-03
      0.385000          0.135925E-03
      0.390000          0.134218E-03
      0.395000          0.132493E-03
      0.400000          0.130771E-03
      0.405000          0.129070E-03
      0.410000          0.127408E-03
      0.415000          0.125800E-03
      0.420000          0.124258E-03
      0.425000          0.122793E-03
      0.430000          0.121410E-03
      0.435000          0.120113E-03
      0.440000          0.118902E-03
      0.445000          0.117772E-03
      0.450000          0.116721E-03
      0.455000          0.115738E-03
      0.460000          0.114817E-03
      0.465000          0.113948E-03
      0.470000          0.113119E-03
      0.475000          0.112321E-03
      0.480000          0.111543E-03
      0.485000          0.110776E-03
      0.490000          0.110010E-03
      0.495000          0.109238E-03
      0.500000          0.108451E-03
