 I_abs(s)[cm^-1]/c[mg/ml]
       0.00000          0.141404E-01
      0.500000E-02      0.140849E-01
      0.100000E-01      0.139196E-01
      0.150000E-01      0.136490E-01
      0.200000E-01      0.132798E-01
      0.250000E-01      0.128215E-01
      0.300000E-01      0.122851E-01
      0.350000E-01      0.116836E-01
      0.400000E-01      0.110308E-01
      0.450000E-01      0.103409E-01
      0.500000E-01      0.962849E-02
      0.550000E-01      0.890733E-02
      0.600000E-01      0.819039E-02
      0.650000E-01      0.748933E-02
      0.700000E-01      0.681419E-02
      0.750000E-01      0.617322E-02
      0.800000E-01      0.557275E-02
      0.850000E-01      0.501720E-02
      0.900000E-01      0.450909E-02
      0.950000E-01      0.404926E-02
      0.100000          0.363702E-02
      0.105000          0.327039E-02
      0.110000          0.294641E-02
      0.115000          0.266138E-02
      0.120000          0.241116E-02
      0.125000          0.219145E-02
      0.130000          0.199793E-02
      0.135000          0.182657E-02
      0.140000          0.167365E-02
      0.145000          0.153594E-02
      0.150000          0.141073E-02
      0.155000          0.129584E-02
      0.160000          0.118959E-02
      0.165000          0.109079E-02
      0.170000          0.998627E-03
      0.175000          0.912621E-03
      0.180000          0.832529E-03
      0.185000          0.758271E-03
      0.190000          0.689849E-03
      0.195000          0.627293E-03
      0.200000          0.570605E-03
      0.205000          0.519730E-03
      0.210000          0.474531E-03
      0.215000          0.434786E-03
      0.220000          0.400183E-03
      0.225000          0.370338E-03
      0.230000          0.344811E-03
      0.235000          0.323121E-03
      0.240000          0.304774E-03
      0.245000          0.289279E-03
      0.250000          0.276165E-03
      0.255000          0.265000E-03
      0.260000          0.255393E-03
      0.265000          0.247008E-03
      0.270000          0.239562E-03
      0.275000          0.232824E-03
      0.280000          0.226615E-03
      0.285000          0.220797E-03
      0.290000          0.215270E-03
      0.295000          0.209965E-03
      0.300000          0.204836E-03
      0.305000          0.199855E-03
      0.310000          0.195006E-03
      0.315000          0.190279E-03
      0.320000          0.185671E-03
      0.325000          0.181179E-03
      0.330000          0.176802E-03
      0.335000          0.172537E-03
      0.340000          0.168383E-03
      0.345000          0.164335E-03
      0.350000          0.160391E-03
      0.355000          0.156547E-03
      0.360000          0.152801E-03
      0.365000          0.149151E-03
      0.370000          0.145596E-03
      0.375000          0.142136E-03
      0.380000          0.138771E-03
      0.385000          0.135506E-03
      0.390000          0.132341E-03
      0.395000          0.129282E-03
      0.400000          0.126333E-03
      0.405000          0.123499E-03
      0.410000          0.120784E-03
      0.415000          0.118194E-03
      0.420000          0.115732E-03
      0.425000          0.113403E-03
      0.430000          0.111211E-03
      0.435000          0.109156E-03
      0.440000          0.107240E-03
      0.445000          0.105465E-03
      0.450000          0.103827E-03
      0.455000          0.102326E-03
      0.460000          0.100958E-03
      0.465000          0.997194E-04
      0.470000          0.986041E-04
      0.475000          0.976069E-04
      0.480000          0.967217E-04
      0.485000          0.959419E-04
      0.490000          0.952610E-04
      0.495000          0.946724E-04
      0.500000          0.941694E-04
