 I_abs(s)[cm^-1]/c[mg/ml]
       0.00000          0.140935E-01
      0.500000E-02      0.140422E-01
      0.100000E-01      0.138897E-01
      0.150000E-01      0.136395E-01
      0.200000E-01      0.132973E-01
      0.250000E-01      0.128708E-01
      0.300000E-01      0.123696E-01
      0.350000E-01      0.118045E-01
      0.400000E-01      0.111872E-01
      0.450000E-01      0.105303E-01
      0.500000E-01      0.984637E-02
      0.550000E-01      0.914774E-02
      0.600000E-01      0.844626E-02
      0.650000E-01      0.775285E-02
      0.700000E-01      0.707724E-02
      0.750000E-01      0.642779E-02
      0.800000E-01      0.581137E-02
      0.850000E-01      0.523326E-02
      0.900000E-01      0.469716E-02
      0.950000E-01      0.420526E-02
      0.100000          0.375836E-02
      0.105000          0.335601E-02
      0.110000          0.299671E-02
      0.115000          0.267810E-02
      0.120000          0.239721E-02
      0.125000          0.215065E-02
      0.130000          0.193479E-02
      0.135000          0.174596E-02
      0.140000          0.158060E-02
      0.145000          0.143536E-02
      0.150000          0.130723E-02
      0.155000          0.119352E-02
      0.160000          0.109197E-02
      0.165000          0.100068E-02
      0.170000          0.918153E-03
      0.175000          0.843192E-03
      0.180000          0.774906E-03
      0.185000          0.712629E-03
      0.190000          0.655871E-03
      0.195000          0.604270E-03
      0.200000          0.557538E-03
      0.205000          0.515429E-03
      0.210000          0.477704E-03
      0.215000          0.444115E-03
      0.220000          0.414390E-03
      0.225000          0.388227E-03
      0.230000          0.365301E-03
      0.235000          0.345266E-03
      0.240000          0.327767E-03
      0.245000          0.312450E-03
      0.250000          0.298974E-03
      0.255000          0.287019E-03
      0.260000          0.276295E-03
      0.265000          0.266547E-03
      0.270000          0.257559E-03
      0.275000          0.249153E-03
      0.280000          0.241189E-03
      0.285000          0.233561E-03
      0.290000          0.226191E-03
      0.295000          0.219028E-03
      0.300000          0.212037E-03
      0.305000          0.205203E-03
      0.310000          0.198515E-03
      0.315000          0.191974E-03
      0.320000          0.185582E-03
      0.325000          0.179347E-03
      0.330000          0.173274E-03
      0.335000          0.167373E-03
      0.340000          0.161654E-03
      0.345000          0.156125E-03
      0.350000          0.150800E-03
      0.355000          0.145691E-03
      0.360000          0.140812E-03
      0.365000          0.136178E-03
      0.370000          0.131806E-03
      0.375000          0.127710E-03
      0.380000          0.123905E-03
      0.385000          0.120402E-03
      0.390000          0.117211E-03
      0.395000          0.114337E-03
      0.400000          0.111781E-03
      0.405000          0.109540E-03
      0.410000          0.107605E-03
      0.415000          0.105963E-03
      0.420000          0.104595E-03
      0.425000          0.103482E-03
      0.430000          0.102597E-03
      0.435000          0.101914E-03
      0.440000          0.101404E-03
      0.445000          0.101039E-03
      0.450000          0.100789E-03
      0.455000          0.100628E-03
      0.460000          0.100530E-03
      0.465000          0.100471E-03
      0.470000          0.100433E-03
      0.475000          0.100397E-03
      0.480000          0.100351E-03
      0.485000          0.100284E-03
      0.490000          0.100189E-03
      0.495000          0.100063E-03
      0.500000          0.999038E-04
