 I_abs(s)[cm^-1]/c[mg/ml]
       0.00000          0.141483E-01
      0.500000E-02      0.140917E-01
      0.100000E-01      0.139236E-01
      0.150000E-01      0.136482E-01
      0.200000E-01      0.132725E-01
      0.250000E-01      0.128061E-01
      0.300000E-01      0.122604E-01
      0.350000E-01      0.116484E-01
      0.400000E-01      0.109843E-01
      0.450000E-01      0.102828E-01
      0.500000E-01      0.955844E-02
      0.550000E-01      0.882556E-02
      0.600000E-01      0.809742E-02
      0.650000E-01      0.738597E-02
      0.700000E-01      0.670156E-02
      0.750000E-01      0.605272E-02
      0.800000E-01      0.544602E-02
      0.850000E-01      0.488605E-02
      0.900000E-01      0.437552E-02
      0.950000E-01      0.391534E-02
      0.100000          0.350486E-02
      0.105000          0.314207E-02
      0.110000          0.282394E-02
      0.115000          0.254663E-02
      0.120000          0.230583E-02
      0.125000          0.209697E-02
      0.130000          0.191551E-02
      0.135000          0.175708E-02
      0.140000          0.161766E-02
      0.145000          0.149370E-02
      0.150000          0.138216E-02
      0.155000          0.128056E-02
      0.160000          0.118695E-02
      0.165000          0.109986E-02
      0.170000          0.101829E-02
      0.175000          0.941590E-03
      0.180000          0.869385E-03
      0.185000          0.801516E-03
      0.190000          0.737948E-03
      0.195000          0.678711E-03
      0.200000          0.623845E-03
      0.205000          0.573358E-03
      0.210000          0.527199E-03
      0.215000          0.485246E-03
      0.220000          0.447305E-03
      0.225000          0.413110E-03
      0.230000          0.382347E-03
      0.235000          0.354660E-03
      0.240000          0.329681E-03
      0.245000          0.307046E-03
      0.250000          0.286411E-03
      0.255000          0.267469E-03
      0.260000          0.249963E-03
      0.265000          0.233687E-03
      0.270000          0.218492E-03
      0.275000          0.204283E-03
      0.280000          0.191012E-03
      0.285000          0.178670E-03
      0.290000          0.167278E-03
      0.295000          0.156875E-03
      0.300000          0.147504E-03
      0.305000          0.139208E-03
      0.310000          0.132014E-03
      0.315000          0.125932E-03
      0.320000          0.120945E-03
      0.325000          0.117013E-03
      0.330000          0.114066E-03
      0.335000          0.112012E-03
      0.340000          0.110738E-03
      0.345000          0.110117E-03
      0.350000          0.110014E-03
      0.355000          0.110291E-03
      0.360000          0.110818E-03
      0.365000          0.111473E-03
      0.370000          0.112153E-03
      0.375000          0.112774E-03
      0.380000          0.113272E-03
      0.385000          0.113610E-03
      0.390000          0.113771E-03
      0.395000          0.113757E-03
      0.400000          0.113589E-03
      0.405000          0.113300E-03
      0.410000          0.112931E-03
      0.415000          0.112528E-03
      0.420000          0.112134E-03
      0.425000          0.111790E-03
      0.430000          0.111527E-03
      0.435000          0.111366E-03
      0.440000          0.111320E-03
      0.445000          0.111385E-03
      0.450000          0.111550E-03
      0.455000          0.111793E-03
      0.460000          0.112083E-03
      0.465000          0.112388E-03
      0.470000          0.112668E-03
      0.475000          0.112888E-03
      0.480000          0.113012E-03
      0.485000          0.113012E-03
      0.490000          0.112862E-03
      0.495000          0.112547E-03
      0.500000          0.112058E-03
