 I_abs(s)[cm^-1]/c[mg/ml]
       0.00000          0.142818E-01
      0.500000E-02      0.142298E-01
      0.100000E-01      0.140750E-01
      0.150000E-01      0.138211E-01
      0.200000E-01      0.134741E-01
      0.250000E-01      0.130421E-01
      0.300000E-01      0.125347E-01
      0.350000E-01      0.119633E-01
      0.400000E-01      0.113399E-01
      0.450000E-01      0.106773E-01
      0.500000E-01      0.998825E-02
      0.550000E-01      0.928523E-02
      0.600000E-01      0.858009E-02
      0.650000E-01      0.788364E-02
      0.700000E-01      0.720542E-02
      0.750000E-01      0.655356E-02
      0.800000E-01      0.593458E-02
      0.850000E-01      0.535342E-02
      0.900000E-01      0.481346E-02
      0.950000E-01      0.431657E-02
      0.100000          0.386330E-02
      0.105000          0.345303E-02
      0.110000          0.308419E-02
      0.115000          0.275445E-02
      0.120000          0.246097E-02
      0.125000          0.220059E-02
      0.130000          0.196997E-02
      0.135000          0.176584E-02
      0.140000          0.158502E-02
      0.145000          0.142460E-02
      0.150000          0.128195E-02
      0.155000          0.115476E-02
      0.160000          0.104107E-02
      0.165000          0.939233E-03
      0.170000          0.847883E-03
      0.175000          0.765912E-03
      0.180000          0.692411E-03
      0.185000          0.626628E-03
      0.190000          0.567928E-03
      0.195000          0.515750E-03
      0.200000          0.469580E-03
      0.205000          0.428929E-03
      0.210000          0.393317E-03
      0.215000          0.362268E-03
      0.220000          0.335307E-03
      0.225000          0.311965E-03
      0.230000          0.291785E-03
      0.235000          0.274327E-03
      0.240000          0.259183E-03
      0.245000          0.245975E-03
      0.250000          0.234370E-03
      0.255000          0.224074E-03
      0.260000          0.214841E-03
      0.265000          0.206468E-03
      0.270000          0.198793E-03
      0.275000          0.191690E-03
      0.280000          0.185069E-03
      0.285000          0.178862E-03
      0.290000          0.173024E-03
      0.295000          0.167529E-03
      0.300000          0.162359E-03
      0.305000          0.157505E-03
      0.310000          0.152965E-03
      0.315000          0.148738E-03
      0.320000          0.144823E-03
      0.325000          0.141222E-03
      0.330000          0.137932E-03
      0.335000          0.134952E-03
      0.340000          0.132277E-03
      0.345000          0.129899E-03
      0.350000          0.127807E-03
      0.355000          0.125990E-03
      0.360000          0.124428E-03
      0.365000          0.123101E-03
      0.370000          0.121984E-03
      0.375000          0.121048E-03
      0.380000          0.120261E-03
      0.385000          0.119589E-03
      0.390000          0.118995E-03
      0.395000          0.118440E-03
      0.400000          0.117888E-03
      0.405000          0.117305E-03
      0.410000          0.116656E-03
      0.415000          0.115916E-03
      0.420000          0.115061E-03
      0.425000          0.114076E-03
      0.430000          0.112950E-03
      0.435000          0.111683E-03
      0.440000          0.110279E-03
      0.445000          0.108749E-03
      0.450000          0.107110E-03
      0.455000          0.105385E-03
      0.460000          0.103597E-03
      0.465000          0.101776E-03
      0.470000          0.999486E-04
      0.475000          0.981433E-04
      0.480000          0.963863E-04
      0.485000          0.947013E-04
      0.490000          0.931088E-04
      0.495000          0.916251E-04
      0.500000          0.902628E-04
