 I_abs(s)[cm^-1]/c[mg/ml]
       0.00000          0.139064E-01
      0.500000E-02      0.138519E-01
      0.100000E-01      0.136898E-01
      0.150000E-01      0.134246E-01
      0.200000E-01      0.130634E-01
      0.250000E-01      0.126158E-01
      0.300000E-01      0.120934E-01
      0.350000E-01      0.115092E-01
      0.400000E-01      0.108774E-01
      0.450000E-01      0.102124E-01
      0.500000E-01      0.952865E-02
      0.550000E-01      0.883981E-02
      0.600000E-01      0.815851E-02
      0.650000E-01      0.749585E-02
      0.700000E-01      0.686120E-02
      0.750000E-01      0.626193E-02
      0.800000E-01      0.570341E-02
      0.850000E-01      0.518901E-02
      0.900000E-01      0.472020E-02
      0.950000E-01      0.429675E-02
      0.100000          0.391703E-02
      0.105000          0.357821E-02
      0.110000          0.327666E-02
      0.115000          0.300823E-02
      0.120000          0.276854E-02
      0.125000          0.255325E-02
      0.130000          0.235827E-02
      0.135000          0.217996E-02
      0.140000          0.201519E-02
      0.145000          0.186145E-02
      0.150000          0.171686E-02
      0.155000          0.158008E-02
      0.160000          0.145032E-02
      0.165000          0.132721E-02
      0.170000          0.121068E-02
      0.175000          0.110089E-02
      0.180000          0.998119E-03
      0.185000          0.902652E-03
      0.190000          0.814721E-03
      0.195000          0.734447E-03
      0.200000          0.661806E-03
      0.205000          0.596615E-03
      0.210000          0.538537E-03
      0.215000          0.487097E-03
      0.220000          0.441717E-03
      0.225000          0.401746E-03
      0.230000          0.366506E-03
      0.235000          0.335323E-03
      0.240000          0.307563E-03
      0.245000          0.282658E-03
      0.250000          0.260123E-03
      0.255000          0.239567E-03
      0.260000          0.220692E-03
      0.265000          0.203290E-03
      0.270000          0.187230E-03
      0.275000          0.172442E-03
      0.280000          0.158901E-03
      0.285000          0.146611E-03
      0.290000          0.135582E-03
      0.295000          0.125824E-03
      0.300000          0.117331E-03
      0.305000          0.110074E-03
      0.310000          0.103999E-03
      0.315000          0.990281E-04
      0.320000          0.950599E-04
      0.325000          0.919763E-04
      0.330000          0.896485E-04
      0.335000          0.879446E-04
      0.340000          0.867368E-04
      0.345000          0.859072E-04
      0.350000          0.853532E-04
      0.355000          0.849912E-04
      0.360000          0.847579E-04
      0.365000          0.846106E-04
      0.370000          0.845260E-04
      0.375000          0.844973E-04
      0.380000          0.845308E-04
      0.385000          0.846418E-04
      0.390000          0.848506E-04
      0.395000          0.851784E-04
      0.400000          0.856439E-04
      0.405000          0.862603E-04
      0.410000          0.870337E-04
      0.415000          0.879618E-04
      0.420000          0.890339E-04
      0.425000          0.902314E-04
      0.430000          0.915289E-04
      0.435000          0.928962E-04
      0.440000          0.943000E-04
      0.445000          0.957061E-04
      0.450000          0.970819E-04
      0.455000          0.983972E-04
      0.460000          0.996267E-04
      0.465000          0.100751E-03
      0.470000          0.101755E-03
      0.475000          0.102632E-03
      0.480000          0.103380E-03
      0.485000          0.104004E-03
      0.490000          0.104510E-03
      0.495000          0.104911E-03
      0.500000          0.105220E-03
