 I_abs(s)[cm^-1]/c[mg/ml]
       0.00000          0.144080E-01
      0.500000E-02      0.143567E-01
      0.100000E-01      0.142040E-01
      0.150000E-01      0.139532E-01
      0.200000E-01      0.136097E-01
      0.250000E-01      0.131808E-01
      0.300000E-01      0.126753E-01
      0.350000E-01      0.121037E-01
      0.400000E-01      0.114772E-01
      0.450000E-01      0.108078E-01
      0.500000E-01      0.101078E-01
      0.550000E-01      0.938949E-02
      0.600000E-01      0.866463E-02
      0.650000E-01      0.794437E-02
      0.700000E-01      0.723884E-02
      0.750000E-01      0.655700E-02
      0.800000E-01      0.590645E-02
      0.850000E-01      0.529332E-02
      0.900000E-01      0.472229E-02
      0.950000E-01      0.419652E-02
      0.100000          0.371778E-02
      0.105000          0.328652E-02
      0.110000          0.290203E-02
      0.115000          0.256260E-02
      0.120000          0.226572E-02
      0.125000          0.200826E-02
      0.130000          0.178666E-02
      0.135000          0.159709E-02
      0.140000          0.143567E-02
      0.145000          0.129854E-02
      0.150000          0.118204E-02
      0.155000          0.108276E-02
      0.160000          0.997629E-03
      0.165000          0.923941E-03
      0.170000          0.859382E-03
      0.175000          0.802023E-03
      0.180000          0.750305E-03
      0.185000          0.703005E-03
      0.190000          0.659200E-03
      0.195000          0.618219E-03
      0.200000          0.579602E-03
      0.205000          0.543052E-03
      0.210000          0.508394E-03
      0.215000          0.475541E-03
      0.220000          0.444459E-03
      0.225000          0.415146E-03
      0.230000          0.387609E-03
      0.235000          0.361854E-03
      0.240000          0.337874E-03
      0.245000          0.315649E-03
      0.250000          0.295137E-03
      0.255000          0.276283E-03
      0.260000          0.259015E-03
      0.265000          0.243250E-03
      0.270000          0.228898E-03
      0.275000          0.215862E-03
      0.280000          0.204044E-03
      0.285000          0.193347E-03
      0.290000          0.183676E-03
      0.295000          0.174942E-03
      0.300000          0.167059E-03
      0.305000          0.159950E-03
      0.310000          0.153544E-03
      0.315000          0.147779E-03
      0.320000          0.142598E-03
      0.325000          0.137953E-03
      0.330000          0.133804E-03
      0.335000          0.130116E-03
      0.340000          0.126858E-03
      0.345000          0.124005E-03
      0.350000          0.121536E-03
      0.355000          0.119429E-03
      0.360000          0.117662E-03
      0.365000          0.116214E-03
      0.370000          0.115058E-03
      0.375000          0.114165E-03
      0.380000          0.113503E-03
      0.385000          0.113032E-03
      0.390000          0.112712E-03
      0.395000          0.112497E-03
      0.400000          0.112340E-03
      0.405000          0.112195E-03
      0.410000          0.112016E-03
      0.415000          0.111763E-03
      0.420000          0.111399E-03
      0.425000          0.110899E-03
      0.430000          0.110244E-03
      0.435000          0.109426E-03
      0.440000          0.108449E-03
      0.445000          0.107327E-03
      0.450000          0.106083E-03
      0.455000          0.104751E-03
      0.460000          0.103368E-03
      0.465000          0.101979E-03
      0.470000          0.100628E-03
      0.475000          0.993589E-04
      0.480000          0.982123E-04
      0.485000          0.972228E-04
      0.490000          0.964172E-04
      0.495000          0.958129E-04
      0.500000          0.954173E-04
