 I_abs(s)[cm^-1]/c[mg/ml]
       0.00000          0.138288E-01
      0.500000E-02      0.137731E-01
      0.100000E-01      0.136073E-01
      0.150000E-01      0.133362E-01
      0.200000E-01      0.129673E-01
      0.250000E-01      0.125104E-01
      0.300000E-01      0.119778E-01
      0.350000E-01      0.113831E-01
      0.400000E-01      0.107410E-01
      0.450000E-01      0.100665E-01
      0.500000E-01      0.937457E-02
      0.550000E-01      0.867943E-02
      0.600000E-01      0.799408E-02
      0.650000E-01      0.732991E-02
      0.700000E-01      0.669645E-02
      0.750000E-01      0.610113E-02
      0.800000E-01      0.554922E-02
      0.850000E-01      0.504390E-02
      0.900000E-01      0.458632E-02
      0.950000E-01      0.417587E-02
      0.100000          0.381043E-02
      0.105000          0.348671E-02
      0.110000          0.320056E-02
      0.115000          0.294734E-02
      0.120000          0.272219E-02
      0.125000          0.252040E-02
      0.130000          0.233754E-02
      0.135000          0.216974E-02
      0.140000          0.201373E-02
      0.145000          0.186694E-02
      0.150000          0.172751E-02
      0.155000          0.159424E-02
      0.160000          0.146649E-02
      0.165000          0.134410E-02
      0.170000          0.122729E-02
      0.175000          0.111648E-02
      0.180000          0.101221E-02
      0.185000          0.915025E-03
      0.190000          0.825373E-03
      0.195000          0.743565E-03
      0.200000          0.669720E-03
      0.205000          0.603748E-03
      0.210000          0.545360E-03
      0.215000          0.494088E-03
      0.220000          0.449320E-03
      0.225000          0.410344E-03
      0.230000          0.376393E-03
      0.235000          0.346695E-03
      0.240000          0.320511E-03
      0.245000          0.297169E-03
      0.250000          0.276088E-03
      0.255000          0.256795E-03
      0.260000          0.238927E-03
      0.265000          0.222233E-03
      0.270000          0.206554E-03
      0.275000          0.191818E-03
      0.280000          0.178010E-03
      0.285000          0.165163E-03
      0.290000          0.153327E-03
      0.295000          0.142560E-03
      0.300000          0.132911E-03
      0.305000          0.124407E-03
      0.310000          0.117049E-03
      0.315000          0.110809E-03
      0.320000          0.105631E-03
      0.325000          0.101430E-03
      0.330000          0.981052E-04
      0.335000          0.955392E-04
      0.340000          0.936094E-04
      0.345000          0.921933E-04
      0.350000          0.911749E-04
      0.355000          0.904493E-04
      0.360000          0.899268E-04
      0.365000          0.895348E-04
      0.370000          0.892186E-04
      0.375000          0.889413E-04
      0.380000          0.886823E-04
      0.385000          0.884351E-04
      0.390000          0.882051E-04
      0.395000          0.880063E-04
      0.400000          0.878588E-04
      0.405000          0.877858E-04
      0.410000          0.878110E-04
      0.415000          0.879567E-04
      0.420000          0.882418E-04
      0.425000          0.886806E-04
      0.430000          0.892814E-04
      0.435000          0.900463E-04
      0.440000          0.909709E-04
      0.445000          0.920443E-04
      0.450000          0.932497E-04
      0.455000          0.945648E-04
      0.460000          0.959631E-04
      0.465000          0.974145E-04
      0.470000          0.988868E-04
      0.475000          0.100347E-03
      0.480000          0.101762E-03
      0.485000          0.103101E-03
      0.490000          0.104334E-03
      0.495000          0.105437E-03
      0.500000          0.106388E-03
