 I_abs(s)[cm^-1]/c[mg/ml]
       0.00000          0.141013E-01
      0.500000E-02      0.140491E-01
      0.100000E-01      0.138941E-01
      0.150000E-01      0.136399E-01
      0.200000E-01      0.132928E-01
      0.250000E-01      0.128613E-01
      0.300000E-01      0.123556E-01
      0.350000E-01      0.117871E-01
      0.400000E-01      0.111686E-01
      0.450000E-01      0.105131E-01
      0.500000E-01      0.983366E-02
      0.550000E-01      0.914303E-02
      0.600000E-01      0.845311E-02
      0.650000E-01      0.777469E-02
      0.700000E-01      0.711717E-02
      0.750000E-01      0.648835E-02
      0.800000E-01      0.589439E-02
      0.850000E-01      0.533973E-02
      0.900000E-01      0.482717E-02
      0.950000E-01      0.435799E-02
      0.100000          0.393211E-02
      0.105000          0.354832E-02
      0.110000          0.320447E-02
      0.115000          0.289774E-02
      0.120000          0.262486E-02
      0.125000          0.238236E-02
      0.130000          0.216668E-02
      0.135000          0.197442E-02
      0.140000          0.180240E-02
      0.145000          0.164775E-02
      0.150000          0.150800E-02
      0.155000          0.138104E-02
      0.160000          0.126516E-02
      0.165000          0.115899E-02
      0.170000          0.106144E-02
      0.175000          0.971693E-03
      0.180000          0.889120E-03
      0.185000          0.813224E-03
      0.190000          0.743598E-03
      0.195000          0.679887E-03
      0.200000          0.621757E-03
      0.205000          0.568872E-03
      0.210000          0.520890E-03
      0.215000          0.477455E-03
      0.220000          0.438203E-03
      0.225000          0.402768E-03
      0.230000          0.370795E-03
      0.235000          0.341945E-03
      0.240000          0.315908E-03
      0.245000          0.292406E-03
      0.250000          0.271201E-03
      0.255000          0.252089E-03
      0.260000          0.234903E-03
      0.265000          0.219505E-03
      0.270000          0.205781E-03
      0.275000          0.193635E-03
      0.280000          0.182977E-03
      0.285000          0.173720E-03
      0.290000          0.165776E-03
      0.295000          0.159047E-03
      0.300000          0.153427E-03
      0.305000          0.148803E-03
      0.310000          0.145050E-03
      0.315000          0.142042E-03
      0.320000          0.139649E-03
      0.325000          0.137745E-03
      0.330000          0.136212E-03
      0.335000          0.134940E-03
      0.340000          0.133834E-03
      0.345000          0.132816E-03
      0.350000          0.131822E-03
      0.355000          0.130806E-03
      0.360000          0.129738E-03
      0.365000          0.128600E-03
      0.370000          0.127386E-03
      0.375000          0.126102E-03
      0.380000          0.124754E-03
      0.385000          0.123358E-03
      0.390000          0.121927E-03
      0.395000          0.120476E-03
      0.400000          0.119018E-03
      0.405000          0.117566E-03
      0.410000          0.116128E-03
      0.415000          0.114712E-03
      0.420000          0.113328E-03
      0.425000          0.111981E-03
      0.430000          0.110680E-03
      0.435000          0.109434E-03
      0.440000          0.108253E-03
      0.445000          0.107148E-03
      0.450000          0.106133E-03
      0.455000          0.105220E-03
      0.460000          0.104419E-03
      0.465000          0.103742E-03
      0.470000          0.103195E-03
      0.475000          0.102779E-03
      0.480000          0.102490E-03
      0.485000          0.102321E-03
      0.490000          0.102255E-03
      0.495000          0.102271E-03
      0.500000          0.102342E-03
