 I_abs(s)[cm^-1]/c[mg/ml]
       0.00000          0.138676E-01
      0.500000E-02      0.138199E-01
      0.100000E-01      0.136778E-01
      0.150000E-01      0.134445E-01
      0.200000E-01      0.131253E-01
      0.250000E-01      0.127269E-01
      0.300000E-01      0.122581E-01
      0.350000E-01      0.117286E-01
      0.400000E-01      0.111491E-01
      0.450000E-01      0.105310E-01
      0.500000E-01      0.988598E-02
      0.550000E-01      0.922538E-02
      0.600000E-01      0.856027E-02
      0.650000E-01      0.790088E-02
      0.700000E-01      0.725648E-02
      0.750000E-01      0.663511E-02
      0.800000E-01      0.604346E-02
      0.850000E-01      0.548679E-02
      0.900000E-01      0.496891E-02
      0.950000E-01      0.449218E-02
      0.100000          0.405763E-02
      0.105000          0.366507E-02
      0.110000          0.331324E-02
      0.115000          0.300003E-02
      0.120000          0.272261E-02
      0.125000          0.247771E-02
      0.130000          0.226175E-02
      0.135000          0.207108E-02
      0.140000          0.190207E-02
      0.145000          0.175131E-02
      0.150000          0.161569E-02
      0.155000          0.149247E-02
      0.160000          0.137932E-02
      0.165000          0.127437E-02
      0.170000          0.117615E-02
      0.175000          0.108364E-02
      0.180000          0.996123E-03
      0.185000          0.913220E-03
      0.190000          0.834773E-03
      0.195000          0.760800E-03
      0.200000          0.691424E-03
      0.205000          0.626822E-03
      0.210000          0.567169E-03
      0.215000          0.512603E-03
      0.220000          0.463192E-03
      0.225000          0.418920E-03
      0.230000          0.379674E-03
      0.235000          0.345246E-03
      0.240000          0.315346E-03
      0.245000          0.289607E-03
      0.250000          0.267611E-03
      0.255000          0.248906E-03
      0.260000          0.233025E-03
      0.265000          0.219506E-03
      0.270000          0.207911E-03
      0.275000          0.197836E-03
      0.280000          0.188924E-03
      0.285000          0.180873E-03
      0.290000          0.173436E-03
      0.295000          0.166423E-03
      0.300000          0.159696E-03
      0.305000          0.153167E-03
      0.310000          0.146789E-03
      0.315000          0.140549E-03
      0.320000          0.134459E-03
      0.325000          0.128551E-03
      0.330000          0.122868E-03
      0.335000          0.117458E-03
      0.340000          0.112368E-03
      0.345000          0.107641E-03
      0.350000          0.103314E-03
      0.355000          0.994148E-04
      0.360000          0.959600E-04
      0.365000          0.929579E-04
      0.370000          0.904069E-04
      0.375000          0.882969E-04
      0.380000          0.866109E-04
      0.385000          0.853259E-04
      0.390000          0.844142E-04
      0.395000          0.838452E-04
      0.400000          0.835860E-04
      0.405000          0.836023E-04
      0.410000          0.838601E-04
      0.415000          0.843251E-04
      0.420000          0.849643E-04
      0.425000          0.857457E-04
      0.430000          0.866390E-04
      0.435000          0.876155E-04
      0.440000          0.886484E-04
      0.445000          0.897129E-04
      0.450000          0.907863E-04
      0.455000          0.918478E-04
      0.460000          0.928788E-04
      0.465000          0.938628E-04
      0.470000          0.947853E-04
      0.475000          0.956340E-04
      0.480000          0.963982E-04
      0.485000          0.970693E-04
      0.490000          0.976406E-04
      0.495000          0.981068E-04
      0.500000          0.984644E-04
