 I_abs(s)[cm^-1]/c[mg/ml]
       0.00000          0.142189E-01
      0.500000E-02      0.141696E-01
      0.100000E-01      0.140231E-01
      0.150000E-01      0.137824E-01
      0.200000E-01      0.134530E-01
      0.250000E-01      0.130421E-01
      0.300000E-01      0.125584E-01
      0.350000E-01      0.120121E-01
      0.400000E-01      0.114143E-01
      0.450000E-01      0.107766E-01
      0.500000E-01      0.101108E-01
      0.550000E-01      0.942892E-02
      0.600000E-01      0.874205E-02
      0.650000E-01      0.806073E-02
      0.700000E-01      0.739443E-02
      0.750000E-01      0.675136E-02
      0.800000E-01      0.613833E-02
      0.850000E-01      0.556071E-02
      0.900000E-01      0.502237E-02
      0.950000E-01      0.452574E-02
      0.100000          0.407192E-02
      0.105000          0.366077E-02
      0.110000          0.329110E-02
      0.115000          0.296087E-02
      0.120000          0.266737E-02
      0.125000          0.240743E-02
      0.130000          0.217763E-02
      0.135000          0.197445E-02
      0.140000          0.179443E-02
      0.145000          0.163431E-02
      0.150000          0.149112E-02
      0.155000          0.136225E-02
      0.160000          0.124546E-02
      0.165000          0.113893E-02
      0.170000          0.104122E-02
      0.175000          0.951230E-03
      0.180000          0.868172E-03
      0.185000          0.791505E-03
      0.190000          0.720873E-03
      0.195000          0.656050E-03
      0.200000          0.596885E-03
      0.205000          0.543253E-03
      0.210000          0.495016E-03
      0.215000          0.452003E-03
      0.220000          0.413985E-03
      0.225000          0.380672E-03
      0.230000          0.351715E-03
      0.235000          0.326713E-03
      0.240000          0.305228E-03
      0.245000          0.286802E-03
      0.250000          0.270975E-03
      0.255000          0.257301E-03
      0.260000          0.245365E-03
      0.265000          0.234795E-03
      0.270000          0.225272E-03
      0.275000          0.216530E-03
      0.280000          0.208362E-03
      0.285000          0.200617E-03
      0.290000          0.193192E-03
      0.295000          0.186026E-03
      0.300000          0.179093E-03
      0.305000          0.172391E-03
      0.310000          0.165935E-03
      0.315000          0.159747E-03
      0.320000          0.153854E-03
      0.325000          0.148278E-03
      0.330000          0.143035E-03
      0.335000          0.138136E-03
      0.340000          0.133581E-03
      0.345000          0.129365E-03
      0.350000          0.125477E-03
      0.355000          0.121902E-03
      0.360000          0.118622E-03
      0.365000          0.115621E-03
      0.370000          0.112883E-03
      0.375000          0.110394E-03
      0.380000          0.108144E-03
      0.385000          0.106122E-03
      0.390000          0.104323E-03
      0.395000          0.102737E-03
      0.400000          0.101358E-03
      0.405000          0.100177E-03
      0.410000          0.991808E-04
      0.415000          0.983559E-04
      0.420000          0.976845E-04
      0.425000          0.971464E-04
      0.430000          0.967194E-04
      0.435000          0.963803E-04
      0.440000          0.961065E-04
      0.445000          0.958769E-04
      0.450000          0.956734E-04
      0.455000          0.954821E-04
      0.460000          0.952941E-04
      0.465000          0.951060E-04
      0.470000          0.949198E-04
      0.475000          0.947427E-04
      0.480000          0.945859E-04
      0.485000          0.944634E-04
      0.490000          0.943909E-04
      0.495000          0.943835E-04
      0.500000          0.944544E-04
