 I_abs(s)[cm^-1]/c[mg/ml]
       0.00000          0.142267E-01
      0.500000E-02      0.141706E-01
      0.100000E-01      0.140039E-01
      0.150000E-01      0.137311E-01
      0.200000E-01      0.133598E-01
      0.250000E-01      0.128998E-01
      0.300000E-01      0.123629E-01
      0.350000E-01      0.117627E-01
      0.400000E-01      0.111133E-01
      0.450000E-01      0.104293E-01
      0.500000E-01      0.972500E-02
      0.550000E-01      0.901380E-02
      0.600000E-01      0.830800E-02
      0.650000E-01      0.761831E-02
      0.700000E-01      0.695367E-02
      0.750000E-01      0.632115E-02
      0.800000E-01      0.572595E-02
      0.850000E-01      0.517148E-02
      0.900000E-01      0.465953E-02
      0.950000E-01      0.419047E-02
      0.100000          0.376354E-02
      0.105000          0.337707E-02
      0.110000          0.302877E-02
      0.115000          0.271594E-02
      0.120000          0.243568E-02
      0.125000          0.218505E-02
      0.130000          0.196121E-02
      0.135000          0.176146E-02
      0.140000          0.158334E-02
      0.145000          0.142460E-02
      0.150000          0.128321E-02
      0.155000          0.115736E-02
      0.160000          0.104544E-02
      0.165000          0.945973E-03
      0.170000          0.857632E-03
      0.175000          0.779207E-03
      0.180000          0.709589E-03
      0.185000          0.647769E-03
      0.190000          0.592829E-03
      0.195000          0.543940E-03
      0.200000          0.500364E-03
      0.205000          0.461448E-03
      0.210000          0.426625E-03
      0.215000          0.395403E-03
      0.220000          0.367363E-03
      0.225000          0.342144E-03
      0.230000          0.319438E-03
      0.235000          0.298978E-03
      0.240000          0.280529E-03
      0.245000          0.263881E-03
      0.250000          0.248847E-03
      0.255000          0.235254E-03
      0.260000          0.222946E-03
      0.265000          0.211782E-03
      0.270000          0.201639E-03
      0.275000          0.192410E-03
      0.280000          0.184003E-03
      0.285000          0.176346E-03
      0.290000          0.169381E-03
      0.295000          0.163060E-03
      0.300000          0.157349E-03
      0.305000          0.152216E-03
      0.310000          0.147634E-03
      0.315000          0.143573E-03
      0.320000          0.140003E-03
      0.325000          0.136886E-03
      0.330000          0.134181E-03
      0.335000          0.131844E-03
      0.340000          0.129828E-03
      0.345000          0.128086E-03
      0.350000          0.126572E-03
      0.355000          0.125246E-03
      0.360000          0.124074E-03
      0.365000          0.123029E-03
      0.370000          0.122091E-03
      0.375000          0.121247E-03
      0.380000          0.120491E-03
      0.385000          0.119818E-03
      0.390000          0.119227E-03
      0.395000          0.118716E-03
      0.400000          0.118281E-03
      0.405000          0.117914E-03
      0.410000          0.117602E-03
      0.415000          0.117328E-03
      0.420000          0.117072E-03
      0.425000          0.116808E-03
      0.430000          0.116510E-03
      0.435000          0.116152E-03
      0.440000          0.115709E-03
      0.445000          0.115160E-03
      0.450000          0.114489E-03
      0.455000          0.113685E-03
      0.460000          0.112744E-03
      0.465000          0.111668E-03
      0.470000          0.110467E-03
      0.475000          0.109153E-03
      0.480000          0.107746E-03
      0.485000          0.106267E-03
      0.490000          0.104740E-03
      0.495000          0.103186E-03
      0.500000          0.101630E-03
