 I_abs(s)[cm^-1]/c[mg/ml]
       0.00000          0.140232E-01
      0.500000E-02      0.139629E-01
      0.100000E-01      0.137841E-01
      0.150000E-01      0.134922E-01
      0.200000E-01      0.130961E-01
      0.250000E-01      0.126075E-01
      0.300000E-01      0.120406E-01
      0.350000E-01      0.114111E-01
      0.400000E-01      0.107357E-01
      0.450000E-01      0.100310E-01
      0.500000E-01      0.931339E-02
      0.550000E-01      0.859774E-02
      0.600000E-01      0.789737E-02
      0.650000E-01      0.722345E-02
      0.700000E-01      0.658481E-02
      0.750000E-01      0.598783E-02
      0.800000E-01      0.543651E-02
      0.850000E-01      0.493264E-02
      0.900000E-01      0.447608E-02
      0.950000E-01      0.406507E-02
      0.100000          0.369668E-02
      0.105000          0.336712E-02
      0.110000          0.307216E-02
      0.115000          0.280748E-02
      0.120000          0.256887E-02
      0.125000          0.235252E-02
      0.130000          0.215508E-02
      0.135000          0.197381E-02
      0.140000          0.180652E-02
      0.145000          0.165155E-02
      0.150000          0.150775E-02
      0.155000          0.137429E-02
      0.160000          0.125063E-02
      0.165000          0.113642E-02
      0.170000          0.103137E-02
      0.175000          0.935213E-03
      0.180000          0.847647E-03
      0.185000          0.768316E-03
      0.190000          0.696791E-03
      0.195000          0.632581E-03
      0.200000          0.575145E-03
      0.205000          0.523919E-03
      0.210000          0.478333E-03
      0.215000          0.437839E-03
      0.220000          0.401918E-03
      0.225000          0.370099E-03
      0.230000          0.341959E-03
      0.235000          0.317121E-03
      0.240000          0.295254E-03
      0.245000          0.276058E-03
      0.250000          0.259264E-03
      0.255000          0.244620E-03
      0.260000          0.231890E-03
      0.265000          0.220844E-03
      0.270000          0.211267E-03
      0.275000          0.202948E-03
      0.280000          0.195693E-03
      0.285000          0.189322E-03
      0.290000          0.183677E-03
      0.295000          0.178620E-03
      0.300000          0.174037E-03
      0.305000          0.169840E-03
      0.310000          0.165963E-03
      0.315000          0.162358E-03
      0.320000          0.158993E-03
      0.325000          0.155847E-03
      0.330000          0.152909E-03
      0.335000          0.150165E-03
      0.340000          0.147606E-03
      0.345000          0.145217E-03
      0.350000          0.142981E-03
      0.355000          0.140877E-03
      0.360000          0.138881E-03
      0.365000          0.136968E-03
      0.370000          0.135114E-03
      0.375000          0.133297E-03
      0.380000          0.131497E-03
      0.385000          0.129702E-03
      0.390000          0.127903E-03
      0.395000          0.126098E-03
      0.400000          0.124289E-03
      0.405000          0.122484E-03
      0.410000          0.120694E-03
      0.415000          0.118932E-03
      0.420000          0.117212E-03
      0.425000          0.115549E-03
      0.430000          0.113956E-03
      0.435000          0.112445E-03
      0.440000          0.111025E-03
      0.445000          0.109704E-03
      0.450000          0.108485E-03
      0.455000          0.107370E-03
      0.460000          0.106357E-03
      0.465000          0.105440E-03
      0.470000          0.104614E-03
      0.475000          0.103867E-03
      0.480000          0.103189E-03
      0.485000          0.102566E-03
      0.490000          0.101985E-03
      0.495000          0.101431E-03
      0.500000          0.100890E-03
