 I_abs(s)[cm^-1]/c[mg/ml]
       0.00000          0.137052E-01
      0.500000E-02      0.136536E-01
      0.100000E-01      0.135001E-01
      0.150000E-01      0.132489E-01
      0.200000E-01      0.129065E-01
      0.250000E-01      0.124815E-01
      0.300000E-01      0.119845E-01
      0.350000E-01      0.114277E-01
      0.400000E-01      0.108239E-01
      0.450000E-01      0.101865E-01
      0.500000E-01      0.952893E-02
      0.550000E-01      0.886385E-02
      0.600000E-01      0.820316E-02
      0.650000E-01      0.755743E-02
      0.700000E-01      0.693567E-02
      0.750000E-01      0.634516E-02
      0.800000E-01      0.579137E-02
      0.850000E-01      0.527796E-02
      0.900000E-01      0.480689E-02
      0.950000E-01      0.437855E-02
      0.100000          0.399197E-02
      0.105000          0.364507E-02
      0.110000          0.333496E-02
      0.115000          0.305813E-02
      0.120000          0.281081E-02
      0.125000          0.258912E-02
      0.130000          0.238929E-02
      0.135000          0.220786E-02
      0.140000          0.204174E-02
      0.145000          0.188830E-02
      0.150000          0.174543E-02
      0.155000          0.161148E-02
      0.160000          0.148525E-02
      0.165000          0.136597E-02
      0.170000          0.125315E-02
      0.175000          0.114658E-02
      0.180000          0.104619E-02
      0.185000          0.952022E-03
      0.190000          0.864154E-03
      0.195000          0.782642E-03
      0.200000          0.707493E-03
      0.205000          0.638642E-03
      0.210000          0.575938E-03
      0.215000          0.519149E-03
      0.220000          0.467971E-03
      0.225000          0.422039E-03
      0.230000          0.380947E-03
      0.235000          0.344269E-03
      0.240000          0.311571E-03
      0.245000          0.282432E-03
      0.250000          0.256456E-03
      0.255000          0.233276E-03
      0.260000          0.212565E-03
      0.265000          0.194035E-03
      0.270000          0.177436E-03
      0.275000          0.162557E-03
      0.280000          0.149220E-03
      0.285000          0.137274E-03
      0.290000          0.126595E-03
      0.295000          0.117076E-03
      0.300000          0.108627E-03
      0.305000          0.101173E-03
      0.310000          0.946442E-04
      0.315000          0.889812E-04
      0.320000          0.841290E-04
      0.325000          0.800367E-04
      0.330000          0.766557E-04
      0.335000          0.739392E-04
      0.340000          0.718405E-04
      0.345000          0.703130E-04
      0.350000          0.693091E-04
      0.355000          0.687801E-04
      0.360000          0.686762E-04
      0.365000          0.689470E-04
      0.370000          0.695417E-04
      0.375000          0.704102E-04
      0.380000          0.715038E-04
      0.385000          0.727769E-04
      0.390000          0.741872E-04
      0.395000          0.756976E-04
      0.400000          0.772760E-04
      0.405000          0.788965E-04
      0.410000          0.805386E-04
      0.415000          0.821878E-04
      0.420000          0.838344E-04
      0.425000          0.854725E-04
      0.430000          0.870993E-04
      0.435000          0.887135E-04
      0.440000          0.903141E-04
      0.445000          0.918997E-04
      0.450000          0.934670E-04
      0.455000          0.950108E-04
      0.460000          0.965231E-04
      0.465000          0.979938E-04
      0.470000          0.994103E-04
      0.475000          0.100759E-03
      0.480000          0.102024E-03
      0.485000          0.103192E-03
      0.490000          0.104248E-03
      0.495000          0.105181E-03
      0.500000          0.105981E-03
