 I_abs(s)[cm^-1]/c[mg/ml]
       0.00000          0.138521E-01
      0.500000E-02      0.137950E-01
      0.100000E-01      0.136255E-01
      0.150000E-01      0.133486E-01
      0.200000E-01      0.129722E-01
      0.250000E-01      0.125072E-01
      0.300000E-01      0.119665E-01
      0.350000E-01      0.113646E-01
      0.400000E-01      0.107169E-01
      0.450000E-01      0.100393E-01
      0.500000E-01      0.934705E-02
      0.550000E-01      0.865476E-02
      0.600000E-01      0.797540E-02
      0.650000E-01      0.732016E-02
      0.700000E-01      0.669812E-02
      0.750000E-01      0.611605E-02
      0.800000E-01      0.557847E-02
      0.850000E-01      0.508769E-02
      0.900000E-01      0.464400E-02
      0.950000E-01      0.424602E-02
      0.100000          0.389094E-02
      0.105000          0.357494E-02
      0.110000          0.329358E-02
      0.115000          0.304210E-02
      0.120000          0.281576E-02
      0.125000          0.261012E-02
      0.130000          0.242123E-02
      0.135000          0.224574E-02
      0.140000          0.208102E-02
      0.145000          0.192514E-02
      0.150000          0.177682E-02
      0.155000          0.163537E-02
      0.160000          0.150058E-02
      0.165000          0.137256E-02
      0.170000          0.125165E-02
      0.175000          0.113828E-02
      0.180000          0.103288E-02
      0.185000          0.935779E-03
      0.190000          0.847141E-03
      0.195000          0.766954E-03
      0.200000          0.695008E-03
      0.205000          0.630901E-03
      0.210000          0.574078E-03
      0.215000          0.523858E-03
      0.220000          0.479491E-03
      0.225000          0.440193E-03
      0.230000          0.405197E-03
      0.235000          0.373787E-03
      0.240000          0.345325E-03
      0.245000          0.319275E-03
      0.250000          0.295207E-03
      0.255000          0.272799E-03
      0.260000          0.251830E-03
      0.265000          0.232166E-03
      0.270000          0.213745E-03
      0.275000          0.196553E-03
      0.280000          0.180610E-03
      0.285000          0.165951E-03
      0.290000          0.152607E-03
      0.295000          0.140599E-03
      0.300000          0.129927E-03
      0.305000          0.120564E-03
      0.310000          0.112461E-03
      0.315000          0.105539E-03
      0.320000          0.997046E-04
      0.325000          0.948449E-04
      0.330000          0.908404E-04
      0.335000          0.875685E-04
      0.340000          0.849102E-04
      0.345000          0.827547E-04
      0.350000          0.810037E-04
      0.355000          0.795740E-04
      0.360000          0.783991E-04
      0.365000          0.774292E-04
      0.370000          0.766305E-04
      0.375000          0.759838E-04
      0.380000          0.754818E-04
      0.385000          0.751267E-04
      0.390000          0.749268E-04
      0.395000          0.748943E-04
      0.400000          0.750417E-04
      0.405000          0.753800E-04
      0.410000          0.759165E-04
      0.415000          0.766532E-04
      0.420000          0.775861E-04
      0.425000          0.787044E-04
      0.430000          0.799911E-04
      0.435000          0.814232E-04
      0.440000          0.829728E-04
      0.445000          0.846083E-04
      0.450000          0.862960E-04
      0.455000          0.880014E-04
      0.460000          0.896909E-04
      0.465000          0.913332E-04
      0.470000          0.929005E-04
      0.475000          0.943695E-04
      0.480000          0.957219E-04
      0.485000          0.969450E-04
      0.490000          0.980315E-04
      0.495000          0.989792E-04
      0.500000          0.997905E-04
