 I_abs(s)[cm^-1]/c[mg/ml]
       0.00000          0.139142E-01
      0.500000E-02      0.138576E-01
      0.100000E-01      0.136894E-01
      0.150000E-01      0.134146E-01
      0.200000E-01      0.130410E-01
      0.250000E-01      0.125792E-01
      0.300000E-01      0.120417E-01
      0.350000E-01      0.114428E-01
      0.400000E-01      0.107977E-01
      0.450000E-01      0.101218E-01
      0.500000E-01      0.943035E-02
      0.550000E-01      0.873760E-02
      0.600000E-01      0.805644E-02
      0.650000E-01      0.739799E-02
      0.700000E-01      0.677134E-02
      0.750000E-01      0.618337E-02
      0.800000E-01      0.563875E-02
      0.850000E-01      0.514002E-02
      0.900000E-01      0.468777E-02
      0.950000E-01      0.428090E-02
      0.100000          0.391694E-02
      0.105000          0.359240E-02
      0.110000          0.330313E-02
      0.115000          0.304462E-02
      0.120000          0.281236E-02
      0.125000          0.260205E-02
      0.130000          0.240980E-02
      0.135000          0.223228E-02
      0.140000          0.206679E-02
      0.145000          0.191126E-02
      0.150000          0.176424E-02
      0.155000          0.162482E-02
      0.160000          0.149253E-02
      0.165000          0.136726E-02
      0.170000          0.124909E-02
      0.175000          0.113824E-02
      0.180000          0.103497E-02
      0.185000          0.939461E-03
      0.190000          0.851809E-03
      0.195000          0.771974E-03
      0.200000          0.699768E-03
      0.205000          0.634863E-03
      0.210000          0.576810E-03
      0.215000          0.525066E-03
      0.220000          0.479029E-03
      0.225000          0.438069E-03
      0.230000          0.401562E-03
      0.235000          0.368914E-03
      0.240000          0.339586E-03
      0.245000          0.313100E-03
      0.250000          0.289055E-03
      0.255000          0.267121E-03
      0.260000          0.247035E-03
      0.265000          0.228596E-03
      0.270000          0.211654E-03
      0.275000          0.196097E-03
      0.280000          0.181841E-03
      0.285000          0.168821E-03
      0.290000          0.156982E-03
      0.295000          0.146272E-03
      0.300000          0.136641E-03
      0.305000          0.128031E-03
      0.310000          0.120383E-03
      0.315000          0.113630E-03
      0.320000          0.107703E-03
      0.325000          0.102529E-03
      0.330000          0.980345E-04
      0.335000          0.941460E-04
      0.340000          0.907925E-04
      0.345000          0.879069E-04
      0.350000          0.854270E-04
      0.355000          0.832975E-04
      0.360000          0.814700E-04
      0.365000          0.799040E-04
      0.370000          0.785670E-04
      0.375000          0.774345E-04
      0.380000          0.764889E-04
      0.385000          0.757195E-04
      0.390000          0.751205E-04
      0.395000          0.746900E-04
      0.400000          0.744283E-04
      0.405000          0.743361E-04
      0.410000          0.744130E-04
      0.415000          0.746565E-04
      0.420000          0.750605E-04
      0.425000          0.756152E-04
      0.430000          0.763067E-04
      0.435000          0.771173E-04
      0.440000          0.780268E-04
      0.445000          0.790131E-04
      0.450000          0.800536E-04
      0.455000          0.811271E-04
      0.460000          0.822144E-04
      0.465000          0.832999E-04
      0.470000          0.843723E-04
      0.475000          0.854244E-04
      0.480000          0.864537E-04
      0.485000          0.874610E-04
      0.490000          0.884501E-04
      0.495000          0.894260E-04
      0.500000          0.903935E-04
