 I_abs(s)[cm^-1]/c[mg/ml]
       0.00000          0.140388E-01
      0.500000E-02      0.139866E-01
      0.100000E-01      0.138313E-01
      0.150000E-01      0.135768E-01
      0.200000E-01      0.132297E-01
      0.250000E-01      0.127984E-01
      0.300000E-01      0.122935E-01
      0.350000E-01      0.117268E-01
      0.400000E-01      0.111111E-01
      0.450000E-01      0.104598E-01
      0.500000E-01      0.978627E-02
      0.550000E-01      0.910336E-02
      0.600000E-01      0.842313E-02
      0.650000E-01      0.775639E-02
      0.700000E-01      0.711248E-02
      0.750000E-01      0.649905E-02
      0.800000E-01      0.592197E-02
      0.850000E-01      0.538531E-02
      0.900000E-01      0.489141E-02
      0.950000E-01      0.444099E-02
      0.100000          0.403340E-02
      0.105000          0.366676E-02
      0.110000          0.333833E-02
      0.115000          0.304469E-02
      0.120000          0.278206E-02
      0.125000          0.254653E-02
      0.130000          0.233425E-02
      0.135000          0.214166E-02
      0.140000          0.196557E-02
      0.145000          0.180328E-02
      0.150000          0.165259E-02
      0.155000          0.151185E-02
      0.160000          0.137988E-02
      0.165000          0.125594E-02
      0.170000          0.113965E-02
      0.175000          0.103087E-02
      0.180000          0.929659E-03
      0.185000          0.836138E-03
      0.190000          0.750445E-03
      0.195000          0.672660E-03
      0.200000          0.602759E-03
      0.205000          0.540585E-03
      0.210000          0.485841E-03
      0.215000          0.438091E-03
      0.220000          0.396780E-03
      0.225000          0.361260E-03
      0.230000          0.330824E-03
      0.235000          0.304742E-03
      0.240000          0.282296E-03
      0.245000          0.262808E-03
      0.250000          0.245671E-03
      0.255000          0.230366E-03
      0.260000          0.216467E-03
      0.265000          0.203653E-03
      0.270000          0.191698E-03
      0.275000          0.180462E-03
      0.280000          0.169880E-03
      0.285000          0.159941E-03
      0.290000          0.150676E-03
      0.295000          0.142134E-03
      0.300000          0.134371E-03
      0.305000          0.127435E-03
      0.310000          0.121357E-03
      0.315000          0.116143E-03
      0.320000          0.111774E-03
      0.325000          0.108201E-03
      0.330000          0.105356E-03
      0.335000          0.103148E-03
      0.340000          0.101478E-03
      0.345000          0.100237E-03
      0.350000          0.993218E-04
      0.355000          0.986332E-04
      0.360000          0.980860E-04
      0.365000          0.976109E-04
      0.370000          0.971566E-04
      0.375000          0.966906E-04
      0.380000          0.961984E-04
      0.385000          0.956815E-04
      0.390000          0.951546E-04
      0.395000          0.946417E-04
      0.400000          0.941730E-04
      0.405000          0.937807E-04
      0.410000          0.934955E-04
      0.415000          0.933440E-04
      0.420000          0.933460E-04
      0.425000          0.935130E-04
      0.430000          0.938475E-04
      0.435000          0.943427E-04
      0.440000          0.949828E-04
      0.445000          0.957447E-04
      0.450000          0.965987E-04
      0.455000          0.975110E-04
      0.460000          0.984452E-04
      0.465000          0.993644E-04
      0.470000          0.100233E-03
      0.475000          0.101018E-03
      0.480000          0.101693E-03
      0.485000          0.102234E-03
      0.490000          0.102625E-03
      0.495000          0.102856E-03
      0.500000          0.102926E-03
