 I_abs(s)[cm^-1]/c[mg/ml]
       0.00000          0.139064E-01
      0.500000E-02      0.138498E-01
      0.100000E-01      0.136817E-01
      0.150000E-01      0.134069E-01
      0.200000E-01      0.130332E-01
      0.250000E-01      0.125711E-01
      0.300000E-01      0.120331E-01
      0.350000E-01      0.114333E-01
      0.400000E-01      0.107866E-01
      0.450000E-01      0.101082E-01
      0.500000E-01      0.941298E-02
      0.550000E-01      0.871491E-02
      0.600000E-01      0.802655E-02
      0.650000E-01      0.735878E-02
      0.700000E-01      0.672048E-02
      0.750000E-01      0.611850E-02
      0.800000E-01      0.555755E-02
      0.850000E-01      0.504041E-02
      0.900000E-01      0.456806E-02
      0.950000E-01      0.413996E-02
      0.100000          0.375432E-02
      0.105000          0.340844E-02
      0.110000          0.309900E-02
      0.115000          0.282233E-02
      0.120000          0.257469E-02
      0.125000          0.235244E-02
      0.130000          0.215221E-02
      0.135000          0.197099E-02
      0.140000          0.180617E-02
      0.145000          0.165558E-02
      0.150000          0.151744E-02
      0.155000          0.139035E-02
      0.160000          0.127322E-02
      0.165000          0.116518E-02
      0.170000          0.106557E-02
      0.175000          0.973861E-03
      0.180000          0.889599E-03
      0.185000          0.812385E-03
      0.190000          0.741842E-03
      0.195000          0.677602E-03
      0.200000          0.619295E-03
      0.205000          0.566549E-03
      0.210000          0.518991E-03
      0.215000          0.476248E-03
      0.220000          0.437953E-03
      0.225000          0.403748E-03
      0.230000          0.373285E-03
      0.235000          0.346234E-03
      0.240000          0.322275E-03
      0.245000          0.301105E-03
      0.250000          0.282438E-03
      0.255000          0.266001E-03
      0.260000          0.251537E-03
      0.265000          0.238806E-03
      0.270000          0.227585E-03
      0.275000          0.217667E-03
      0.280000          0.208865E-03
      0.285000          0.201010E-03
      0.290000          0.193953E-03
      0.295000          0.187564E-03
      0.300000          0.181730E-03
      0.305000          0.176358E-03
      0.310000          0.171367E-03
      0.315000          0.166694E-03
      0.320000          0.162284E-03
      0.325000          0.158095E-03
      0.330000          0.154092E-03
      0.335000          0.150250E-03
      0.340000          0.146545E-03
      0.345000          0.142964E-03
      0.350000          0.139493E-03
      0.355000          0.136126E-03
      0.360000          0.132858E-03
      0.365000          0.129691E-03
      0.370000          0.126625E-03
      0.375000          0.123670E-03
      0.380000          0.120833E-03
      0.385000          0.118127E-03
      0.390000          0.115567E-03
      0.395000          0.113167E-03
      0.400000          0.110944E-03
      0.405000          0.108913E-03
      0.410000          0.107089E-03
      0.415000          0.105483E-03
      0.420000          0.104105E-03
      0.425000          0.102956E-03
      0.430000          0.102036E-03
      0.435000          0.101337E-03
      0.440000          0.100844E-03
      0.445000          0.100538E-03
      0.450000          0.100392E-03
      0.455000          0.100374E-03
      0.460000          0.100447E-03
      0.465000          0.100572E-03
      0.470000          0.100710E-03
      0.475000          0.100821E-03
      0.480000          0.100866E-03
      0.485000          0.100814E-03
      0.490000          0.100637E-03
      0.495000          0.100316E-03
      0.500000          0.998402E-04
