 I_abs(s)[cm^-1]/c[mg/ml]
       0.00000          0.139375E-01
      0.500000E-02      0.138864E-01
      0.100000E-01      0.137345E-01
      0.150000E-01      0.134855E-01
      0.200000E-01      0.131453E-01
      0.250000E-01      0.127222E-01
      0.300000E-01      0.122259E-01
      0.350000E-01      0.116678E-01
      0.400000E-01      0.110601E-01
      0.450000E-01      0.104157E-01
      0.500000E-01      0.974733E-02
      0.550000E-01      0.906771E-02
      0.600000E-01      0.838867E-02
      0.650000E-01      0.772103E-02
      0.700000E-01      0.707424E-02
      0.750000E-01      0.645626E-02
      0.800000E-01      0.587334E-02
      0.850000E-01      0.533006E-02
      0.900000E-01      0.482929E-02
      0.950000E-01      0.437230E-02
      0.100000          0.395894E-02
      0.105000          0.358782E-02
      0.110000          0.325654E-02
      0.115000          0.296192E-02
      0.120000          0.270029E-02
      0.125000          0.246771E-02
      0.130000          0.226018E-02
      0.135000          0.207387E-02
      0.140000          0.190522E-02
      0.145000          0.175111E-02
      0.150000          0.160891E-02
      0.155000          0.147652E-02
      0.160000          0.135234E-02
      0.165000          0.123530E-02
      0.170000          0.112472E-02
      0.175000          0.102032E-02
      0.180000          0.922071E-03
      0.185000          0.830117E-03
      0.190000          0.744712E-03
      0.195000          0.666122E-03
      0.200000          0.594567E-03
      0.205000          0.530168E-03
      0.210000          0.472911E-03
      0.215000          0.422635E-03
      0.220000          0.379027E-03
      0.225000          0.341632E-03
      0.230000          0.309881E-03
      0.235000          0.283115E-03
      0.240000          0.260624E-03
      0.245000          0.241681E-03
      0.250000          0.225579E-03
      0.255000          0.211660E-03
      0.260000          0.199339E-03
      0.265000          0.188126E-03
      0.270000          0.177634E-03
      0.275000          0.167583E-03
      0.280000          0.157798E-03
      0.285000          0.148198E-03
      0.290000          0.138784E-03
      0.295000          0.129622E-03
      0.300000          0.120821E-03
      0.305000          0.112519E-03
      0.310000          0.104859E-03
      0.315000          0.979767E-04
      0.320000          0.919871E-04
      0.325000          0.869717E-04
      0.330000          0.829739E-04
      0.335000          0.799954E-04
      0.340000          0.779972E-04
      0.345000          0.769025E-04
      0.350000          0.766030E-04
      0.355000          0.769662E-04
      0.360000          0.778444E-04
      0.365000          0.790840E-04
      0.370000          0.805339E-04
      0.375000          0.820545E-04
      0.380000          0.835241E-04
      0.385000          0.848445E-04
      0.390000          0.859449E-04
      0.395000          0.867834E-04
      0.400000          0.873471E-04
      0.405000          0.876504E-04
      0.410000          0.877314E-04
      0.415000          0.876477E-04
      0.420000          0.874709E-04
      0.425000          0.872803E-04
      0.430000          0.871574E-04
      0.435000          0.871793E-04
      0.440000          0.874141E-04
      0.445000          0.879153E-04
      0.450000          0.887191E-04
      0.455000          0.898418E-04
      0.460000          0.912787E-04
      0.465000          0.930044E-04
      0.470000          0.949742E-04
      0.475000          0.971270E-04
      0.480000          0.993887E-04
      0.485000          0.101676E-03
      0.490000          0.103903E-03
      0.495000          0.105984E-03
      0.500000          0.107837E-03
