 I_abs(s)[cm^-1]/c[mg/ml]
       0.00000          0.137515E-01
      0.500000E-02      0.136989E-01
      0.100000E-01      0.135424E-01
      0.150000E-01      0.132863E-01
      0.200000E-01      0.129373E-01
      0.250000E-01      0.125043E-01
      0.300000E-01      0.119983E-01
      0.350000E-01      0.114317E-01
      0.400000E-01      0.108179E-01
      0.450000E-01      0.101706E-01
      0.500000E-01      0.950349E-02
      0.550000E-01      0.882980E-02
      0.600000E-01      0.816168E-02
      0.650000E-01      0.750996E-02
      0.700000E-01      0.688384E-02
      0.750000E-01      0.629075E-02
      0.800000E-01      0.573620E-02
      0.850000E-01      0.522383E-02
      0.900000E-01      0.475550E-02
      0.950000E-01      0.433143E-02
      0.100000          0.395045E-02
      0.105000          0.361021E-02
      0.110000          0.330752E-02
      0.115000          0.303859E-02
      0.120000          0.279932E-02
      0.125000          0.258555E-02
      0.130000          0.239325E-02
      0.135000          0.221873E-02
      0.140000          0.205872E-02
      0.145000          0.191047E-02
      0.150000          0.177177E-02
      0.155000          0.164096E-02
      0.160000          0.151687E-02
      0.165000          0.139877E-02
      0.170000          0.128630E-02
      0.175000          0.117935E-02
      0.180000          0.107801E-02
      0.185000          0.982479E-03
      0.190000          0.892969E-03
      0.195000          0.809679E-03
      0.200000          0.732739E-03
      0.205000          0.662184E-03
      0.210000          0.597939E-03
      0.215000          0.539821E-03
      0.220000          0.487552E-03
      0.225000          0.440767E-03
      0.230000          0.399044E-03
      0.235000          0.361922E-03
      0.240000          0.328924E-03
      0.245000          0.299581E-03
      0.250000          0.273445E-03
      0.255000          0.250101E-03
      0.260000          0.229181E-03
      0.265000          0.210365E-03
      0.270000          0.193379E-03
      0.275000          0.178002E-03
      0.280000          0.164050E-03
      0.285000          0.151381E-03
      0.290000          0.139884E-03
      0.295000          0.129471E-03
      0.300000          0.120075E-03
      0.305000          0.111642E-03
      0.310000          0.104126E-03
      0.315000          0.974895E-04
      0.320000          0.916936E-04
      0.325000          0.867012E-04
      0.330000          0.824733E-04
      0.335000          0.789682E-04
      0.340000          0.761406E-04
      0.345000          0.739418E-04
      0.350000          0.723193E-04
      0.355000          0.712174E-04
      0.360000          0.705778E-04
      0.365000          0.703404E-04
      0.370000          0.704443E-04
      0.375000          0.708294E-04
      0.380000          0.714372E-04
      0.385000          0.722131E-04
      0.390000          0.731068E-04
      0.395000          0.740744E-04
      0.400000          0.750789E-04
      0.405000          0.760915E-04
      0.410000          0.770913E-04
      0.415000          0.780662E-04
      0.420000          0.790116E-04
      0.425000          0.799303E-04
      0.430000          0.808314E-04
      0.435000          0.817283E-04
      0.440000          0.826379E-04
      0.445000          0.835785E-04
      0.450000          0.845682E-04
      0.455000          0.856234E-04
      0.460000          0.867573E-04
      0.465000          0.879789E-04
      0.470000          0.892922E-04
      0.475000          0.906954E-04
      0.480000          0.921808E-04
      0.485000          0.937349E-04
      0.490000          0.953390E-04
      0.495000          0.969697E-04
      0.500000          0.985996E-04
