 I_abs(s)[cm^-1]/c[mg/ml]
       0.00000          0.137901E-01
      0.500000E-02      0.137350E-01
      0.100000E-01      0.135710E-01
      0.150000E-01      0.133030E-01
      0.200000E-01      0.129384E-01
      0.250000E-01      0.124873E-01
      0.300000E-01      0.119617E-01
      0.350000E-01      0.113754E-01
      0.400000E-01      0.107429E-01
      0.450000E-01      0.100792E-01
      0.500000E-01      0.939889E-02
      0.550000E-01      0.871594E-02
      0.600000E-01      0.804297E-02
      0.650000E-01      0.739095E-02
      0.700000E-01      0.676895E-02
      0.750000E-01      0.618394E-02
      0.800000E-01      0.564080E-02
      0.850000E-01      0.514232E-02
      0.900000E-01      0.468941E-02
      0.950000E-01      0.428131E-02
      0.100000          0.391588E-02
      0.105000          0.358992E-02
      0.110000          0.329952E-02
      0.115000          0.304034E-02
      0.120000          0.280797E-02
      0.125000          0.259813E-02
      0.130000          0.240688E-02
      0.135000          0.223079E-02
      0.140000          0.206700E-02
      0.145000          0.191329E-02
      0.150000          0.176802E-02
      0.155000          0.163011E-02
      0.160000          0.149897E-02
      0.165000          0.137436E-02
      0.170000          0.125632E-02
      0.175000          0.114507E-02
      0.180000          0.104088E-02
      0.185000          0.944020E-03
      0.190000          0.854680E-03
      0.195000          0.772945E-03
      0.200000          0.698754E-03
      0.205000          0.631906E-03
      0.210000          0.572066E-03
      0.215000          0.518783E-03
      0.220000          0.471521E-03
      0.225000          0.429691E-03
      0.230000          0.392679E-03
      0.235000          0.359879E-03
      0.240000          0.330715E-03
      0.245000          0.304663E-03
      0.250000          0.281260E-03
      0.255000          0.260113E-03
      0.260000          0.240899E-03
      0.265000          0.223362E-03
      0.270000          0.207303E-03
      0.275000          0.192576E-03
      0.280000          0.179071E-03
      0.285000          0.166709E-03
      0.290000          0.155432E-03
      0.295000          0.145191E-03
      0.300000          0.135943E-03
      0.305000          0.127647E-03
      0.310000          0.120256E-03
      0.315000          0.113722E-03
      0.320000          0.107992E-03
      0.325000          0.103009E-03
      0.330000          0.987157E-04
      0.335000          0.950516E-04
      0.340000          0.919585E-04
      0.345000          0.893803E-04
      0.350000          0.872641E-04
      0.355000          0.855611E-04
      0.360000          0.842273E-04
      0.365000          0.832231E-04
      0.370000          0.825136E-04
      0.375000          0.820680E-04
      0.380000          0.818594E-04
      0.385000          0.818639E-04
      0.390000          0.820603E-04
      0.395000          0.824293E-04
      0.400000          0.829533E-04
      0.405000          0.836157E-04
      0.410000          0.844004E-04
      0.415000          0.852918E-04
      0.420000          0.862741E-04
      0.425000          0.873318E-04
      0.430000          0.884490E-04
      0.435000          0.896094E-04
      0.440000          0.907970E-04
      0.445000          0.919954E-04
      0.450000          0.931887E-04
      0.455000          0.943612E-04
      0.460000          0.954979E-04
      0.465000          0.965851E-04
      0.470000          0.976100E-04
      0.475000          0.985619E-04
      0.480000          0.994316E-04
      0.485000          0.100212E-03
      0.490000          0.100899E-03
      0.495000          0.101488E-03
      0.500000          0.101980E-03
