 I_abs(s)[cm^-1]/c[mg/ml]
       0.00000          0.136897E-01
      0.500000E-02      0.136378E-01
      0.100000E-01      0.134833E-01
      0.150000E-01      0.132302E-01
      0.200000E-01      0.128849E-01
      0.250000E-01      0.124558E-01
      0.300000E-01      0.119533E-01
      0.350000E-01      0.113893E-01
      0.400000E-01      0.107766E-01
      0.450000E-01      0.101283E-01
      0.500000E-01      0.945781E-02
      0.550000E-01      0.877802E-02
      0.600000E-01      0.810097E-02
      0.650000E-01      0.743751E-02
      0.700000E-01      0.679705E-02
      0.750000E-01      0.618735E-02
      0.800000E-01      0.561442E-02
      0.850000E-01      0.508246E-02
      0.900000E-01      0.459398E-02
      0.950000E-01      0.414989E-02
      0.100000          0.374966E-02
      0.105000          0.339159E-02
      0.110000          0.307303E-02
      0.115000          0.279064E-02
      0.120000          0.254068E-02
      0.125000          0.231920E-02
      0.130000          0.212228E-02
      0.135000          0.194621E-02
      0.140000          0.178761E-02
      0.145000          0.164354E-02
      0.150000          0.151152E-02
      0.155000          0.138958E-02
      0.160000          0.127622E-02
      0.165000          0.117037E-02
      0.170000          0.107131E-02
      0.175000          0.978633E-03
      0.180000          0.892117E-03
      0.185000          0.811688E-03
      0.190000          0.737328E-03
      0.195000          0.669027E-03
      0.200000          0.606733E-03
      0.205000          0.550329E-03
      0.210000          0.499612E-03
      0.215000          0.454292E-03
      0.220000          0.414003E-03
      0.225000          0.378320E-03
      0.230000          0.346777E-03
      0.235000          0.318892E-03
      0.240000          0.294194E-03
      0.245000          0.272240E-03
      0.250000          0.252631E-03
      0.255000          0.235030E-03
      0.260000          0.219158E-03
      0.265000          0.204805E-03
      0.270000          0.191816E-03
      0.275000          0.180090E-03
      0.280000          0.169565E-03
      0.285000          0.160209E-03
      0.290000          0.152002E-03
      0.295000          0.144930E-03
      0.300000          0.138972E-03
      0.305000          0.134093E-03
      0.310000          0.130238E-03
      0.315000          0.127331E-03
      0.320000          0.125274E-03
      0.325000          0.123952E-03
      0.330000          0.123236E-03
      0.335000          0.122987E-03
      0.340000          0.123066E-03
      0.345000          0.123338E-03
      0.350000          0.123678E-03
      0.355000          0.123977E-03
      0.360000          0.124145E-03
      0.365000          0.124117E-03
      0.370000          0.123846E-03
      0.375000          0.123311E-03
      0.380000          0.122513E-03
      0.385000          0.121469E-03
      0.390000          0.120212E-03
      0.395000          0.118787E-03
      0.400000          0.117246E-03
      0.405000          0.115643E-03
      0.410000          0.114032E-03
      0.415000          0.112464E-03
      0.420000          0.110982E-03
      0.425000          0.109623E-03
      0.430000          0.108412E-03
      0.435000          0.107367E-03
      0.440000          0.106494E-03
      0.445000          0.105794E-03
      0.450000          0.105257E-03
      0.455000          0.104871E-03
      0.460000          0.104618E-03
      0.465000          0.104477E-03
      0.470000          0.104428E-03
      0.475000          0.104450E-03
      0.480000          0.104523E-03
      0.485000          0.104630E-03
      0.490000          0.104755E-03
      0.495000          0.104886E-03
      0.500000          0.105010E-03
