 I_abs(s)[cm^-1]/c[mg/ml]
       0.00000          0.139998E-01
      0.500000E-02      0.139463E-01
      0.100000E-01      0.137875E-01
      0.150000E-01      0.135273E-01
      0.200000E-01      0.131727E-01
      0.250000E-01      0.127326E-01
      0.300000E-01      0.122179E-01
      0.350000E-01      0.116412E-01
      0.400000E-01      0.110158E-01
      0.450000E-01      0.103555E-01
      0.500000E-01      0.967407E-02
      0.550000E-01      0.898476E-02
      0.600000E-01      0.829978E-02
      0.650000E-01      0.763005E-02
      0.700000E-01      0.698487E-02
      0.750000E-01      0.637175E-02
      0.800000E-01      0.579637E-02
      0.850000E-01      0.526253E-02
      0.900000E-01      0.477229E-02
      0.950000E-01      0.432609E-02
      0.100000          0.392301E-02
      0.105000          0.356099E-02
      0.110000          0.323714E-02
      0.115000          0.294797E-02
      0.120000          0.268969E-02
      0.125000          0.245844E-02
      0.130000          0.225047E-02
      0.135000          0.206232E-02
      0.140000          0.189094E-02
      0.145000          0.173373E-02
      0.150000          0.158859E-02
      0.155000          0.145390E-02
      0.160000          0.132849E-02
      0.165000          0.121155E-02
      0.170000          0.110260E-02
      0.175000          0.100136E-02
      0.180000          0.907727E-03
      0.185000          0.821641E-03
      0.190000          0.743064E-03
      0.195000          0.671920E-03
      0.200000          0.608058E-03
      0.205000          0.551237E-03
      0.210000          0.501121E-03
      0.215000          0.457280E-03
      0.220000          0.419210E-03
      0.225000          0.386350E-03
      0.230000          0.358106E-03
      0.235000          0.333877E-03
      0.240000          0.313072E-03
      0.245000          0.295137E-03
      0.250000          0.279563E-03
      0.255000          0.265901E-03
      0.260000          0.253767E-03
      0.265000          0.242840E-03
      0.270000          0.232864E-03
      0.275000          0.223642E-03
      0.280000          0.215027E-03
      0.285000          0.206914E-03
      0.290000          0.199234E-03
      0.295000          0.191940E-03
      0.300000          0.185006E-03
      0.305000          0.178418E-03
      0.310000          0.172165E-03
      0.315000          0.166242E-03
      0.320000          0.160643E-03
      0.325000          0.155362E-03
      0.330000          0.150387E-03
      0.335000          0.145710E-03
      0.340000          0.141316E-03
      0.345000          0.137194E-03
      0.350000          0.133329E-03
      0.355000          0.129711E-03
      0.360000          0.126326E-03
      0.365000          0.123167E-03
      0.370000          0.120225E-03
      0.375000          0.117494E-03
      0.380000          0.114971E-03
      0.385000          0.112653E-03
      0.390000          0.110537E-03
      0.395000          0.108622E-03
      0.400000          0.106905E-03
      0.405000          0.105385E-03
      0.410000          0.104058E-03
      0.415000          0.102917E-03
      0.420000          0.101956E-03
      0.425000          0.101165E-03
      0.430000          0.100532E-03
      0.435000          0.100042E-03
      0.440000          0.996785E-04
      0.445000          0.994227E-04
      0.450000          0.992543E-04
      0.455000          0.991515E-04
      0.460000          0.990922E-04
      0.465000          0.990541E-04
      0.470000          0.990157E-04
      0.475000          0.989570E-04
      0.480000          0.988598E-04
      0.485000          0.987086E-04
      0.490000          0.984906E-04
      0.495000          0.981967E-04
      0.500000          0.978209E-04
