 I_abs(s)[cm^-1]/c[mg/ml]
       0.00000          0.139608E-01
      0.500000E-02      0.139138E-01
      0.100000E-01      0.137735E-01
      0.150000E-01      0.135433E-01
      0.200000E-01      0.132278E-01
      0.250000E-01      0.128340E-01
      0.300000E-01      0.123699E-01
      0.350000E-01      0.118450E-01
      0.400000E-01      0.112697E-01
      0.450000E-01      0.106550E-01
      0.500000E-01      0.100121E-01
      0.550000E-01      0.935235E-02
      0.600000E-01      0.868640E-02
      0.650000E-01      0.802444E-02
      0.700000E-01      0.737567E-02
      0.750000E-01      0.674821E-02
      0.800000E-01      0.614889E-02
      0.850000E-01      0.558319E-02
      0.900000E-01      0.505522E-02
      0.950000E-01      0.456768E-02
      0.100000          0.412198E-02
      0.105000          0.371831E-02
      0.110000          0.335581E-02
      0.115000          0.303270E-02
      0.120000          0.274647E-02
      0.125000          0.249408E-02
      0.130000          0.227213E-02
      0.135000          0.207702E-02
      0.140000          0.190515E-02
      0.145000          0.175301E-02
      0.150000          0.161734E-02
      0.155000          0.149517E-02
      0.160000          0.138392E-02
      0.165000          0.128140E-02
      0.170000          0.118584E-02
      0.175000          0.109590E-02
      0.180000          0.101060E-02
      0.185000          0.929287E-03
      0.190000          0.851623E-03
      0.195000          0.777485E-03
      0.200000          0.706926E-03
      0.205000          0.640118E-03
      0.210000          0.577295E-03
      0.215000          0.518715E-03
      0.220000          0.464611E-03
      0.225000          0.415169E-03
      0.230000          0.370503E-03
      0.235000          0.330643E-03
      0.240000          0.295527E-03
      0.245000          0.265005E-03
      0.250000          0.238842E-03
      0.255000          0.216734E-03
      0.260000          0.198317E-03
      0.265000          0.183187E-03
      0.270000          0.170911E-03
      0.275000          0.161049E-03
      0.280000          0.153168E-03
      0.285000          0.146850E-03
      0.290000          0.141711E-03
      0.295000          0.137407E-03
      0.300000          0.133637E-03
      0.305000          0.130152E-03
      0.310000          0.126757E-03
      0.315000          0.123304E-03
      0.320000          0.119698E-03
      0.325000          0.115886E-03
      0.330000          0.111860E-03
      0.335000          0.107641E-03
      0.340000          0.103280E-03
      0.345000          0.988502E-04
      0.350000          0.944362E-04
      0.355000          0.901314E-04
      0.360000          0.860303E-04
      0.365000          0.822234E-04
      0.370000          0.787922E-04
      0.375000          0.758061E-04
      0.380000          0.733192E-04
      0.385000          0.713686E-04
      0.390000          0.699736E-04
      0.395000          0.691357E-04
      0.400000          0.688396E-04
      0.405000          0.690545E-04
      0.410000          0.697366E-04
      0.415000          0.708315E-04
      0.420000          0.722770E-04
      0.425000          0.740062E-04
      0.430000          0.759505E-04
      0.435000          0.780424E-04
      0.440000          0.802181E-04
      0.445000          0.824195E-04
      0.450000          0.845961E-04
      0.455000          0.867063E-04
      0.460000          0.887176E-04
      0.465000          0.906076E-04
      0.470000          0.923627E-04
      0.475000          0.939782E-04
      0.480000          0.954563E-04
      0.485000          0.968053E-04
      0.490000          0.980377E-04
      0.495000          0.991682E-04
      0.500000          0.100212E-03
