 I_abs(s)[cm^-1]/c[mg/ml]
       0.00000          0.138288E-01
      0.500000E-02      0.137734E-01
      0.100000E-01      0.136087E-01
      0.150000E-01      0.133393E-01
      0.200000E-01      0.129729E-01
      0.250000E-01      0.125194E-01
      0.300000E-01      0.119911E-01
      0.350000E-01      0.114016E-01
      0.400000E-01      0.107656E-01
      0.450000E-01      0.100981E-01
      0.500000E-01      0.941380E-02
      0.550000E-01      0.872668E-02
      0.600000E-01      0.804944E-02
      0.650000E-01      0.739311E-02
      0.700000E-01      0.676682E-02
      0.750000E-01      0.617760E-02
      0.800000E-01      0.563034E-02
      0.850000E-01      0.512789E-02
      0.900000E-01      0.467116E-02
      0.950000E-01      0.425941E-02
      0.100000          0.389049E-02
      0.105000          0.356120E-02
      0.110000          0.326762E-02
      0.115000          0.300543E-02
      0.120000          0.277020E-02
      0.125000          0.255767E-02
      0.130000          0.236392E-02
      0.135000          0.218554E-02
      0.140000          0.201972E-02
      0.145000          0.186426E-02
      0.150000          0.171759E-02
      0.155000          0.157866E-02
      0.160000          0.144692E-02
      0.165000          0.132216E-02
      0.170000          0.120444E-02
      0.175000          0.109396E-02
      0.180000          0.990990E-03
      0.185000          0.895750E-03
      0.190000          0.808382E-03
      0.195000          0.728896E-03
      0.200000          0.657155E-03
      0.205000          0.592872E-03
      0.210000          0.535625E-03
      0.215000          0.484885E-03
      0.220000          0.440047E-03
      0.225000          0.400466E-03
      0.230000          0.365490E-03
      0.235000          0.334494E-03
      0.240000          0.306903E-03
      0.245000          0.282211E-03
      0.250000          0.259987E-03
      0.255000          0.239885E-03
      0.260000          0.221635E-03
      0.265000          0.205036E-03
      0.270000          0.189946E-03
      0.275000          0.176268E-03
      0.280000          0.163932E-03
      0.285000          0.152890E-03
      0.290000          0.143097E-03
      0.295000          0.134507E-03
      0.300000          0.127063E-03
      0.305000          0.120696E-03
      0.310000          0.115325E-03
      0.315000          0.110855E-03
      0.320000          0.107181E-03
      0.325000          0.104192E-03
      0.330000          0.101777E-03
      0.335000          0.998256E-04
      0.340000          0.982358E-04
      0.345000          0.969154E-04
      0.350000          0.957859E-04
      0.355000          0.947835E-04
      0.360000          0.938607E-04
      0.365000          0.929856E-04
      0.370000          0.921416E-04
      0.375000          0.913254E-04
      0.380000          0.905451E-04
      0.385000          0.898175E-04
      0.390000          0.891659E-04
      0.395000          0.886166E-04
      0.400000          0.881966E-04
      0.405000          0.879311E-04
      0.410000          0.878414E-04
      0.415000          0.879430E-04
      0.420000          0.882442E-04
      0.425000          0.887459E-04
      0.430000          0.894407E-04
      0.435000          0.903136E-04
      0.440000          0.913424E-04
      0.445000          0.924991E-04
      0.450000          0.937510E-04
      0.455000          0.950624E-04
      0.460000          0.963961E-04
      0.465000          0.977154E-04
      0.470000          0.989855E-04
      0.475000          0.100175E-03
      0.480000          0.101257E-03
      0.485000          0.102209E-03
      0.490000          0.103017E-03
      0.495000          0.103670E-03
      0.500000          0.104166E-03
