 I_abs(s)[cm^-1]/c[mg/ml]
       0.00000          0.139608E-01
      0.500000E-02      0.139074E-01
      0.100000E-01      0.137487E-01
      0.150000E-01      0.134890E-01
      0.200000E-01      0.131352E-01
      0.250000E-01      0.126967E-01
      0.300000E-01      0.121848E-01
      0.350000E-01      0.116123E-01
      0.400000E-01      0.109926E-01
      0.450000E-01      0.103399E-01
      0.500000E-01      0.966801E-02
      0.550000E-01      0.899001E-02
      0.600000E-01      0.831796E-02
      0.650000E-01      0.766246E-02
      0.700000E-01      0.703238E-02
      0.750000E-01      0.643474E-02
      0.800000E-01      0.587463E-02
      0.850000E-01      0.535531E-02
      0.900000E-01      0.487829E-02
      0.950000E-01      0.444355E-02
      0.100000          0.404980E-02
      0.105000          0.369472E-02
      0.110000          0.337529E-02
      0.115000          0.308806E-02
      0.120000          0.282937E-02
      0.125000          0.259561E-02
      0.130000          0.238338E-02
      0.135000          0.218962E-02
      0.140000          0.201168E-02
      0.145000          0.184736E-02
      0.150000          0.169494E-02
      0.155000          0.155309E-02
      0.160000          0.142085E-02
      0.165000          0.129756E-02
      0.170000          0.118277E-02
      0.175000          0.107617E-02
      0.180000          0.977538E-03
      0.185000          0.886674E-03
      0.190000          0.803359E-03
      0.195000          0.727330E-03
      0.200000          0.658270E-03
      0.205000          0.595804E-03
      0.210000          0.539506E-03
      0.215000          0.488916E-03
      0.220000          0.443549E-03
      0.225000          0.402921E-03
      0.230000          0.366559E-03
      0.235000          0.334016E-03
      0.240000          0.304881E-03
      0.245000          0.278784E-03
      0.250000          0.255397E-03
      0.255000          0.234434E-03
      0.260000          0.215647E-03
      0.265000          0.198821E-03
      0.270000          0.183771E-03
      0.275000          0.170333E-03
      0.280000          0.158362E-03
      0.285000          0.147728E-03
      0.290000          0.138314E-03
      0.295000          0.130011E-03
      0.300000          0.122724E-03
      0.305000          0.116362E-03
      0.310000          0.110845E-03
      0.315000          0.106102E-03
      0.320000          0.102066E-03
      0.325000          0.986778E-04
      0.330000          0.958811E-04
      0.335000          0.936231E-04
      0.340000          0.918517E-04
      0.345000          0.905148E-04
      0.350000          0.895587E-04
      0.355000          0.889281E-04
      0.360000          0.885664E-04
      0.365000          0.884159E-04
      0.370000          0.884197E-04
      0.375000          0.885234E-04
      0.380000          0.886766E-04
      0.385000          0.888359E-04
      0.390000          0.889658E-04
      0.395000          0.890408E-04
      0.400000          0.890461E-04
      0.405000          0.889775E-04
      0.410000          0.888418E-04
      0.415000          0.886547E-04
      0.420000          0.884395E-04
      0.425000          0.882250E-04
      0.430000          0.880424E-04
      0.435000          0.879232E-04
      0.440000          0.878962E-04
      0.445000          0.879852E-04
      0.450000          0.882071E-04
      0.455000          0.885705E-04
      0.460000          0.890748E-04
      0.465000          0.897101E-04
      0.470000          0.904575E-04
      0.475000          0.912901E-04
      0.480000          0.921747E-04
      0.485000          0.930736E-04
      0.490000          0.939468E-04
      0.495000          0.947538E-04
      0.500000          0.954568E-04
