 I_abs(s)[cm^-1]/c[mg/ml]
       0.00000          0.141013E-01
      0.500000E-02      0.140452E-01
      0.100000E-01      0.138783E-01
      0.150000E-01      0.136055E-01
      0.200000E-01      0.132339E-01
      0.250000E-01      0.127736E-01
      0.300000E-01      0.122367E-01
      0.350000E-01      0.116365E-01
      0.400000E-01      0.109878E-01
      0.450000E-01      0.103055E-01
      0.500000E-01      0.960420E-02
      0.550000E-01      0.889809E-02
      0.600000E-01      0.820000E-02
      0.650000E-01      0.752122E-02
      0.700000E-01      0.687120E-02
      0.750000E-01      0.625734E-02
      0.800000E-01      0.568499E-02
      0.850000E-01      0.515745E-02
      0.900000E-01      0.467612E-02
      0.950000E-01      0.424070E-02
      0.100000          0.384949E-02
      0.105000          0.349968E-02
      0.110000          0.318767E-02
      0.115000          0.290937E-02
      0.120000          0.266056E-02
      0.125000          0.243704E-02
      0.130000          0.223495E-02
      0.135000          0.205082E-02
      0.140000          0.188175E-02
      0.145000          0.172538E-02
      0.150000          0.157995E-02
      0.155000          0.144422E-02
      0.160000          0.131740E-02
      0.165000          0.119905E-02
      0.170000          0.108900E-02
      0.175000          0.987233E-03
      0.180000          0.893783E-03
      0.185000          0.808672E-03
      0.190000          0.731845E-03
      0.195000          0.663129E-03
      0.200000          0.602213E-03
      0.205000          0.548649E-03
      0.210000          0.501868E-03
      0.215000          0.461204E-03
      0.220000          0.425929E-03
      0.225000          0.395289E-03
      0.230000          0.368543E-03
      0.235000          0.344991E-03
      0.240000          0.324007E-03
      0.245000          0.305049E-03
      0.250000          0.287675E-03
      0.255000          0.271546E-03
      0.260000          0.256417E-03
      0.265000          0.242131E-03
      0.270000          0.228602E-03
      0.275000          0.215801E-03
      0.280000          0.203736E-03
      0.285000          0.192440E-03
      0.290000          0.181950E-03
      0.295000          0.172303E-03
      0.300000          0.163521E-03
      0.305000          0.155610E-03
      0.310000          0.148553E-03
      0.315000          0.142317E-03
      0.320000          0.136847E-03
      0.325000          0.132079E-03
      0.330000          0.127935E-03
      0.335000          0.124335E-03
      0.340000          0.121199E-03
      0.345000          0.118451E-03
      0.350000          0.116021E-03
      0.355000          0.113851E-03
      0.360000          0.111895E-03
      0.365000          0.110116E-03
      0.370000          0.108490E-03
      0.375000          0.107006E-03
      0.380000          0.105659E-03
      0.385000          0.104454E-03
      0.390000          0.103398E-03
      0.395000          0.102506E-03
      0.400000          0.101789E-03
      0.405000          0.101262E-03
      0.410000          0.100935E-03
      0.415000          0.100813E-03
      0.420000          0.100897E-03
      0.425000          0.101183E-03
      0.430000          0.101658E-03
      0.435000          0.102304E-03
      0.440000          0.103097E-03
      0.445000          0.104005E-03
      0.450000          0.104995E-03
      0.455000          0.106028E-03
      0.460000          0.107065E-03
      0.465000          0.108066E-03
      0.470000          0.108992E-03
      0.475000          0.109808E-03
      0.480000          0.110484E-03
      0.485000          0.110994E-03
      0.490000          0.111321E-03
      0.495000          0.111453E-03
      0.500000          0.111388E-03
