 I_abs(s)[cm^-1]/c[mg/ml]
       0.00000          0.138831E-01
      0.500000E-02      0.138292E-01
      0.100000E-01      0.136688E-01
      0.150000E-01      0.134062E-01
      0.200000E-01      0.130485E-01
      0.250000E-01      0.126048E-01
      0.300000E-01      0.120864E-01
      0.350000E-01      0.115062E-01
      0.400000E-01      0.108780E-01
      0.450000E-01      0.102159E-01
      0.500000E-01      0.953415E-02
      0.550000E-01      0.884636E-02
      0.600000E-01      0.816510E-02
      0.650000E-01      0.750156E-02
      0.700000E-01      0.686520E-02
      0.750000E-01      0.626363E-02
      0.800000E-01      0.570245E-02
      0.850000E-01      0.518527E-02
      0.900000E-01      0.471383E-02
      0.950000E-01      0.428812E-02
      0.100000          0.390667E-02
      0.105000          0.356680E-02
      0.110000          0.326490E-02
      0.115000          0.299679E-02
      0.120000          0.275802E-02
      0.125000          0.254407E-02
      0.130000          0.235070E-02
      0.135000          0.217404E-02
      0.140000          0.201076E-02
      0.145000          0.185818E-02
      0.150000          0.171425E-02
      0.155000          0.157754E-02
      0.160000          0.144723E-02
      0.165000          0.132296E-02
      0.170000          0.120475E-02
      0.175000          0.109290E-02
      0.180000          0.987832E-03
      0.185000          0.890031E-03
      0.190000          0.799918E-03
      0.195000          0.717796E-03
      0.200000          0.643790E-03
      0.205000          0.577829E-03
      0.210000          0.519640E-03
      0.215000          0.468761E-03
      0.220000          0.424573E-03
      0.225000          0.386345E-03
      0.230000          0.353274E-03
      0.235000          0.324541E-03
      0.240000          0.299353E-03
      0.245000          0.276983E-03
      0.250000          0.256801E-03
      0.255000          0.238294E-03
      0.260000          0.221074E-03
      0.265000          0.204881E-03
      0.270000          0.189569E-03
      0.275000          0.175091E-03
      0.280000          0.161478E-03
      0.285000          0.148812E-03
      0.290000          0.137205E-03
      0.295000          0.126772E-03
      0.300000          0.117613E-03
      0.305000          0.109799E-03
      0.310000          0.103359E-03
      0.315000          0.982764E-04
      0.320000          0.944880E-04
      0.325000          0.918897E-04
      0.330000          0.903424E-04
      0.335000          0.896828E-04
      0.340000          0.897339E-04
      0.345000          0.903162E-04
      0.350000          0.912579E-04
      0.355000          0.924036E-04
      0.360000          0.936211E-04
      0.365000          0.948054E-04
      0.370000          0.958805E-04
      0.375000          0.967994E-04
      0.380000          0.975418E-04
      0.385000          0.981101E-04
      0.390000          0.985248E-04
      0.395000          0.988197E-04
      0.400000          0.990359E-04
      0.405000          0.992176E-04
      0.410000          0.994071E-04
      0.415000          0.996422E-04
      0.420000          0.999530E-04
      0.425000          0.100361E-03
      0.430000          0.100878E-03
      0.435000          0.101506E-03
      0.440000          0.102239E-03
      0.445000          0.103065E-03
      0.450000          0.103963E-03
      0.455000          0.104911E-03
      0.460000          0.105883E-03
      0.465000          0.106852E-03
      0.470000          0.107790E-03
      0.475000          0.108673E-03
      0.480000          0.109477E-03
      0.485000          0.110182E-03
      0.490000          0.110770E-03
      0.495000          0.111228E-03
      0.500000          0.111546E-03
