 I_abs(s)[cm^-1]/c[mg/ml]
       0.00000          0.140310E-01
      0.500000E-02      0.139791E-01
      0.100000E-01      0.138248E-01
      0.150000E-01      0.135719E-01
      0.200000E-01      0.132265E-01
      0.250000E-01      0.127971E-01
      0.300000E-01      0.122936E-01
      0.350000E-01      0.117278E-01
      0.400000E-01      0.111121E-01
      0.450000E-01      0.104596E-01
      0.500000E-01      0.978347E-02
      0.550000E-01      0.909651E-02
      0.600000E-01      0.841075E-02
      0.650000E-01      0.773710E-02
      0.700000E-01      0.708510E-02
      0.750000E-01      0.646269E-02
      0.800000E-01      0.587609E-02
      0.850000E-01      0.532979E-02
      0.900000E-01      0.482654E-02
      0.950000E-01      0.436751E-02
      0.100000          0.395240E-02
      0.105000          0.357969E-02
      0.110000          0.324687E-02
      0.115000          0.295068E-02
      0.120000          0.268741E-02
      0.125000          0.245306E-02
      0.130000          0.224368E-02
      0.135000          0.205544E-02
      0.140000          0.188488E-02
      0.145000          0.172895E-02
      0.150000          0.158511E-02
      0.155000          0.145135E-02
      0.160000          0.132618E-02
      0.165000          0.120858E-02
      0.170000          0.109797E-02
      0.175000          0.994085E-03
      0.180000          0.896910E-03
      0.185000          0.806590E-03
      0.190000          0.723342E-03
      0.195000          0.647375E-03
      0.200000          0.578833E-03
      0.205000          0.517747E-03
      0.210000          0.464007E-03
      0.215000          0.417348E-03
      0.220000          0.377353E-03
      0.225000          0.343472E-03
      0.230000          0.315046E-03
      0.235000          0.291341E-03
      0.240000          0.271586E-03
      0.245000          0.255007E-03
      0.250000          0.240868E-03
      0.255000          0.228495E-03
      0.260000          0.217307E-03
      0.265000          0.206825E-03
      0.270000          0.196691E-03
      0.275000          0.186657E-03
      0.280000          0.176590E-03
      0.285000          0.166455E-03
      0.290000          0.156299E-03
      0.295000          0.146233E-03
      0.300000          0.136409E-03
      0.305000          0.127003E-03
      0.310000          0.118191E-03
      0.315000          0.110134E-03
      0.320000          0.102966E-03
      0.325000          0.967810E-04
      0.330000          0.916287E-04
      0.335000          0.875130E-04
      0.340000          0.843936E-04
      0.345000          0.821910E-04
      0.350000          0.807940E-04
      0.355000          0.800695E-04
      0.360000          0.798722E-04
      0.365000          0.800552E-04
      0.370000          0.804794E-04
      0.375000          0.810222E-04
      0.380000          0.815836E-04
      0.385000          0.820911E-04
      0.390000          0.825020E-04
      0.395000          0.828031E-04
      0.400000          0.830086E-04
      0.405000          0.831566E-04
      0.410000          0.833033E-04
      0.415000          0.835170E-04
      0.420000          0.838708E-04
      0.425000          0.844367E-04
      0.430000          0.852781E-04
      0.435000          0.864453E-04
      0.440000          0.879705E-04
      0.445000          0.898653E-04
      0.450000          0.921192E-04
      0.455000          0.946995E-04
      0.460000          0.975534E-04
      0.465000          0.100610E-03
      0.470000          0.103786E-03
      0.475000          0.106988E-03
      0.480000          0.110118E-03
      0.485000          0.113082E-03
      0.490000          0.115789E-03
      0.495000          0.118161E-03
      0.500000          0.120131E-03
