 I_abs(s)[cm^-1]/c[mg/ml]
       0.00000          0.138986E-01
      0.500000E-02      0.138491E-01
      0.100000E-01      0.137017E-01
      0.150000E-01      0.134598E-01
      0.200000E-01      0.131291E-01
      0.250000E-01      0.127173E-01
      0.300000E-01      0.122334E-01
      0.350000E-01      0.116882E-01
      0.400000E-01      0.110933E-01
      0.450000E-01      0.104607E-01
      0.500000E-01      0.980282E-02
      0.550000E-01      0.913167E-02
      0.600000E-01      0.845876E-02
      0.650000E-01      0.779466E-02
      0.700000E-01      0.714876E-02
      0.750000E-01      0.652906E-02
      0.800000E-01      0.594203E-02
      0.850000E-01      0.539260E-02
      0.900000E-01      0.488406E-02
      0.950000E-01      0.441823E-02
      0.100000          0.399549E-02
      0.105000          0.361504E-02
      0.110000          0.327498E-02
      0.115000          0.297265E-02
      0.120000          0.270476E-02
      0.125000          0.246767E-02
      0.130000          0.225755E-02
      0.135000          0.207064E-02
      0.140000          0.190333E-02
      0.145000          0.175234E-02
      0.150000          0.161477E-02
      0.155000          0.148819E-02
      0.160000          0.137064E-02
      0.165000          0.126064E-02
      0.170000          0.115712E-02
      0.175000          0.105940E-02
      0.180000          0.967117E-03
      0.185000          0.880157E-03
      0.190000          0.798563E-03
      0.195000          0.722478E-03
      0.200000          0.652079E-03
      0.205000          0.587521E-03
      0.210000          0.528897E-03
      0.215000          0.476209E-03
      0.220000          0.429355E-03
      0.225000          0.388122E-03
      0.230000          0.352193E-03
      0.235000          0.321165E-03
      0.240000          0.294564E-03
      0.245000          0.271871E-03
      0.250000          0.252549E-03
      0.255000          0.236063E-03
      0.260000          0.221902E-03
      0.265000          0.209598E-03
      0.270000          0.198737E-03
      0.275000          0.188971E-03
      0.280000          0.180018E-03
      0.285000          0.171661E-03
      0.290000          0.163750E-03
      0.295000          0.156188E-03
      0.300000          0.148927E-03
      0.305000          0.141954E-03
      0.310000          0.135288E-03
      0.315000          0.128961E-03
      0.320000          0.123019E-03
      0.325000          0.117508E-03
      0.330000          0.112469E-03
      0.335000          0.107937E-03
      0.340000          0.103937E-03
      0.345000          0.100480E-03
      0.350000          0.975665E-04
      0.355000          0.951855E-04
      0.360000          0.933157E-04
      0.365000          0.919277E-04
      0.370000          0.909852E-04
      0.375000          0.904474E-04
      0.380000          0.902703E-04
      0.385000          0.904083E-04
      0.390000          0.908153E-04
      0.395000          0.914456E-04
      0.400000          0.922550E-04
      0.405000          0.932012E-04
      0.410000          0.942444E-04
      0.415000          0.953474E-04
      0.420000          0.964765E-04
      0.425000          0.976013E-04
      0.430000          0.986954E-04
      0.435000          0.997363E-04
      0.440000          0.100706E-03
      0.445000          0.101590E-03
      0.450000          0.102379E-03
      0.455000          0.103067E-03
      0.460000          0.103652E-03
      0.465000          0.104136E-03
      0.470000          0.104524E-03
      0.475000          0.104821E-03
      0.480000          0.105036E-03
      0.485000          0.105176E-03
      0.490000          0.105251E-03
      0.495000          0.105267E-03
      0.500000          0.105231E-03
