 I_abs(s)[cm^-1]/c[mg/ml]
       0.00000          0.140544E-01
      0.500000E-02      0.140028E-01
      0.100000E-01      0.138492E-01
      0.150000E-01      0.135974E-01
      0.200000E-01      0.132535E-01
      0.250000E-01      0.128257E-01
      0.300000E-01      0.123240E-01
      0.350000E-01      0.117598E-01
      0.400000E-01      0.111455E-01
      0.450000E-01      0.104940E-01
      0.500000E-01      0.981834E-02
      0.550000E-01      0.913129E-02
      0.600000E-01      0.844479E-02
      0.650000E-01      0.776974E-02
      0.700000E-01      0.711571E-02
      0.750000E-01      0.649070E-02
      0.800000E-01      0.590104E-02
      0.850000E-01      0.535135E-02
      0.900000E-01      0.484453E-02
      0.950000E-01      0.438192E-02
      0.100000          0.396340E-02
      0.105000          0.358760E-02
      0.110000          0.325218E-02
      0.115000          0.295399E-02
      0.120000          0.268940E-02
      0.125000          0.245450E-02
      0.130000          0.224532E-02
      0.135000          0.205803E-02
      0.140000          0.188909E-02
      0.145000          0.173535E-02
      0.150000          0.159414E-02
      0.155000          0.146328E-02
      0.160000          0.134112E-02
      0.165000          0.122645E-02
      0.170000          0.111850E-02
      0.175000          0.101684E-02
      0.180000          0.921312E-03
      0.185000          0.831929E-03
      0.190000          0.748821E-03
      0.195000          0.672154E-03
      0.200000          0.602068E-03
      0.205000          0.538633E-03
      0.210000          0.481825E-03
      0.215000          0.431500E-03
      0.220000          0.387400E-03
      0.225000          0.349158E-03
      0.230000          0.316315E-03
      0.235000          0.288344E-03
      0.240000          0.264674E-03
      0.245000          0.244721E-03
      0.250000          0.227909E-03
      0.255000          0.213692E-03
      0.260000          0.201574E-03
      0.265000          0.191118E-03
      0.270000          0.181953E-03
      0.275000          0.173777E-03
      0.280000          0.166354E-03
      0.285000          0.159508E-03
      0.290000          0.153116E-03
      0.295000          0.147096E-03
      0.300000          0.141401E-03
      0.305000          0.136005E-03
      0.310000          0.130900E-03
      0.315000          0.126087E-03
      0.320000          0.121569E-03
      0.325000          0.117352E-03
      0.330000          0.113439E-03
      0.335000          0.109831E-03
      0.340000          0.106528E-03
      0.345000          0.103528E-03
      0.350000          0.100829E-03
      0.355000          0.984294E-04
      0.360000          0.963276E-04
      0.365000          0.945235E-04
      0.370000          0.930171E-04
      0.375000          0.918084E-04
      0.380000          0.908956E-04
      0.385000          0.902748E-04
      0.390000          0.899383E-04
      0.395000          0.898740E-04
      0.400000          0.900648E-04
      0.405000          0.904884E-04
      0.410000          0.911174E-04
      0.415000          0.919205E-04
      0.420000          0.928633E-04
      0.425000          0.939096E-04
      0.430000          0.950233E-04
      0.435000          0.961699E-04
      0.440000          0.973178E-04
      0.445000          0.984397E-04
      0.450000          0.995136E-04
      0.455000          0.100523E-03
      0.460000          0.101457E-03
      0.465000          0.102311E-03
      0.470000          0.103084E-03
      0.475000          0.103779E-03
      0.480000          0.104401E-03
      0.485000          0.104956E-03
      0.490000          0.105449E-03
      0.495000          0.105886E-03
      0.500000          0.106266E-03
