 I_abs(s)[cm^-1]/c[mg/ml]
       0.00000          0.140622E-01
      0.500000E-02      0.140036E-01
      0.100000E-01      0.138293E-01
      0.150000E-01      0.135444E-01
      0.200000E-01      0.131569E-01
      0.250000E-01      0.126775E-01
      0.300000E-01      0.121191E-01
      0.350000E-01      0.114962E-01
      0.400000E-01      0.108244E-01
      0.450000E-01      0.101196E-01
      0.500000E-01      0.939743E-02
      0.550000E-01      0.867280E-02
      0.600000E-01      0.795914E-02
      0.650000E-01      0.726818E-02
      0.700000E-01      0.660963E-02
      0.750000E-01      0.599098E-02
      0.800000E-01      0.541749E-02
      0.850000E-01      0.489224E-02
      0.900000E-01      0.441627E-02
      0.950000E-01      0.398889E-02
      0.100000          0.360791E-02
      0.105000          0.327003E-02
      0.110000          0.297116E-02
      0.115000          0.270678E-02
      0.120000          0.247220E-02
      0.125000          0.226291E-02
      0.130000          0.207469E-02
      0.135000          0.190384E-02
      0.140000          0.174724E-02
      0.145000          0.160240E-02
      0.150000          0.146746E-02
      0.155000          0.134110E-02
      0.160000          0.122252E-02
      0.165000          0.111128E-02
      0.170000          0.100727E-02
      0.175000          0.910520E-03
      0.180000          0.821178E-03
      0.185000          0.739386E-03
      0.190000          0.665228E-03
      0.195000          0.598687E-03
      0.200000          0.539616E-03
      0.205000          0.487732E-03
      0.210000          0.442624E-03
      0.215000          0.403766E-03
      0.220000          0.370550E-03
      0.225000          0.342313E-03
      0.230000          0.318368E-03
      0.235000          0.298036E-03
      0.240000          0.280672E-03
      0.245000          0.265683E-03
      0.250000          0.252549E-03
      0.255000          0.240827E-03
      0.260000          0.230160E-03
      0.265000          0.220269E-03
      0.270000          0.210951E-03
      0.275000          0.202074E-03
      0.280000          0.193558E-03
      0.285000          0.185372E-03
      0.290000          0.177516E-03
      0.295000          0.170015E-03
      0.300000          0.162904E-03
      0.305000          0.156227E-03
      0.310000          0.150022E-03
      0.315000          0.144324E-03
      0.320000          0.139158E-03
      0.325000          0.134538E-03
      0.330000          0.130468E-03
      0.335000          0.126940E-03
      0.340000          0.123940E-03
      0.345000          0.121445E-03
      0.350000          0.119427E-03
      0.355000          0.117854E-03
      0.360000          0.116688E-03
      0.365000          0.115893E-03
      0.370000          0.115426E-03
      0.375000          0.115247E-03
      0.380000          0.115309E-03
      0.385000          0.115566E-03
      0.390000          0.115969E-03
      0.395000          0.116466E-03
      0.400000          0.117005E-03
      0.405000          0.117535E-03
      0.410000          0.118006E-03
      0.415000          0.118371E-03
      0.420000          0.118589E-03
      0.425000          0.118626E-03
      0.430000          0.118461E-03
      0.435000          0.118079E-03
      0.440000          0.117480E-03
      0.445000          0.116675E-03
      0.450000          0.115685E-03
      0.455000          0.114542E-03
      0.460000          0.113283E-03
      0.465000          0.111951E-03
      0.470000          0.110589E-03
      0.475000          0.109238E-03
      0.480000          0.107935E-03
      0.485000          0.106709E-03
      0.490000          0.105577E-03
      0.495000          0.104548E-03
      0.500000          0.103620E-03
