 I_abs(s)[cm^-1]/c[mg/ml]
       0.00000          0.140622E-01
      0.500000E-02      0.140149E-01
      0.100000E-01      0.138741E-01
      0.150000E-01      0.136429E-01
      0.200000E-01      0.133264E-01
      0.250000E-01      0.129314E-01
      0.300000E-01      0.124664E-01
      0.350000E-01      0.119408E-01
      0.400000E-01      0.113653E-01
      0.450000E-01      0.107508E-01
      0.500000E-01      0.101086E-01
      0.550000E-01      0.944983E-02
      0.600000E-01      0.878503E-02
      0.650000E-01      0.812407E-02
      0.700000E-01      0.747582E-02
      0.750000E-01      0.684797E-02
      0.800000E-01      0.624691E-02
      0.850000E-01      0.567767E-02
      0.900000E-01      0.514394E-02
      0.950000E-01      0.464808E-02
      0.100000          0.419123E-02
      0.105000          0.377346E-02
      0.110000          0.339390E-02
      0.115000          0.305093E-02
      0.120000          0.274235E-02
      0.125000          0.246559E-02
      0.130000          0.221785E-02
      0.135000          0.199624E-02
      0.140000          0.179795E-02
      0.145000          0.162030E-02
      0.150000          0.146087E-02
      0.155000          0.131749E-02
      0.160000          0.118831E-02
      0.165000          0.107175E-02
      0.170000          0.966539E-03
      0.175000          0.871642E-03
      0.180000          0.786229E-03
      0.185000          0.709633E-03
      0.190000          0.641304E-03
      0.195000          0.580762E-03
      0.200000          0.527560E-03
      0.205000          0.481255E-03
      0.210000          0.441388E-03
      0.215000          0.407462E-03
      0.220000          0.378949E-03
      0.225000          0.355281E-03
      0.230000          0.335863E-03
      0.235000          0.320087E-03
      0.240000          0.307343E-03
      0.245000          0.297035E-03
      0.250000          0.288601E-03
      0.255000          0.281522E-03
      0.260000          0.275336E-03
      0.265000          0.269647E-03
      0.270000          0.264125E-03
      0.275000          0.258516E-03
      0.280000          0.252632E-03
      0.285000          0.246352E-03
      0.290000          0.239614E-03
      0.295000          0.232406E-03
      0.300000          0.224757E-03
      0.305000          0.216729E-03
      0.310000          0.208407E-03
      0.315000          0.199891E-03
      0.320000          0.191286E-03
      0.325000          0.182700E-03
      0.330000          0.174233E-03
      0.335000          0.165979E-03
      0.340000          0.158018E-03
      0.345000          0.150418E-03
      0.350000          0.143232E-03
      0.355000          0.136498E-03
      0.360000          0.130243E-03
      0.365000          0.124481E-03
      0.370000          0.119213E-03
      0.375000          0.114433E-03
      0.380000          0.110126E-03
      0.385000          0.106272E-03
      0.390000          0.102845E-03
      0.395000          0.998172E-04
      0.400000          0.971591E-04
      0.405000          0.948404E-04
      0.410000          0.928318E-04
      0.415000          0.911053E-04
      0.420000          0.896354E-04
      0.425000          0.883991E-04
      0.430000          0.873767E-04
      0.435000          0.865517E-04
      0.440000          0.859106E-04
      0.445000          0.854429E-04
      0.450000          0.851404E-04
      0.455000          0.849970E-04
      0.460000          0.850074E-04
      0.465000          0.851673E-04
      0.470000          0.854714E-04
      0.475000          0.859138E-04
      0.480000          0.864866E-04
      0.485000          0.871793E-04
      0.490000          0.879788E-04
      0.495000          0.888687E-04
      0.500000          0.898294E-04
