 I_abs(s)[cm^-1]/c[mg/ml]
       0.00000          0.138909E-01
      0.500000E-02      0.138328E-01
      0.100000E-01      0.136602E-01
      0.150000E-01      0.133780E-01
      0.200000E-01      0.129945E-01
      0.250000E-01      0.125202E-01
      0.300000E-01      0.119683E-01
      0.350000E-01      0.113533E-01
      0.400000E-01      0.106908E-01
      0.450000E-01      0.999679E-02
      0.500000E-01      0.928694E-02
      0.550000E-01      0.857603E-02
      0.600000E-01      0.787743E-02
      0.650000E-01      0.720274E-02
      0.700000E-01      0.656147E-02
      0.750000E-01      0.596088E-02
      0.800000E-01      0.540592E-02
      0.850000E-01      0.489934E-02
      0.900000E-01      0.444184E-02
      0.950000E-01      0.403236E-02
      0.100000          0.366836E-02
      0.105000          0.334620E-02
      0.110000          0.306150E-02
      0.115000          0.280950E-02
      0.120000          0.258535E-02
      0.125000          0.238440E-02
      0.130000          0.220244E-02
      0.135000          0.203580E-02
      0.140000          0.188146E-02
      0.145000          0.173709E-02
      0.150000          0.160103E-02
      0.155000          0.147219E-02
      0.160000          0.134998E-02
      0.165000          0.123421E-02
      0.170000          0.112495E-02
      0.175000          0.102242E-02
      0.180000          0.926889E-03
      0.185000          0.838605E-03
      0.190000          0.757709E-03
      0.195000          0.684213E-03
      0.200000          0.617977E-03
      0.205000          0.558710E-03
      0.210000          0.505990E-03
      0.215000          0.459291E-03
      0.220000          0.418018E-03
      0.225000          0.381541E-03
      0.230000          0.349236E-03
      0.235000          0.320506E-03
      0.240000          0.294812E-03
      0.245000          0.271684E-03
      0.250000          0.250732E-03
      0.255000          0.231642E-03
      0.260000          0.214177E-03
      0.265000          0.198163E-03
      0.270000          0.183478E-03
      0.275000          0.170039E-03
      0.280000          0.157791E-03
      0.285000          0.146692E-03
      0.290000          0.136709E-03
      0.295000          0.127805E-03
      0.300000          0.119939E-03
      0.305000          0.113064E-03
      0.310000          0.107123E-03
      0.315000          0.102055E-03
      0.320000          0.977941E-04
      0.325000          0.942721E-04
      0.330000          0.914217E-04
      0.335000          0.891772E-04
      0.340000          0.874767E-04
      0.345000          0.862623E-04
      0.350000          0.854804E-04
      0.355000          0.850816E-04
      0.360000          0.850202E-04
      0.365000          0.852535E-04
      0.370000          0.857413E-04
      0.375000          0.864454E-04
      0.380000          0.873293E-04
      0.385000          0.883586E-04
      0.390000          0.895005E-04
      0.395000          0.907245E-04
      0.400000          0.920026E-04
      0.405000          0.933100E-04
      0.410000          0.946251E-04
      0.415000          0.959298E-04
      0.420000          0.972097E-04
      0.425000          0.984541E-04
      0.430000          0.996558E-04
      0.435000          0.100810E-03
      0.440000          0.101917E-03
      0.445000          0.102975E-03
      0.450000          0.103988E-03
      0.455000          0.104959E-03
      0.460000          0.105891E-03
      0.465000          0.106788E-03
      0.470000          0.107654E-03
      0.475000          0.108489E-03
      0.480000          0.109293E-03
      0.485000          0.110064E-03
      0.490000          0.110797E-03
      0.495000          0.111484E-03
      0.500000          0.112115E-03
