 I_abs(s)[cm^-1]/c[mg/ml]
       0.00000          0.141561E-01
      0.500000E-02      0.141072E-01
      0.100000E-01      0.139615E-01
      0.150000E-01      0.137224E-01
      0.200000E-01      0.133952E-01
      0.250000E-01      0.129871E-01
      0.300000E-01      0.125068E-01
      0.350000E-01      0.119645E-01
      0.400000E-01      0.113713E-01
      0.450000E-01      0.107388E-01
      0.500000E-01      0.100790E-01
      0.550000E-01      0.940355E-02
      0.600000E-01      0.872376E-02
      0.650000E-01      0.805008E-02
      0.700000E-01      0.739193E-02
      0.750000E-01      0.675745E-02
      0.800000E-01      0.615336E-02
      0.850000E-01      0.558492E-02
      0.900000E-01      0.505586E-02
      0.950000E-01      0.456844E-02
      0.100000          0.412354E-02
      0.105000          0.372083E-02
      0.110000          0.335887E-02
      0.115000          0.303538E-02
      0.120000          0.274742E-02
      0.125000          0.249160E-02
      0.130000          0.226428E-02
      0.135000          0.206177E-02
      0.140000          0.188052E-02
      0.145000          0.171718E-02
      0.150000          0.156880E-02
      0.155000          0.143282E-02
      0.160000          0.130716E-02
      0.165000          0.119020E-02
      0.170000          0.108077E-02
      0.175000          0.978104E-03
      0.180000          0.881783E-03
      0.185000          0.791666E-03
      0.190000          0.707808E-03
      0.195000          0.630390E-03
      0.200000          0.559642E-03
      0.205000          0.495782E-03
      0.210000          0.438963E-03
      0.215000          0.389231E-03
      0.220000          0.346502E-03
      0.225000          0.310549E-03
      0.230000          0.281002E-03
      0.235000          0.257360E-03
      0.240000          0.239012E-03
      0.245000          0.225263E-03
      0.250000          0.215368E-03
      0.255000          0.208564E-03
      0.260000          0.204099E-03
      0.265000          0.201266E-03
      0.270000          0.199424E-03
      0.275000          0.198019E-03
      0.280000          0.196599E-03
      0.285000          0.194816E-03
      0.290000          0.192431E-03
      0.295000          0.189307E-03
      0.300000          0.185401E-03
      0.305000          0.180750E-03
      0.310000          0.175453E-03
      0.315000          0.169660E-03
      0.320000          0.163545E-03
      0.325000          0.157302E-03
      0.330000          0.151118E-03
      0.335000          0.145167E-03
      0.340000          0.139601E-03
      0.345000          0.134537E-03
      0.350000          0.130059E-03
      0.355000          0.126212E-03
      0.360000          0.123006E-03
      0.365000          0.120420E-03
      0.370000          0.118401E-03
      0.375000          0.116877E-03
      0.380000          0.115761E-03
      0.385000          0.114957E-03
      0.390000          0.114367E-03
      0.395000          0.113898E-03
      0.400000          0.113466E-03
      0.405000          0.112999E-03
      0.410000          0.112443E-03
      0.415000          0.111760E-03
      0.420000          0.110931E-03
      0.425000          0.109954E-03
      0.430000          0.108842E-03
      0.435000          0.107620E-03
      0.440000          0.106326E-03
      0.445000          0.105002E-03
      0.450000          0.103693E-03
      0.455000          0.102445E-03
      0.460000          0.101302E-03
      0.465000          0.100297E-03
      0.470000          0.994600E-04
      0.475000          0.988067E-04
      0.480000          0.983433E-04
      0.485000          0.980642E-04
      0.490000          0.979525E-04
      0.495000          0.979806E-04
      0.500000          0.981124E-04
