 I_abs(s)[cm^-1]/c[mg/ml]
       0.00000          0.138831E-01
      0.500000E-02      0.138310E-01
      0.100000E-01      0.136761E-01
      0.150000E-01      0.134223E-01
      0.200000E-01      0.130759E-01
      0.250000E-01      0.126454E-01
      0.300000E-01      0.121413E-01
      0.350000E-01      0.115753E-01
      0.400000E-01      0.109603E-01
      0.450000E-01      0.103095E-01
      0.500000E-01      0.963642E-02
      0.550000E-01      0.895398E-02
      0.600000E-01      0.827436E-02
      0.650000E-01      0.760854E-02
      0.700000E-01      0.696608E-02
      0.750000E-01      0.635484E-02
      0.800000E-01      0.578092E-02
      0.850000E-01      0.524863E-02
      0.900000E-01      0.476047E-02
      0.950000E-01      0.431732E-02
      0.100000          0.391859E-02
      0.105000          0.356242E-02
      0.110000          0.324598E-02
      0.115000          0.296570E-02
      0.120000          0.271755E-02
      0.125000          0.249732E-02
      0.130000          0.230081E-02
      0.135000          0.212405E-02
      0.140000          0.196343E-02
      0.145000          0.181584E-02
      0.150000          0.167871E-02
      0.155000          0.155003E-02
      0.160000          0.142837E-02
      0.165000          0.131278E-02
      0.170000          0.120275E-02
      0.175000          0.109812E-02
      0.180000          0.998987E-03
      0.185000          0.905615E-03
      0.190000          0.818330E-03
      0.195000          0.737455E-03
      0.200000          0.663247E-03
      0.205000          0.595846E-03
      0.210000          0.535254E-03
      0.215000          0.481320E-03
      0.220000          0.433746E-03
      0.225000          0.392102E-03
      0.230000          0.355856E-03
      0.235000          0.324403E-03
      0.240000          0.297099E-03
      0.245000          0.273300E-03
      0.250000          0.252390E-03
      0.255000          0.233805E-03
      0.260000          0.217059E-03
      0.265000          0.201749E-03
      0.270000          0.187565E-03
      0.275000          0.174286E-03
      0.280000          0.161777E-03
      0.285000          0.149970E-03
      0.290000          0.138857E-03
      0.295000          0.128471E-03
      0.300000          0.118869E-03
      0.305000          0.110117E-03
      0.310000          0.102277E-03
      0.315000          0.953990E-04
      0.320000          0.895094E-04
      0.325000          0.846090E-04
      0.330000          0.806710E-04
      0.335000          0.776420E-04
      0.340000          0.754453E-04
      0.345000          0.739858E-04
      0.350000          0.731556E-04
      0.355000          0.728403E-04
      0.360000          0.729248E-04
      0.365000          0.732989E-04
      0.370000          0.738617E-04
      0.375000          0.745256E-04
      0.380000          0.752184E-04
      0.385000          0.758847E-04
      0.390000          0.764860E-04
      0.395000          0.770005E-04
      0.400000          0.774212E-04
      0.405000          0.777543E-04
      0.410000          0.780167E-04
      0.415000          0.782335E-04
      0.420000          0.784355E-04
      0.425000          0.786566E-04
      0.430000          0.789314E-04
      0.435000          0.792934E-04
      0.440000          0.797724E-04
      0.445000          0.803937E-04
      0.450000          0.811764E-04
      0.455000          0.821324E-04
      0.460000          0.832659E-04
      0.465000          0.845731E-04
      0.470000          0.860425E-04
      0.475000          0.876544E-04
      0.480000          0.893828E-04
      0.485000          0.911953E-04
      0.490000          0.930551E-04
      0.495000          0.949222E-04
      0.500000          0.967552E-04
