 I_abs(s)[cm^-1]/c[mg/ml]
       0.00000          0.144555E-01
      0.500000E-02      0.144066E-01
      0.100000E-01      0.142610E-01
      0.150000E-01      0.140217E-01
      0.200000E-01      0.136937E-01
      0.250000E-01      0.132838E-01
      0.300000E-01      0.128002E-01
      0.350000E-01      0.122524E-01
      0.400000E-01      0.116509E-01
      0.450000E-01      0.110065E-01
      0.500000E-01      0.103305E-01
      0.550000E-01      0.963410E-02
      0.600000E-01      0.892804E-02
      0.650000E-01      0.822245E-02
      0.700000E-01      0.752661E-02
      0.750000E-01      0.684874E-02
      0.800000E-01      0.619595E-02
      0.850000E-01      0.557410E-02
      0.900000E-01      0.498782E-02
      0.950000E-01      0.444055E-02
      0.100000          0.393457E-02
      0.105000          0.347112E-02
      0.110000          0.305048E-02
      0.115000          0.267213E-02
      0.120000          0.233488E-02
      0.125000          0.203697E-02
      0.130000          0.177622E-02
      0.135000          0.155013E-02
      0.140000          0.135599E-02
      0.145000          0.119095E-02
      0.150000          0.105214E-02
      0.155000          0.936638E-03
      0.160000          0.841621E-03
      0.165000          0.764339E-03
      0.170000          0.702169E-03
      0.175000          0.652636E-03
      0.180000          0.613438E-03
      0.185000          0.582460E-03
      0.190000          0.557790E-03
      0.195000          0.537728E-03
      0.200000          0.520799E-03
      0.205000          0.505752E-03
      0.210000          0.491565E-03
      0.215000          0.477437E-03
      0.220000          0.462782E-03
      0.225000          0.447215E-03
      0.230000          0.430530E-03
      0.235000          0.412683E-03
      0.240000          0.393761E-03
      0.245000          0.373959E-03
      0.250000          0.353547E-03
      0.255000          0.332844E-03
      0.260000          0.312191E-03
      0.265000          0.291927E-03
      0.270000          0.272368E-03
      0.275000          0.253791E-03
      0.280000          0.236421E-03
      0.285000          0.220425E-03
      0.290000          0.205911E-03
      0.295000          0.192923E-03
      0.300000          0.181454E-03
      0.305000          0.171447E-03
      0.310000          0.162805E-03
      0.315000          0.155402E-03
      0.320000          0.149093E-03
      0.325000          0.143724E-03
      0.330000          0.139138E-03
      0.335000          0.135187E-03
      0.340000          0.131735E-03
      0.345000          0.128663E-03
      0.350000          0.125873E-03
      0.355000          0.123286E-03
      0.360000          0.120846E-03
      0.365000          0.118517E-03
      0.370000          0.116279E-03
      0.375000          0.114128E-03
      0.380000          0.112072E-03
      0.385000          0.110128E-03
      0.390000          0.108318E-03
      0.395000          0.106667E-03
      0.400000          0.105197E-03
      0.405000          0.103931E-03
      0.410000          0.102885E-03
      0.415000          0.102068E-03
      0.420000          0.101485E-03
      0.425000          0.101129E-03
      0.430000          0.100990E-03
      0.435000          0.101047E-03
      0.440000          0.101276E-03
      0.445000          0.101644E-03
      0.450000          0.102117E-03
      0.455000          0.102658E-03
      0.460000          0.103228E-03
      0.465000          0.103789E-03
      0.470000          0.104308E-03
      0.475000          0.104750E-03
      0.480000          0.105089E-03
      0.485000          0.105302E-03
      0.490000          0.105373E-03
      0.495000          0.105291E-03
      0.500000          0.105053E-03
