 I_abs(s)[cm^-1]/c[mg/ml]
       0.00000          0.141169E-01
      0.500000E-02      0.140614E-01
      0.100000E-01      0.138964E-01
      0.150000E-01      0.136264E-01
      0.200000E-01      0.132585E-01
      0.250000E-01      0.128025E-01
      0.300000E-01      0.122699E-01
      0.350000E-01      0.116740E-01
      0.400000E-01      0.110290E-01
      0.450000E-01      0.103494E-01
      0.500000E-01      0.964979E-02
      0.550000E-01      0.894388E-02
      0.600000E-01      0.824443E-02
      0.650000E-01      0.756267E-02
      0.700000E-01      0.690809E-02
      0.750000E-01      0.628824E-02
      0.800000E-01      0.570868E-02
      0.850000E-01      0.517299E-02
      0.900000E-01      0.468292E-02
      0.950000E-01      0.423853E-02
      0.100000          0.383848E-02
      0.105000          0.348031E-02
      0.110000          0.316071E-02
      0.115000          0.287588E-02
      0.120000          0.262172E-02
      0.125000          0.239416E-02
      0.130000          0.218932E-02
      0.135000          0.200369E-02
      0.140000          0.183421E-02
      0.145000          0.167835E-02
      0.150000          0.153410E-02
      0.155000          0.139998E-02
      0.160000          0.127496E-02
      0.165000          0.115837E-02
      0.170000          0.104985E-02
      0.175000          0.949235E-03
      0.180000          0.856489E-03
      0.185000          0.771607E-03
      0.190000          0.694567E-03
      0.195000          0.625282E-03
      0.200000          0.563571E-03
      0.205000          0.509142E-03
      0.210000          0.461596E-03
      0.215000          0.420438E-03
      0.220000          0.385095E-03
      0.225000          0.354941E-03
      0.230000          0.329326E-03
      0.235000          0.307600E-03
      0.240000          0.289135E-03
      0.245000          0.273349E-03
      0.250000          0.259716E-03
      0.255000          0.247779E-03
      0.260000          0.237150E-03
      0.265000          0.227516E-03
      0.270000          0.218630E-03
      0.275000          0.210308E-03
      0.280000          0.202421E-03
      0.285000          0.194882E-03
      0.290000          0.187641E-03
      0.295000          0.180675E-03
      0.300000          0.173981E-03
      0.305000          0.167565E-03
      0.310000          0.161442E-03
      0.315000          0.155628E-03
      0.320000          0.150137E-03
      0.325000          0.144982E-03
      0.330000          0.140169E-03
      0.335000          0.135699E-03
      0.340000          0.131569E-03
      0.345000          0.127769E-03
      0.350000          0.124287E-03
      0.355000          0.121106E-03
      0.360000          0.118208E-03
      0.365000          0.115573E-03
      0.370000          0.113181E-03
      0.375000          0.111013E-03
      0.380000          0.109052E-03
      0.385000          0.107282E-03
      0.390000          0.105689E-03
      0.395000          0.104264E-03
      0.400000          0.102998E-03
      0.405000          0.101884E-03
      0.410000          0.100916E-03
      0.415000          0.100091E-03
      0.420000          0.994024E-04
      0.425000          0.988457E-04
      0.430000          0.984132E-04
      0.435000          0.980963E-04
      0.440000          0.978838E-04
      0.445000          0.977628E-04
      0.450000          0.977186E-04
      0.455000          0.977352E-04
      0.460000          0.977959E-04
      0.465000          0.978844E-04
      0.470000          0.979850E-04
      0.475000          0.980840E-04
      0.480000          0.981697E-04
      0.485000          0.982334E-04
      0.490000          0.982695E-04
      0.495000          0.982753E-04
      0.500000          0.982510E-04
