 I_abs(s)[cm^-1]/c[mg/ml]
       0.00000          0.142660E-01
      0.500000E-02      0.142176E-01
      0.100000E-01      0.140733E-01
      0.150000E-01      0.138362E-01
      0.200000E-01      0.135112E-01
      0.250000E-01      0.131052E-01
      0.300000E-01      0.126262E-01
      0.350000E-01      0.120838E-01
      0.400000E-01      0.114885E-01
      0.450000E-01      0.108513E-01
      0.500000E-01      0.101835E-01
      0.550000E-01      0.949651E-02
      0.600000E-01      0.880124E-02
      0.650000E-01      0.810802E-02
      0.700000E-01      0.742629E-02
      0.750000E-01      0.676443E-02
      0.800000E-01      0.612958E-02
      0.850000E-01      0.552761E-02
      0.900000E-01      0.496301E-02
      0.950000E-01      0.443895E-02
      0.100000          0.395732E-02
      0.105000          0.351884E-02
      0.110000          0.312316E-02
      0.115000          0.276904E-02
      0.120000          0.245449E-02
      0.125000          0.217697E-02
      0.130000          0.193353E-02
      0.135000          0.172096E-02
      0.140000          0.153598E-02
      0.145000          0.137532E-02
      0.150000          0.123583E-02
      0.155000          0.111458E-02
      0.160000          0.100893E-02
      0.165000          0.916492E-03
      0.170000          0.835236E-03
      0.175000          0.763428E-03
      0.180000          0.699639E-03
      0.185000          0.642709E-03
      0.190000          0.591719E-03
      0.195000          0.545948E-03
      0.200000          0.504838E-03
      0.205000          0.467953E-03
      0.210000          0.434948E-03
      0.215000          0.405534E-03
      0.220000          0.379457E-03
      0.225000          0.356480E-03
      0.230000          0.336365E-03
      0.235000          0.318867E-03
      0.240000          0.303733E-03
      0.245000          0.290697E-03
      0.250000          0.279487E-03
      0.255000          0.269827E-03
      0.260000          0.261448E-03
      0.265000          0.254085E-03
      0.270000          0.247495E-03
      0.275000          0.241451E-03
      0.280000          0.235755E-03
      0.285000          0.230236E-03
      0.290000          0.224755E-03
      0.295000          0.219201E-03
      0.300000          0.213497E-03
      0.305000          0.207590E-03
      0.310000          0.201458E-03
      0.315000          0.195099E-03
      0.320000          0.188531E-03
      0.325000          0.181790E-03
      0.330000          0.174923E-03
      0.335000          0.167990E-03
      0.340000          0.161054E-03
      0.345000          0.154183E-03
      0.350000          0.147447E-03
      0.355000          0.140916E-03
      0.360000          0.134655E-03
      0.365000          0.128727E-03
      0.370000          0.123188E-03
      0.375000          0.118087E-03
      0.380000          0.113466E-03
      0.385000          0.109357E-03
      0.390000          0.105785E-03
      0.395000          0.102763E-03
      0.400000          0.100294E-03
      0.405000          0.983703E-04
      0.410000          0.969755E-04
      0.415000          0.960824E-04
      0.420000          0.956551E-04
      0.425000          0.956496E-04
      0.430000          0.960152E-04
      0.435000          0.966961E-04
      0.440000          0.976326E-04
      0.445000          0.987637E-04
      0.450000          0.100028E-03
      0.455000          0.101367E-03
      0.460000          0.102724E-03
      0.465000          0.104048E-03
      0.470000          0.105297E-03
      0.475000          0.106432E-03
      0.480000          0.107425E-03
      0.485000          0.108254E-03
      0.490000          0.108907E-03
      0.495000          0.109377E-03
      0.500000          0.109665E-03
