 I_abs(s)[cm^-1]/c[mg/ml]
       0.00000          0.138056E-01
      0.500000E-02      0.137550E-01
      0.100000E-01      0.136044E-01
      0.150000E-01      0.133576E-01
      0.200000E-01      0.130204E-01
      0.250000E-01      0.126009E-01
      0.300000E-01      0.121088E-01
      0.350000E-01      0.115552E-01
      0.400000E-01      0.109524E-01
      0.450000E-01      0.103130E-01
      0.500000E-01      0.964986E-02
      0.550000E-01      0.897537E-02
      0.600000E-01      0.830139E-02
      0.650000E-01      0.763872E-02
      0.700000E-01      0.699681E-02
      0.750000E-01      0.638366E-02
      0.800000E-01      0.580558E-02
      0.850000E-01      0.526723E-02
      0.900000E-01      0.477157E-02
      0.950000E-01      0.431999E-02
      0.100000          0.391244E-02
      0.105000          0.354760E-02
      0.110000          0.322315E-02
      0.115000          0.293594E-02
      0.120000          0.268232E-02
      0.125000          0.245829E-02
      0.130000          0.225979E-02
      0.135000          0.208286E-02
      0.140000          0.192379E-02
      0.145000          0.177929E-02
      0.150000          0.164651E-02
      0.155000          0.152313E-02
      0.160000          0.140734E-02
      0.165000          0.129783E-02
      0.170000          0.119376E-02
      0.175000          0.109465E-02
      0.180000          0.100035E-02
      0.185000          0.910931E-03
      0.190000          0.826600E-03
      0.195000          0.747637E-03
      0.200000          0.674323E-03
      0.205000          0.606886E-03
      0.210000          0.545459E-03
      0.215000          0.490060E-03
      0.220000          0.440577E-03
      0.225000          0.396776E-03
      0.230000          0.358305E-03
      0.235000          0.324721E-03
      0.240000          0.295514E-03
      0.245000          0.270135E-03
      0.250000          0.248024E-03
      0.255000          0.228639E-03
      0.260000          0.211474E-03
      0.265000          0.196082E-03
      0.270000          0.182087E-03
      0.275000          0.169186E-03
      0.280000          0.157156E-03
      0.285000          0.145847E-03
      0.290000          0.135176E-03
      0.295000          0.125115E-03
      0.300000          0.115680E-03
      0.305000          0.106918E-03
      0.310000          0.988909E-04
      0.315000          0.916681E-04
      0.320000          0.853117E-04
      0.325000          0.798704E-04
      0.330000          0.753731E-04
      0.335000          0.718251E-04
      0.340000          0.692068E-04
      0.345000          0.674746E-04
      0.350000          0.665637E-04
      0.355000          0.663910E-04
      0.360000          0.668605E-04
      0.365000          0.678681E-04
      0.370000          0.693068E-04
      0.375000          0.710711E-04
      0.380000          0.730617E-04
      0.385000          0.751888E-04
      0.390000          0.773743E-04
      0.395000          0.795538E-04
      0.400000          0.816773E-04
      0.405000          0.837086E-04
      0.410000          0.856248E-04
      0.415000          0.874148E-04
      0.420000          0.890773E-04
      0.425000          0.906186E-04
      0.430000          0.920507E-04
      0.435000          0.933886E-04
      0.440000          0.946488E-04
      0.445000          0.958472E-04
      0.450000          0.969976E-04
      0.455000          0.981107E-04
      0.460000          0.991937E-04
      0.465000          0.100249E-03
      0.470000          0.101276E-03
      0.475000          0.102269E-03
      0.480000          0.103219E-03
      0.485000          0.104115E-03
      0.490000          0.104945E-03
      0.495000          0.105693E-03
      0.500000          0.106347E-03
