 I_abs(s)[cm^-1]/c[mg/ml]
       0.00000          0.137669E-01
      0.500000E-02      0.137101E-01
      0.100000E-01      0.135413E-01
      0.150000E-01      0.132656E-01
      0.200000E-01      0.128909E-01
      0.250000E-01      0.124279E-01
      0.300000E-01      0.118896E-01
      0.350000E-01      0.112904E-01
      0.400000E-01      0.106456E-01
      0.450000E-01      0.997091E-02
      0.500000E-01      0.928162E-02
      0.550000E-01      0.859205E-02
      0.600000E-01      0.791508E-02
      0.650000E-01      0.726178E-02
      0.700000E-01      0.664109E-02
      0.750000E-01      0.605974E-02
      0.800000E-01      0.552218E-02
      0.850000E-01      0.503075E-02
      0.900000E-01      0.458581E-02
      0.950000E-01      0.418610E-02
      0.100000          0.382898E-02
      0.105000          0.351085E-02
      0.110000          0.322749E-02
      0.115000          0.297439E-02
      0.120000          0.274705E-02
      0.125000          0.254124E-02
      0.130000          0.235314E-02
      0.135000          0.217953E-02
      0.140000          0.201779E-02
      0.145000          0.186595E-02
      0.150000          0.172261E-02
      0.155000          0.158690E-02
      0.160000          0.145836E-02
      0.165000          0.133685E-02
      0.170000          0.122242E-02
      0.175000          0.111522E-02
      0.180000          0.101543E-02
      0.185000          0.923165E-03
      0.190000          0.838434E-03
      0.195000          0.761139E-03
      0.200000          0.691048E-03
      0.205000          0.627810E-03
      0.210000          0.570977E-03
      0.215000          0.520027E-03
      0.220000          0.474402E-03
      0.225000          0.433529E-03
      0.230000          0.396853E-03
      0.235000          0.363856E-03
      0.240000          0.334074E-03
      0.245000          0.307101E-03
      0.250000          0.282597E-03
      0.255000          0.260283E-03
      0.260000          0.239936E-03
      0.265000          0.221380E-03
      0.270000          0.204475E-03
      0.275000          0.189112E-03
      0.280000          0.175198E-03
      0.285000          0.162654E-03
      0.290000          0.151406E-03
      0.295000          0.141384E-03
      0.300000          0.132516E-03
      0.305000          0.124728E-03
      0.310000          0.117947E-03
      0.315000          0.112096E-03
      0.320000          0.107098E-03
      0.325000          0.102877E-03
      0.330000          0.993573E-04
      0.335000          0.964634E-04
      0.340000          0.941231E-04
      0.345000          0.922661E-04
      0.350000          0.908249E-04
      0.355000          0.897355E-04
      0.360000          0.889376E-04
      0.365000          0.883760E-04
      0.370000          0.880007E-04
      0.375000          0.877683E-04
      0.380000          0.876421E-04
      0.385000          0.875937E-04
      0.390000          0.876022E-04
      0.395000          0.876549E-04
      0.400000          0.877469E-04
      0.405000          0.878799E-04
      0.410000          0.880612E-04
      0.415000          0.883024E-04
      0.420000          0.886172E-04
      0.425000          0.890198E-04
      0.430000          0.895226E-04
      0.435000          0.901349E-04
      0.440000          0.908612E-04
      0.445000          0.916996E-04
      0.450000          0.926420E-04
      0.455000          0.936728E-04
      0.460000          0.947702E-04
      0.465000          0.959063E-04
      0.470000          0.970488E-04
      0.475000          0.981624E-04
      0.480000          0.992103E-04
      0.485000          0.100157E-03
      0.490000          0.100969E-03
      0.495000          0.101618E-03
      0.500000          0.102082E-03
