 I_abs(s)[cm^-1]/c[mg/ml]
       0.00000          0.140935E-01
      0.500000E-02      0.140359E-01
      0.100000E-01      0.138649E-01
      0.150000E-01      0.135851E-01
      0.200000E-01      0.132041E-01
      0.250000E-01      0.127319E-01
      0.300000E-01      0.121809E-01
      0.350000E-01      0.115649E-01
      0.400000E-01      0.108988E-01
      0.450000E-01      0.101978E-01
      0.500000E-01      0.947731E-02
      0.550000E-01      0.875168E-02
      0.600000E-01      0.803431E-02
      0.650000E-01      0.733697E-02
      0.700000E-01      0.666962E-02
      0.750000E-01      0.604015E-02
      0.800000E-01      0.545434E-02
      0.850000E-01      0.491589E-02
      0.900000E-01      0.442652E-02
      0.950000E-01      0.398621E-02
      0.100000          0.359339E-02
      0.105000          0.324533E-02
      0.110000          0.293836E-02
      0.115000          0.266827E-02
      0.120000          0.243055E-02
      0.125000          0.222068E-02
      0.130000          0.203435E-02
      0.135000          0.186761E-02
      0.140000          0.171702E-02
      0.145000          0.157966E-02
      0.150000          0.145324E-02
      0.155000          0.133596E-02
      0.160000          0.122658E-02
      0.165000          0.112424E-02
      0.170000          0.102843E-02
      0.175000          0.938917E-03
      0.180000          0.855585E-03
      0.185000          0.778426E-03
      0.190000          0.707442E-03
      0.195000          0.642606E-03
      0.200000          0.583826E-03
      0.205000          0.530932E-03
      0.210000          0.483671E-03
      0.215000          0.441711E-03
      0.220000          0.404664E-03
      0.225000          0.372098E-03
      0.230000          0.343559E-03
      0.235000          0.318595E-03
      0.240000          0.296769E-03
      0.245000          0.277674E-03
      0.250000          0.260941E-03
      0.255000          0.246244E-03
      0.260000          0.233300E-03
      0.265000          0.221866E-03
      0.270000          0.211737E-03
      0.275000          0.202737E-03
      0.280000          0.194715E-03
      0.285000          0.187537E-03
      0.290000          0.181086E-03
      0.295000          0.175254E-03
      0.300000          0.169943E-03
      0.305000          0.165064E-03
      0.310000          0.160534E-03
      0.315000          0.156283E-03
      0.320000          0.152249E-03
      0.325000          0.148382E-03
      0.330000          0.144643E-03
      0.335000          0.141008E-03
      0.340000          0.137459E-03
      0.345000          0.133995E-03
      0.350000          0.130617E-03
      0.355000          0.127339E-03
      0.360000          0.124174E-03
      0.365000          0.121140E-03
      0.370000          0.118257E-03
      0.375000          0.115542E-03
      0.380000          0.113009E-03
      0.385000          0.110670E-03
      0.390000          0.108535E-03
      0.395000          0.106606E-03
      0.400000          0.104885E-03
      0.405000          0.103370E-03
      0.410000          0.102056E-03
      0.415000          0.100937E-03
      0.420000          0.100003E-03
      0.425000          0.992470E-04
      0.430000          0.986571E-04
      0.435000          0.982233E-04
      0.440000          0.979344E-04
      0.445000          0.977791E-04
      0.450000          0.977456E-04
      0.455000          0.978215E-04
      0.460000          0.979944E-04
      0.465000          0.982509E-04
      0.470000          0.985772E-04
      0.475000          0.989592E-04
      0.480000          0.993821E-04
      0.485000          0.998305E-04
      0.490000          0.100289E-03
      0.495000          0.100741E-03
      0.500000          0.101172E-03
