 I_abs(s)[cm^-1]/c[mg/ml]
       0.00000          0.141953E-01
      0.500000E-02      0.141443E-01
      0.100000E-01      0.139923E-01
      0.150000E-01      0.137430E-01
      0.200000E-01      0.134020E-01
      0.250000E-01      0.129770E-01
      0.300000E-01      0.124775E-01
      0.350000E-01      0.119141E-01
      0.400000E-01      0.112988E-01
      0.450000E-01      0.106437E-01
      0.500000E-01      0.996169E-02
      0.550000E-01      0.926495E-02
      0.600000E-01      0.856536E-02
      0.650000E-01      0.787383E-02
      0.700000E-01      0.720015E-02
      0.750000E-01      0.655272E-02
      0.800000E-01      0.593845E-02
      0.850000E-01      0.536264E-02
      0.900000E-01      0.482905E-02
      0.950000E-01      0.433987E-02
      0.100000          0.389590E-02
      0.105000          0.349664E-02
      0.110000          0.314053E-02
      0.115000          0.282514E-02
      0.120000          0.254735E-02
      0.125000          0.230363E-02
      0.130000          0.209020E-02
      0.135000          0.190321E-02
      0.140000          0.173894E-02
      0.145000          0.159387E-02
      0.150000          0.146484E-02
      0.155000          0.134905E-02
      0.160000          0.124416E-02
      0.165000          0.114822E-02
      0.170000          0.105973E-02
      0.175000          0.977536E-03
      0.180000          0.900838E-03
      0.185000          0.829091E-03
      0.190000          0.761965E-03
      0.195000          0.699279E-03
      0.200000          0.640951E-03
      0.205000          0.586944E-03
      0.210000          0.537236E-03
      0.215000          0.491781E-03
      0.220000          0.450500E-03
      0.225000          0.413262E-03
      0.230000          0.379886E-03
      0.235000          0.350146E-03
      0.240000          0.323773E-03
      0.245000          0.300475E-03
      0.250000          0.279943E-03
      0.255000          0.261868E-03
      0.260000          0.245950E-03
      0.265000          0.231908E-03
      0.270000          0.219490E-03
      0.275000          0.208472E-03
      0.280000          0.198665E-03
      0.285000          0.189914E-03
      0.290000          0.182090E-03
      0.295000          0.175093E-03
      0.300000          0.168845E-03
      0.305000          0.163283E-03
      0.310000          0.158355E-03
      0.315000          0.154015E-03
      0.320000          0.150222E-03
      0.325000          0.146931E-03
      0.330000          0.144097E-03
      0.335000          0.141670E-03
      0.340000          0.139597E-03
      0.345000          0.137821E-03
      0.350000          0.136283E-03
      0.355000          0.134924E-03
      0.360000          0.133685E-03
      0.365000          0.132512E-03
      0.370000          0.131355E-03
      0.375000          0.130171E-03
      0.380000          0.128924E-03
      0.385000          0.127587E-03
      0.390000          0.126143E-03
      0.395000          0.124584E-03
      0.400000          0.122912E-03
      0.405000          0.121134E-03
      0.410000          0.119269E-03
      0.415000          0.117339E-03
      0.420000          0.115371E-03
      0.425000          0.113397E-03
      0.430000          0.111449E-03
      0.435000          0.109558E-03
      0.440000          0.107756E-03
      0.445000          0.106068E-03
      0.450000          0.104518E-03
      0.455000          0.103123E-03
      0.460000          0.101894E-03
      0.465000          0.100835E-03
      0.470000          0.999445E-04
      0.475000          0.992139E-04
      0.480000          0.986287E-04
      0.485000          0.981692E-04
      0.490000          0.978113E-04
      0.495000          0.975282E-04
      0.500000          0.972912E-04
