 I_abs(s)[cm^-1]/c[mg/ml]
       0.00000          0.139142E-01
      0.500000E-02      0.138607E-01
      0.100000E-01      0.137018E-01
      0.150000E-01      0.134416E-01
      0.200000E-01      0.130873E-01
      0.250000E-01      0.126480E-01
      0.300000E-01      0.121350E-01
      0.350000E-01      0.115611E-01
      0.400000E-01      0.109399E-01
      0.450000E-01      0.102855E-01
      0.500000E-01      0.961207E-02
      0.550000E-01      0.893284E-02
      0.600000E-01      0.826016E-02
      0.650000E-01      0.760491E-02
      0.700000E-01      0.697628E-02
      0.750000E-01      0.638156E-02
      0.800000E-01      0.582605E-02
      0.850000E-01      0.531316E-02
      0.900000E-01      0.484444E-02
      0.950000E-01      0.441977E-02
      0.100000          0.403767E-02
      0.105000          0.369551E-02
      0.110000          0.338984E-02
      0.115000          0.311668E-02
      0.120000          0.287185E-02
      0.125000          0.265115E-02
      0.130000          0.245065E-02
      0.135000          0.226679E-02
      0.140000          0.209655E-02
      0.145000          0.193748E-02
      0.150000          0.178771E-02
      0.155000          0.164595E-02
      0.160000          0.151139E-02
      0.165000          0.138365E-02
      0.170000          0.126267E-02
      0.175000          0.114860E-02
      0.180000          0.104171E-02
      0.185000          0.942302E-03
      0.190000          0.850612E-03
      0.195000          0.766784E-03
      0.200000          0.690820E-03
      0.205000          0.622565E-03
      0.210000          0.561709E-03
      0.215000          0.507804E-03
      0.220000          0.460287E-03
      0.225000          0.418520E-03
      0.230000          0.381818E-03
      0.235000          0.349493E-03
      0.240000          0.320881E-03
      0.245000          0.295373E-03
      0.250000          0.272431E-03
      0.255000          0.251606E-03
      0.260000          0.232536E-03
      0.265000          0.214948E-03
      0.270000          0.198649E-03
      0.275000          0.183514E-03
      0.280000          0.169475E-03
      0.285000          0.156499E-03
      0.290000          0.144580E-03
      0.295000          0.133721E-03
      0.300000          0.123925E-03
      0.305000          0.115185E-03
      0.310000          0.107482E-03
      0.315000          0.100778E-03
      0.320000          0.950194E-04
      0.325000          0.901375E-04
      0.330000          0.860531E-04
      0.335000          0.826803E-04
      0.340000          0.799314E-04
      0.345000          0.777213E-04
      0.350000          0.759714E-04
      0.355000          0.746128E-04
      0.360000          0.735877E-04
      0.365000          0.728507E-04
      0.370000          0.723685E-04
      0.375000          0.721189E-04
      0.380000          0.720889E-04
      0.385000          0.722726E-04
      0.390000          0.726689E-04
      0.395000          0.732787E-04
      0.400000          0.741032E-04
      0.405000          0.751412E-04
      0.410000          0.763882E-04
      0.415000          0.778348E-04
      0.420000          0.794663E-04
      0.425000          0.812625E-04
      0.430000          0.831981E-04
      0.435000          0.852433E-04
      0.440000          0.873647E-04
      0.445000          0.895265E-04
      0.450000          0.916917E-04
      0.455000          0.938235E-04
      0.460000          0.958865E-04
      0.465000          0.978479E-04
      0.470000          0.996786E-04
      0.475000          0.101354E-03
      0.480000          0.102853E-03
      0.485000          0.104164E-03
      0.490000          0.105275E-03
      0.495000          0.106186E-03
      0.500000          0.106896E-03
