 I_abs(s)[cm^-1]/c[mg/ml]
       0.00000          0.142189E-01
      0.500000E-02      0.141695E-01
      0.100000E-01      0.140226E-01
      0.150000E-01      0.137812E-01
      0.200000E-01      0.134505E-01
      0.250000E-01      0.130373E-01
      0.300000E-01      0.125501E-01
      0.350000E-01      0.119986E-01
      0.400000E-01      0.113936E-01
      0.450000E-01      0.107465E-01
      0.500000E-01      0.100687E-01
      0.550000E-01      0.937197E-02
      0.600000E-01      0.866737E-02
      0.650000E-01      0.796546E-02
      0.700000E-01      0.727584E-02
      0.750000E-01      0.660702E-02
      0.800000E-01      0.596627E-02
      0.850000E-01      0.535951E-02
      0.900000E-01      0.479130E-02
      0.950000E-01      0.426484E-02
      0.100000          0.378205E-02
      0.105000          0.334367E-02
      0.110000          0.294935E-02
      0.115000          0.259786E-02
      0.120000          0.228722E-02
      0.125000          0.201489E-02
      0.130000          0.177788E-02
      0.135000          0.157299E-02
      0.140000          0.139687E-02
      0.145000          0.124618E-02
      0.150000          0.111769E-02
      0.155000          0.100833E-02
      0.160000          0.915296E-03
      0.165000          0.836014E-03
      0.170000          0.768220E-03
      0.175000          0.709933E-03
      0.180000          0.659456E-03
      0.185000          0.615352E-03
      0.190000          0.576427E-03
      0.195000          0.541700E-03
      0.200000          0.510376E-03
      0.205000          0.481820E-03
      0.210000          0.455529E-03
      0.215000          0.431112E-03
      0.220000          0.408270E-03
      0.225000          0.386778E-03
      0.230000          0.366470E-03
      0.235000          0.347230E-03
      0.240000          0.328980E-03
      0.245000          0.311670E-03
      0.250000          0.295276E-03
      0.255000          0.279788E-03
      0.260000          0.265206E-03
      0.265000          0.251537E-03
      0.270000          0.238789E-03
      0.275000          0.226966E-03
      0.280000          0.216067E-03
      0.285000          0.206083E-03
      0.290000          0.196994E-03
      0.295000          0.188772E-03
      0.300000          0.181376E-03
      0.305000          0.174759E-03
      0.310000          0.168865E-03
      0.315000          0.163631E-03
      0.320000          0.158992E-03
      0.325000          0.154879E-03
      0.330000          0.151226E-03
      0.335000          0.147966E-03
      0.340000          0.145037E-03
      0.345000          0.142380E-03
      0.350000          0.139943E-03
      0.355000          0.137677E-03
      0.360000          0.135538E-03
      0.365000          0.133489E-03
      0.370000          0.131496E-03
      0.375000          0.129531E-03
      0.380000          0.127571E-03
      0.385000          0.125598E-03
      0.390000          0.123599E-03
      0.395000          0.121565E-03
      0.400000          0.119495E-03
      0.405000          0.117394E-03
      0.410000          0.115272E-03
      0.415000          0.113145E-03
      0.420000          0.111036E-03
      0.425000          0.108973E-03
      0.430000          0.106987E-03
      0.435000          0.105111E-03
      0.440000          0.103380E-03
      0.445000          0.101827E-03
      0.450000          0.100482E-03
      0.455000          0.993695E-04
      0.460000          0.985073E-04
      0.465000          0.979040E-04
      0.470000          0.975589E-04
      0.475000          0.974614E-04
      0.480000          0.975903E-04
      0.485000          0.979156E-04
      0.490000          0.983987E-04
      0.495000          0.989950E-04
      0.500000          0.996553E-04
