 I_abs(s)[cm^-1]/c[mg/ml]
       0.00000          0.141326E-01
      0.500000E-02      0.140793E-01
      0.100000E-01      0.139210E-01
      0.150000E-01      0.136618E-01
      0.200000E-01      0.133085E-01
      0.250000E-01      0.128702E-01
      0.300000E-01      0.123578E-01
      0.350000E-01      0.117837E-01
      0.400000E-01      0.111613E-01
      0.450000E-01      0.105045E-01
      0.500000E-01      0.982675E-02
      0.550000E-01      0.914129E-02
      0.600000E-01      0.846017E-02
      0.650000E-01      0.779409E-02
      0.700000E-01      0.715215E-02
      0.750000E-01      0.654164E-02
      0.800000E-01      0.596801E-02
      0.850000E-01      0.543486E-02
      0.900000E-01      0.494405E-02
      0.950000E-01      0.449590E-02
      0.100000          0.408941E-02
      0.105000          0.372248E-02
      0.110000          0.339226E-02
      0.115000          0.309537E-02
      0.120000          0.282819E-02
      0.125000          0.258706E-02
      0.130000          0.236850E-02
      0.135000          0.216935E-02
      0.140000          0.198684E-02
      0.145000          0.181867E-02
      0.150000          0.166301E-02
      0.155000          0.151847E-02
      0.160000          0.138406E-02
      0.165000          0.125910E-02
      0.170000          0.114316E-02
      0.175000          0.103599E-02
      0.180000          0.937398E-03
      0.185000          0.847228E-03
      0.190000          0.765290E-03
      0.195000          0.691327E-03
      0.200000          0.624996E-03
      0.205000          0.565862E-03
      0.210000          0.513408E-03
      0.215000          0.467047E-03
      0.220000          0.426153E-03
      0.225000          0.390083E-03
      0.230000          0.358205E-03
      0.235000          0.329919E-03
      0.240000          0.304684E-03
      0.245000          0.282023E-03
      0.250000          0.261537E-03
      0.255000          0.242906E-03
      0.260000          0.225883E-03
      0.265000          0.210286E-03
      0.270000          0.195993E-03
      0.275000          0.182921E-03
      0.280000          0.171021E-03
      0.285000          0.160258E-03
      0.290000          0.150607E-03
      0.295000          0.142040E-03
      0.300000          0.134522E-03
      0.305000          0.128007E-03
      0.310000          0.122434E-03
      0.315000          0.117730E-03
      0.320000          0.113814E-03
      0.325000          0.110596E-03
      0.330000          0.107983E-03
      0.335000          0.105882E-03
      0.340000          0.104206E-03
      0.345000          0.102872E-03
      0.350000          0.101809E-03
      0.355000          0.100957E-03
      0.360000          0.100266E-03
      0.365000          0.996982E-04
      0.370000          0.992259E-04
      0.375000          0.988313E-04
      0.380000          0.985038E-04
      0.385000          0.982389E-04
      0.390000          0.980360E-04
      0.395000          0.978966E-04
      0.400000          0.978229E-04
      0.405000          0.978165E-04
      0.410000          0.978773E-04
      0.415000          0.980026E-04
      0.420000          0.981871E-04
      0.425000          0.984225E-04
      0.430000          0.986978E-04
      0.435000          0.989996E-04
      0.440000          0.993127E-04
      0.445000          0.996208E-04
      0.450000          0.999072E-04
      0.455000          0.100155E-03
      0.460000          0.100350E-03
      0.465000          0.100477E-03
      0.470000          0.100524E-03
      0.475000          0.100484E-03
      0.480000          0.100349E-03
      0.485000          0.100116E-03
      0.490000          0.997859E-04
      0.495000          0.993606E-04
      0.500000          0.988455E-04
