 I_abs(s)[cm^-1]/c[mg/ml]
       0.00000          0.138133E-01
      0.500000E-02      0.137581E-01
      0.100000E-01      0.135941E-01
      0.150000E-01      0.133259E-01
      0.200000E-01      0.129611E-01
      0.250000E-01      0.125098E-01
      0.300000E-01      0.119843E-01
      0.350000E-01      0.113983E-01
      0.400000E-01      0.107663E-01
      0.450000E-01      0.101034E-01
      0.500000E-01      0.942441E-02
      0.550000E-01      0.874311E-02
      0.600000E-01      0.807217E-02
      0.650000E-01      0.742250E-02
      0.700000E-01      0.680311E-02
      0.750000E-01      0.622089E-02
      0.800000E-01      0.568059E-02
      0.850000E-01      0.518489E-02
      0.900000E-01      0.473458E-02
      0.950000E-01      0.432876E-02
      0.100000          0.396518E-02
      0.105000          0.364054E-02
      0.110000          0.335086E-02
      0.115000          0.309176E-02
      0.120000          0.285879E-02
      0.125000          0.264769E-02
      0.130000          0.245455E-02
      0.135000          0.227600E-02
      0.140000          0.210927E-02
      0.145000          0.195222E-02
      0.150000          0.180334E-02
      0.155000          0.166165E-02
      0.160000          0.152667E-02
      0.165000          0.139827E-02
      0.170000          0.127659E-02
      0.175000          0.116191E-02
      0.180000          0.105459E-02
      0.185000          0.954927E-03
      0.190000          0.863146E-03
      0.195000          0.779334E-03
      0.200000          0.703427E-03
      0.205000          0.635201E-03
      0.210000          0.574287E-03
      0.215000          0.520194E-03
      0.220000          0.472342E-03
      0.225000          0.430095E-03
      0.230000          0.392794E-03
      0.235000          0.359794E-03
      0.240000          0.330483E-03
      0.245000          0.304309E-03
      0.250000          0.280787E-03
      0.255000          0.259512E-03
      0.260000          0.240154E-03
      0.265000          0.222456E-03
      0.270000          0.206223E-03
      0.275000          0.191314E-03
      0.280000          0.177630E-03
      0.285000          0.165099E-03
      0.290000          0.153668E-03
      0.295000          0.143296E-03
      0.300000          0.133940E-03
      0.305000          0.125557E-03
      0.310000          0.118099E-03
      0.315000          0.111509E-03
      0.320000          0.105725E-03
      0.325000          0.100680E-03
      0.330000          0.963040E-04
      0.335000          0.925269E-04
      0.340000          0.892799E-04
      0.345000          0.864986E-04
      0.350000          0.841240E-04
      0.355000          0.821037E-04
      0.360000          0.803927E-04
      0.365000          0.789535E-04
      0.370000          0.777553E-04
      0.375000          0.767741E-04
      0.380000          0.759914E-04
      0.385000          0.753933E-04
      0.390000          0.749692E-04
      0.395000          0.747117E-04
      0.400000          0.746145E-04
      0.405000          0.746726E-04
      0.410000          0.748810E-04
      0.415000          0.752344E-04
      0.420000          0.757268E-04
      0.425000          0.763512E-04
      0.430000          0.770990E-04
      0.435000          0.779605E-04
      0.440000          0.789244E-04
      0.445000          0.799778E-04
      0.450000          0.811067E-04
      0.455000          0.822956E-04
      0.460000          0.835283E-04
      0.465000          0.847877E-04
      0.470000          0.860565E-04
      0.475000          0.873173E-04
      0.480000          0.885535E-04
      0.485000          0.897489E-04
      0.490000          0.908889E-04
      0.495000          0.919606E-04
      0.500000          0.929528E-04
