 I_abs(s)[cm^-1]/c[mg/ml]
       0.00000          0.138986E-01
      0.500000E-02      0.138437E-01
      0.100000E-01      0.136806E-01
      0.150000E-01      0.134138E-01
      0.200000E-01      0.130508E-01
      0.250000E-01      0.126016E-01
      0.300000E-01      0.120780E-01
      0.350000E-01      0.114936E-01
      0.400000E-01      0.108627E-01
      0.450000E-01      0.102002E-01
      0.500000E-01      0.952047E-02
      0.550000E-01      0.883727E-02
      0.600000E-01      0.816307E-02
      0.650000E-01      0.750874E-02
      0.700000E-01      0.688324E-02
      0.750000E-01      0.629352E-02
      0.800000E-01      0.574448E-02
      0.850000E-01      0.523899E-02
      0.900000E-01      0.477809E-02
      0.950000E-01      0.436119E-02
      0.100000          0.398637E-02
      0.105000          0.365070E-02
      0.110000          0.335052E-02
      0.115000          0.308179E-02
      0.120000          0.284036E-02
      0.125000          0.262217E-02
      0.130000          0.242350E-02
      0.135000          0.224105E-02
      0.140000          0.207207E-02
      0.145000          0.191432E-02
      0.150000          0.176615E-02
      0.155000          0.162638E-02
      0.160000          0.149424E-02
      0.165000          0.136933E-02
      0.170000          0.125147E-02
      0.175000          0.114063E-02
      0.180000          0.103688E-02
      0.185000          0.940282E-03
      0.190000          0.850863E-03
      0.195000          0.768574E-03
      0.200000          0.693279E-03
      0.205000          0.624746E-03
      0.210000          0.562655E-03
      0.215000          0.506618E-03
      0.220000          0.456195E-03
      0.225000          0.410917E-03
      0.230000          0.370308E-03
      0.235000          0.333899E-03
      0.240000          0.301251E-03
      0.245000          0.271955E-03
      0.250000          0.245647E-03
      0.255000          0.222003E-03
      0.260000          0.200744E-03
      0.265000          0.181629E-03
      0.270000          0.164453E-03
      0.275000          0.149040E-03
      0.280000          0.135242E-03
      0.285000          0.122929E-03
      0.290000          0.111989E-03
      0.295000          0.102323E-03
      0.300000          0.938447E-04
      0.305000          0.864746E-04
      0.310000          0.801414E-04
      0.315000          0.747789E-04
      0.320000          0.703246E-04
      0.325000          0.667189E-04
      0.330000          0.639030E-04
      0.335000          0.618182E-04
      0.340000          0.604048E-04
      0.345000          0.596019E-04
      0.350000          0.593467E-04
      0.355000          0.595753E-04
      0.360000          0.602235E-04
      0.365000          0.612276E-04
      0.370000          0.625261E-04
      0.375000          0.640614E-04
      0.380000          0.657808E-04
      0.385000          0.676384E-04
      0.390000          0.695960E-04
      0.395000          0.716231E-04
      0.400000          0.736977E-04
      0.405000          0.758051E-04
      0.410000          0.779373E-04
      0.415000          0.800916E-04
      0.420000          0.822688E-04
      0.425000          0.844714E-04
      0.430000          0.867021E-04
      0.435000          0.889617E-04
      0.440000          0.912482E-04
      0.445000          0.935557E-04
      0.450000          0.958739E-04
      0.455000          0.981880E-04
      0.460000          0.100479E-03
      0.465000          0.102725E-03
      0.470000          0.104900E-03
      0.475000          0.106979E-03
      0.480000          0.108935E-03
      0.485000          0.110744E-03
      0.490000          0.112385E-03
      0.495000          0.113837E-03
      0.500000          0.115086E-03
