 I_abs(s)[cm^-1]/c[mg/ml]
       0.00000          0.141248E-01
      0.500000E-02      0.140711E-01
      0.100000E-01      0.139115E-01
      0.150000E-01      0.136501E-01
      0.200000E-01      0.132935E-01
      0.250000E-01      0.128506E-01
      0.300000E-01      0.123323E-01
      0.350000E-01      0.117508E-01
      0.400000E-01      0.111195E-01
      0.450000E-01      0.104522E-01
      0.500000E-01      0.976277E-02
      0.550000E-01      0.906457E-02
      0.600000E-01      0.837007E-02
      0.650000E-01      0.769048E-02
      0.700000E-01      0.703546E-02
      0.750000E-01      0.641294E-02
      0.800000E-01      0.582895E-02
      0.850000E-01      0.528766E-02
      0.900000E-01      0.479143E-02
      0.950000E-01      0.434093E-02
      0.100000          0.393534E-02
      0.105000          0.357261E-02
      0.110000          0.324972E-02
      0.115000          0.296298E-02
      0.120000          0.270826E-02
      0.125000          0.248132E-02
      0.130000          0.227798E-02
      0.135000          0.209433E-02
      0.140000          0.192689E-02
      0.145000          0.177268E-02
      0.150000          0.162928E-02
      0.155000          0.149485E-02
      0.160000          0.136809E-02
      0.165000          0.124818E-02
      0.170000          0.113471E-02
      0.175000          0.102757E-02
      0.180000          0.926887E-03
      0.185000          0.832884E-03
      0.190000          0.745837E-03
      0.195000          0.665981E-03
      0.200000          0.593462E-03
      0.205000          0.528296E-03
      0.210000          0.470358E-03
      0.215000          0.419370E-03
      0.220000          0.374921E-03
      0.225000          0.336486E-03
      0.230000          0.303454E-03
      0.235000          0.275170E-03
      0.240000          0.250960E-03
      0.245000          0.230171E-03
      0.250000          0.212196E-03
      0.255000          0.196497E-03
      0.260000          0.182618E-03
      0.265000          0.170194E-03
      0.270000          0.158951E-03
      0.275000          0.148699E-03
      0.280000          0.139327E-03
      0.285000          0.130780E-03
      0.290000          0.123053E-03
      0.295000          0.116168E-03
      0.300000          0.110161E-03
      0.305000          0.105068E-03
      0.310000          0.100914E-03
      0.315000          0.977033E-04
      0.320000          0.954156E-04
      0.325000          0.940036E-04
      0.330000          0.933935E-04
      0.335000          0.934880E-04
      0.340000          0.941714E-04
      0.345000          0.953154E-04
      0.350000          0.967858E-04
      0.355000          0.984494E-04
      0.360000          0.100180E-03
      0.365000          0.101864E-03
      0.370000          0.103407E-03
      0.375000          0.104731E-03
      0.380000          0.105784E-03
      0.385000          0.106535E-03
      0.390000          0.106977E-03
      0.395000          0.107122E-03
      0.400000          0.106998E-03
      0.405000          0.106652E-03
      0.410000          0.106137E-03
      0.415000          0.105513E-03
      0.420000          0.104845E-03
      0.425000          0.104193E-03
      0.430000          0.103613E-03
      0.435000          0.103151E-03
      0.440000          0.102845E-03
      0.445000          0.102719E-03
      0.450000          0.102782E-03
      0.455000          0.103033E-03
      0.460000          0.103456E-03
      0.465000          0.104025E-03
      0.470000          0.104705E-03
      0.475000          0.105453E-03
      0.480000          0.106225E-03
      0.485000          0.106973E-03
      0.490000          0.107652E-03
      0.495000          0.108224E-03
      0.500000          0.108655E-03
