 I_abs(s)[cm^-1]/c[mg/ml]
       0.00000          0.139686E-01
      0.500000E-02      0.139171E-01
      0.100000E-01      0.137638E-01
      0.150000E-01      0.135126E-01
      0.200000E-01      0.131698E-01
      0.250000E-01      0.127439E-01
      0.300000E-01      0.122450E-01
      0.350000E-01      0.116849E-01
      0.400000E-01      0.110762E-01
      0.450000E-01      0.104319E-01
      0.500000E-01      0.976532E-02
      0.550000E-01      0.908901E-02
      0.600000E-01      0.841488E-02
      0.650000E-01      0.775360E-02
      0.700000E-01      0.711441E-02
      0.750000E-01      0.650490E-02
      0.800000E-01      0.593092E-02
      0.850000E-01      0.539658E-02
      0.900000E-01      0.490424E-02
      0.950000E-01      0.445475E-02
      0.100000          0.404751E-02
      0.105000          0.368081E-02
      0.110000          0.335201E-02
      0.115000          0.305781E-02
      0.120000          0.279454E-02
      0.125000          0.255838E-02
      0.130000          0.234556E-02
      0.135000          0.215256E-02
      0.140000          0.197622E-02
      0.145000          0.181383E-02
      0.150000          0.166318E-02
      0.155000          0.152260E-02
      0.160000          0.139086E-02
      0.165000          0.126717E-02
      0.170000          0.115112E-02
      0.175000          0.104253E-02
      0.180000          0.941434E-03
      0.185000          0.847939E-03
      0.190000          0.762185E-03
      0.195000          0.684264E-03
      0.200000          0.614177E-03
      0.205000          0.551800E-03
      0.210000          0.496871E-03
      0.215000          0.448991E-03
      0.220000          0.407637E-03
      0.225000          0.372181E-03
      0.230000          0.341927E-03
      0.235000          0.316140E-03
      0.240000          0.294083E-03
      0.245000          0.275045E-03
      0.250000          0.258374E-03
      0.255000          0.243491E-03
      0.260000          0.229912E-03
      0.265000          0.217252E-03
      0.270000          0.205227E-03
      0.275000          0.193648E-03
      0.280000          0.182412E-03
      0.285000          0.171488E-03
      0.290000          0.160902E-03
      0.295000          0.150721E-03
      0.300000          0.141033E-03
      0.305000          0.131937E-03
      0.310000          0.123527E-03
      0.315000          0.115885E-03
      0.320000          0.109068E-03
      0.325000          0.103111E-03
      0.330000          0.980196E-04
      0.335000          0.937735E-04
      0.340000          0.903291E-04
      0.345000          0.876231E-04
      0.350000          0.855780E-04
      0.355000          0.841075E-04
      0.360000          0.831216E-04
      0.365000          0.825321E-04
      0.370000          0.822563E-04
      0.375000          0.822206E-04
      0.380000          0.823622E-04
      0.385000          0.826311E-04
      0.390000          0.829893E-04
      0.395000          0.834111E-04
      0.400000          0.838808E-04
      0.405000          0.843916E-04
      0.410000          0.849431E-04
      0.415000          0.855389E-04
      0.420000          0.861849E-04
      0.425000          0.868870E-04
      0.430000          0.876493E-04
      0.435000          0.884735E-04
      0.440000          0.893577E-04
      0.445000          0.902965E-04
      0.450000          0.912807E-04
      0.455000          0.922981E-04
      0.460000          0.933343E-04
      0.465000          0.943737E-04
      0.470000          0.954001E-04
      0.475000          0.963983E-04
      0.480000          0.973547E-04
      0.485000          0.982580E-04
      0.490000          0.990996E-04
      0.495000          0.998740E-04
      0.500000          0.100579E-03
