 I_abs(s)[cm^-1]/c[mg/ml]
       0.00000          0.140232E-01
      0.500000E-02      0.139734E-01
      0.100000E-01      0.138254E-01
      0.150000E-01      0.135826E-01
      0.200000E-01      0.132504E-01
      0.250000E-01      0.128365E-01
      0.300000E-01      0.123499E-01
      0.350000E-01      0.118011E-01
      0.400000E-01      0.112016E-01
      0.450000E-01      0.105633E-01
      0.500000E-01      0.989819E-02
      0.550000E-01      0.921829E-02
      0.600000E-01      0.853484E-02
      0.650000E-01      0.785826E-02
      0.700000E-01      0.719781E-02
      0.750000E-01      0.656146E-02
      0.800000E-01      0.595572E-02
      0.850000E-01      0.538561E-02
      0.900000E-01      0.485467E-02
      0.950000E-01      0.436505E-02
      0.100000          0.391757E-02
      0.105000          0.351191E-02
      0.110000          0.314681E-02
      0.115000          0.282022E-02
      0.120000          0.252951E-02
      0.125000          0.227167E-02
      0.130000          0.204350E-02
      0.135000          0.184174E-02
      0.140000          0.166320E-02
      0.145000          0.150489E-02
      0.150000          0.136407E-02
      0.155000          0.123833E-02
      0.160000          0.112555E-02
      0.165000          0.102396E-02
      0.170000          0.932111E-03
      0.175000          0.848829E-03
      0.180000          0.773185E-03
      0.185000          0.704459E-03
      0.190000          0.642088E-03
      0.195000          0.585631E-03
      0.200000          0.534728E-03
      0.205000          0.489068E-03
      0.210000          0.448367E-03
      0.215000          0.412343E-03
      0.220000          0.380710E-03
      0.225000          0.353165E-03
      0.230000          0.329390E-03
      0.235000          0.309050E-03
      0.240000          0.291799E-03
      0.245000          0.277285E-03
      0.250000          0.265157E-03
      0.255000          0.255073E-03
      0.260000          0.246702E-03
      0.265000          0.239735E-03
      0.270000          0.233885E-03
      0.275000          0.228893E-03
      0.280000          0.224528E-03
      0.285000          0.220589E-03
      0.290000          0.216905E-03
      0.295000          0.213333E-03
      0.300000          0.209758E-03
      0.305000          0.206088E-03
      0.310000          0.202258E-03
      0.315000          0.198221E-03
      0.320000          0.193947E-03
      0.325000          0.189427E-03
      0.330000          0.184661E-03
      0.335000          0.179667E-03
      0.340000          0.174469E-03
      0.345000          0.169105E-03
      0.350000          0.163617E-03
      0.355000          0.158058E-03
      0.360000          0.152482E-03
      0.365000          0.146951E-03
      0.370000          0.141528E-03
      0.375000          0.136275E-03
      0.380000          0.131255E-03
      0.385000          0.126527E-03
      0.390000          0.122148E-03
      0.395000          0.118164E-03
      0.400000          0.114615E-03
      0.405000          0.111532E-03
      0.410000          0.108934E-03
      0.415000          0.106828E-03
      0.420000          0.105209E-03
      0.425000          0.104061E-03
      0.430000          0.103354E-03
      0.435000          0.103050E-03
      0.440000          0.103102E-03
      0.445000          0.103456E-03
      0.450000          0.104051E-03
      0.455000          0.104827E-03
      0.460000          0.105719E-03
      0.465000          0.106669E-03
      0.470000          0.107618E-03
      0.475000          0.108516E-03
      0.480000          0.109319E-03
      0.485000          0.109988E-03
      0.490000          0.110497E-03
      0.495000          0.110824E-03
      0.500000          0.110960E-03
