 I_abs(s)[cm^-1]/c[mg/ml]
       0.00000          0.140388E-01
      0.500000E-02      0.139884E-01
      0.100000E-01      0.138385E-01
      0.150000E-01      0.135926E-01
      0.200000E-01      0.132565E-01
      0.250000E-01      0.128379E-01
      0.300000E-01      0.123462E-01
      0.350000E-01      0.117924E-01
      0.400000E-01      0.111882E-01
      0.450000E-01      0.105461E-01
      0.500000E-01      0.987871E-02
      0.550000E-01      0.919827E-02
      0.600000E-01      0.851656E-02
      0.650000E-01      0.784439E-02
      0.700000E-01      0.719134E-02
      0.750000E-01      0.656555E-02
      0.800000E-01      0.597362E-02
      0.850000E-01      0.542048E-02
      0.900000E-01      0.490945E-02
      0.950000E-01      0.444226E-02
      0.100000          0.401920E-02
      0.105000          0.363927E-02
      0.110000          0.330041E-02
      0.115000          0.299970E-02
      0.120000          0.273362E-02
      0.125000          0.249826E-02
      0.130000          0.228958E-02
      0.135000          0.210358E-02
      0.140000          0.193645E-02
      0.145000          0.178478E-02
      0.150000          0.164556E-02
      0.155000          0.151633E-02
      0.160000          0.139513E-02
      0.165000          0.128054E-02
      0.170000          0.117161E-02
      0.175000          0.106783E-02
      0.180000          0.969018E-03
      0.185000          0.875281E-03
      0.190000          0.786888E-03
      0.195000          0.704205E-03
      0.200000          0.627619E-03
      0.205000          0.557467E-03
      0.210000          0.493994E-03
      0.215000          0.437308E-03
      0.220000          0.387369E-03
      0.225000          0.343977E-03
      0.230000          0.306786E-03
      0.235000          0.275317E-03
      0.240000          0.248989E-03
      0.245000          0.227149E-03
      0.250000          0.209107E-03
      0.255000          0.194170E-03
      0.260000          0.181675E-03
      0.265000          0.171011E-03
      0.270000          0.161647E-03
      0.275000          0.153142E-03
      0.280000          0.145155E-03
      0.285000          0.137445E-03
      0.290000          0.129866E-03
      0.295000          0.122362E-03
      0.300000          0.114946E-03
      0.305000          0.107690E-03
      0.310000          0.100703E-03
      0.315000          0.941169E-04
      0.320000          0.880696E-04
      0.325000          0.826889E-04
      0.330000          0.780818E-04
      0.335000          0.743258E-04
      0.340000          0.714633E-04
      0.345000          0.694994E-04
      0.350000          0.684030E-04
      0.355000          0.681099E-04
      0.360000          0.685286E-04
      0.365000          0.695474E-04
      0.370000          0.710422E-04
      0.375000          0.728846E-04
      0.380000          0.749500E-04
      0.385000          0.771242E-04
      0.390000          0.793094E-04
      0.395000          0.814283E-04
      0.400000          0.834263E-04
      0.405000          0.852727E-04
      0.410000          0.869598E-04
      0.415000          0.884997E-04
      0.420000          0.899220E-04
      0.425000          0.912678E-04
      0.430000          0.925860E-04
      0.435000          0.939269E-04
      0.440000          0.953381E-04
      0.445000          0.968592E-04
      0.450000          0.985185E-04
      0.455000          0.100330E-03
      0.460000          0.102292E-03
      0.465000          0.104387E-03
      0.470000          0.106581E-03
      0.475000          0.108828E-03
      0.480000          0.111070E-03
      0.485000          0.113243E-03
      0.490000          0.115278E-03
      0.495000          0.117108E-03
      0.500000          0.118671E-03
