 I_abs(s)[cm^-1]/c[mg/ml]
       0.00000          0.137283E-01
      0.500000E-02      0.136722E-01
      0.100000E-01      0.135057E-01
      0.150000E-01      0.132336E-01
      0.200000E-01      0.128637E-01
      0.250000E-01      0.124066E-01
      0.300000E-01      0.118749E-01
      0.350000E-01      0.112827E-01
      0.400000E-01      0.106453E-01
      0.450000E-01      0.997790E-02
      0.500000E-01      0.929564E-02
      0.550000E-01      0.861264E-02
      0.600000E-01      0.794164E-02
      0.650000E-01      0.729360E-02
      0.700000E-01      0.667741E-02
      0.750000E-01      0.609979E-02
      0.800000E-01      0.556524E-02
      0.850000E-01      0.507614E-02
      0.900000E-01      0.463297E-02
      0.950000E-01      0.423451E-02
      0.100000          0.387825E-02
      0.105000          0.356066E-02
      0.110000          0.327757E-02
      0.115000          0.302453E-02
      0.120000          0.279705E-02
      0.125000          0.259089E-02
      0.130000          0.240225E-02
      0.135000          0.222787E-02
      0.140000          0.206510E-02
      0.145000          0.191195E-02
      0.150000          0.176701E-02
      0.155000          0.162940E-02
      0.160000          0.149869E-02
      0.165000          0.137476E-02
      0.170000          0.125772E-02
      0.175000          0.114778E-02
      0.180000          0.104519E-02
      0.185000          0.950145E-03
      0.190000          0.862739E-03
      0.195000          0.782940E-03
      0.200000          0.710575E-03
      0.205000          0.645336E-03
      0.210000          0.586798E-03
      0.215000          0.534444E-03
      0.220000          0.487699E-03
      0.225000          0.445962E-03
      0.230000          0.408631E-03
      0.235000          0.375137E-03
      0.240000          0.344955E-03
      0.245000          0.317623E-03
      0.250000          0.292748E-03
      0.255000          0.270005E-03
      0.260000          0.249134E-03
      0.265000          0.229933E-03
      0.270000          0.212251E-03
      0.275000          0.195973E-03
      0.280000          0.181013E-03
      0.285000          0.167305E-03
      0.290000          0.154792E-03
      0.295000          0.143423E-03
      0.300000          0.133147E-03
      0.305000          0.123909E-03
      0.310000          0.115653E-03
      0.315000          0.108318E-03
      0.320000          0.101840E-03
      0.325000          0.961558E-04
      0.330000          0.912004E-04
      0.335000          0.869121E-04
      0.340000          0.832322E-04
      0.345000          0.801065E-04
      0.350000          0.774860E-04
      0.355000          0.753267E-04
      0.360000          0.735901E-04
      0.365000          0.722422E-04
      0.370000          0.712528E-04
      0.375000          0.705952E-04
      0.380000          0.702445E-04
      0.385000          0.701773E-04
      0.390000          0.703705E-04
      0.395000          0.708009E-04
      0.400000          0.714446E-04
      0.405000          0.722769E-04
      0.410000          0.732723E-04
      0.415000          0.744045E-04
      0.420000          0.756472E-04
      0.425000          0.769746E-04
      0.430000          0.783619E-04
      0.435000          0.797862E-04
      0.440000          0.812272E-04
      0.445000          0.826676E-04
      0.450000          0.840936E-04
      0.455000          0.854954E-04
      0.460000          0.868668E-04
      0.465000          0.882049E-04
      0.470000          0.895103E-04
      0.475000          0.907854E-04
      0.480000          0.920345E-04
      0.485000          0.932623E-04
      0.490000          0.944729E-04
      0.495000          0.956692E-04
      0.500000          0.968515E-04
