 I_abs(s)[cm^-1]/c[mg/ml]
       0.00000          0.138753E-01
      0.500000E-02      0.138198E-01
      0.100000E-01      0.136549E-01
      0.150000E-01      0.133851E-01
      0.200000E-01      0.130176E-01
      0.250000E-01      0.125625E-01
      0.300000E-01      0.120315E-01
      0.350000E-01      0.114381E-01
      0.400000E-01      0.107966E-01
      0.450000E-01      0.101219E-01
      0.500000E-01      0.942870E-02
      0.550000E-01      0.873083E-02
      0.600000E-01      0.804115E-02
      0.650000E-01      0.737091E-02
      0.700000E-01      0.672956E-02
      0.750000E-01      0.612456E-02
      0.800000E-01      0.556130E-02
      0.850000E-01      0.504314E-02
      0.900000E-01      0.457158E-02
      0.950000E-01      0.414639E-02
      0.100000          0.376593E-02
      0.105000          0.342742E-02
      0.110000          0.312726E-02
      0.115000          0.286130E-02
      0.120000          0.262522E-02
      0.125000          0.241468E-02
      0.130000          0.222560E-02
      0.135000          0.205427E-02
      0.140000          0.189751E-02
      0.145000          0.175268E-02
      0.150000          0.161770E-02
      0.155000          0.149104E-02
      0.160000          0.137166E-02
      0.165000          0.125891E-02
      0.170000          0.115247E-02
      0.175000          0.105222E-02
      0.180000          0.958200E-03
      0.185000          0.870507E-03
      0.190000          0.789232E-03
      0.195000          0.714420E-03
      0.200000          0.646036E-03
      0.205000          0.583952E-03
      0.210000          0.527947E-03
      0.215000          0.477708E-03
      0.220000          0.432856E-03
      0.225000          0.392957E-03
      0.230000          0.357550E-03
      0.235000          0.326163E-03
      0.240000          0.298338E-03
      0.245000          0.273637E-03
      0.250000          0.251661E-03
      0.255000          0.232051E-03
      0.260000          0.214497E-03
      0.265000          0.198728E-03
      0.270000          0.184519E-03
      0.275000          0.171684E-03
      0.280000          0.160068E-03
      0.285000          0.149544E-03
      0.290000          0.140011E-03
      0.295000          0.131384E-03
      0.300000          0.123595E-03
      0.305000          0.116587E-03
      0.310000          0.110312E-03
      0.315000          0.104732E-03
      0.320000          0.998106E-04
      0.325000          0.955176E-04
      0.330000          0.918247E-04
      0.335000          0.887046E-04
      0.340000          0.861299E-04
      0.345000          0.840724E-04
      0.350000          0.825021E-04
      0.355000          0.813867E-04
      0.360000          0.806915E-04
      0.365000          0.803799E-04
      0.370000          0.804130E-04
      0.375000          0.807509E-04
      0.380000          0.813531E-04
      0.385000          0.821793E-04
      0.390000          0.831902E-04
      0.395000          0.843481E-04
      0.400000          0.856175E-04
      0.405000          0.869654E-04
      0.410000          0.883615E-04
      0.415000          0.897782E-04
      0.420000          0.911910E-04
      0.425000          0.925779E-04
      0.430000          0.939195E-04
      0.435000          0.951992E-04
      0.440000          0.964032E-04
      0.445000          0.975201E-04
      0.450000          0.985418E-04
      0.455000          0.994627E-04
      0.460000          0.100281E-03
      0.465000          0.100996E-03
      0.470000          0.101613E-03
      0.475000          0.102136E-03
      0.480000          0.102574E-03
      0.485000          0.102935E-03
      0.490000          0.103228E-03
      0.495000          0.103463E-03
      0.500000          0.103646E-03
