 I_abs(s)[cm^-1]/c[mg/ml]
       0.00000          0.140778E-01
      0.500000E-02      0.140308E-01
      0.100000E-01      0.138906E-01
      0.150000E-01      0.136604E-01
      0.200000E-01      0.133453E-01
      0.250000E-01      0.129518E-01
      0.300000E-01      0.124883E-01
      0.350000E-01      0.119643E-01
      0.400000E-01      0.113901E-01
      0.450000E-01      0.107767E-01
      0.500000E-01      0.101351E-01
      0.550000E-01      0.947656E-02
      0.600000E-01      0.881148E-02
      0.650000E-01      0.814978E-02
      0.700000E-01      0.750037E-02
      0.750000E-01      0.687104E-02
      0.800000E-01      0.626829E-02
      0.850000E-01      0.569733E-02
      0.900000E-01      0.516200E-02
      0.950000E-01      0.466485E-02
      0.100000          0.420721E-02
      0.105000          0.378931E-02
      0.110000          0.341041E-02
      0.115000          0.306901E-02
      0.120000          0.276298E-02
      0.125000          0.248972E-02
      0.130000          0.224641E-02
      0.135000          0.203004E-02
      0.140000          0.183766E-02
      0.145000          0.166638E-02
      0.150000          0.151352E-02
      0.155000          0.137667E-02
      0.160000          0.125366E-02
      0.165000          0.114266E-02
      0.170000          0.104211E-02
      0.175000          0.950708E-03
      0.180000          0.867428E-03
      0.185000          0.791432E-03
      0.190000          0.722054E-03
      0.195000          0.658760E-03
      0.200000          0.601112E-03
      0.205000          0.548733E-03
      0.210000          0.501285E-03
      0.215000          0.458448E-03
      0.220000          0.419906E-03
      0.225000          0.385341E-03
      0.230000          0.354430E-03
      0.235000          0.326847E-03
      0.240000          0.302265E-03
      0.245000          0.280365E-03
      0.250000          0.260839E-03
      0.255000          0.243401E-03
      0.260000          0.227790E-03
      0.265000          0.213772E-03
      0.270000          0.201149E-03
      0.275000          0.189751E-03
      0.280000          0.179443E-03
      0.285000          0.170117E-03
      0.290000          0.161692E-03
      0.295000          0.154105E-03
      0.300000          0.147313E-03
      0.305000          0.141281E-03
      0.310000          0.135981E-03
      0.315000          0.131388E-03
      0.320000          0.127474E-03
      0.325000          0.124207E-03
      0.330000          0.121551E-03
      0.335000          0.119461E-03
      0.340000          0.117885E-03
      0.345000          0.116767E-03
      0.350000          0.116042E-03
      0.355000          0.115643E-03
      0.360000          0.115502E-03
      0.365000          0.115549E-03
      0.370000          0.115717E-03
      0.375000          0.115942E-03
      0.380000          0.116164E-03
      0.385000          0.116334E-03
      0.390000          0.116407E-03
      0.395000          0.116348E-03
      0.400000          0.116131E-03
      0.405000          0.115741E-03
      0.410000          0.115172E-03
      0.415000          0.114423E-03
      0.420000          0.113507E-03
      0.425000          0.112440E-03
      0.430000          0.111246E-03
      0.435000          0.109951E-03
      0.440000          0.108589E-03
      0.445000          0.107192E-03
      0.450000          0.105793E-03
      0.455000          0.104424E-03
      0.460000          0.103117E-03
      0.465000          0.101898E-03
      0.470000          0.100788E-03
      0.475000          0.998049E-04
      0.480000          0.989600E-04
      0.485000          0.982587E-04
      0.490000          0.977003E-04
      0.495000          0.972788E-04
      0.500000          0.969831E-04
