 I_abs(s)[cm^-1]/c[mg/ml]
       0.00000          0.139530E-01
      0.500000E-02      0.139051E-01
      0.100000E-01      0.137625E-01
      0.150000E-01      0.135284E-01
      0.200000E-01      0.132081E-01
      0.250000E-01      0.128085E-01
      0.300000E-01      0.123384E-01
      0.350000E-01      0.118076E-01
      0.400000E-01      0.112269E-01
      0.450000E-01      0.106077E-01
      0.500000E-01      0.996152E-02
      0.550000E-01      0.929974E-02
      0.600000E-01      0.863324E-02
      0.650000E-01      0.797209E-02
      0.700000E-01      0.732529E-02
      0.750000E-01      0.670066E-02
      0.800000E-01      0.610461E-02
      0.850000E-01      0.554218E-02
      0.900000E-01      0.501695E-02
      0.950000E-01      0.453115E-02
      0.100000          0.408572E-02
      0.105000          0.368049E-02
      0.110000          0.331432E-02
      0.115000          0.298530E-02
      0.120000          0.269092E-02
      0.125000          0.242831E-02
      0.130000          0.219436E-02
      0.135000          0.198592E-02
      0.140000          0.179993E-02
      0.145000          0.163351E-02
      0.150000          0.148405E-02
      0.155000          0.134927E-02
      0.160000          0.122722E-02
      0.165000          0.111629E-02
      0.170000          0.101519E-02
      0.175000          0.922906E-03
      0.180000          0.838674E-03
      0.185000          0.761901E-03
      0.190000          0.692135E-03
      0.195000          0.629007E-03
      0.200000          0.572192E-03
      0.205000          0.521375E-03
      0.210000          0.476226E-03
      0.215000          0.436384E-03
      0.220000          0.401452E-03
      0.225000          0.370995E-03
      0.230000          0.344551E-03
      0.235000          0.321641E-03
      0.240000          0.301785E-03
      0.245000          0.284514E-03
      0.250000          0.269386E-03
      0.255000          0.256003E-03
      0.260000          0.244011E-03
      0.265000          0.233116E-03
      0.270000          0.223079E-03
      0.275000          0.213718E-03
      0.280000          0.204903E-03
      0.285000          0.196552E-03
      0.290000          0.188618E-03
      0.295000          0.181083E-03
      0.300000          0.173950E-03
      0.305000          0.167230E-03
      0.310000          0.160939E-03
      0.315000          0.155091E-03
      0.320000          0.149690E-03
      0.325000          0.144734E-03
      0.330000          0.140208E-03
      0.335000          0.136087E-03
      0.340000          0.132341E-03
      0.345000          0.128930E-03
      0.350000          0.125813E-03
      0.355000          0.122951E-03
      0.360000          0.120304E-03
      0.365000          0.117840E-03
      0.370000          0.115531E-03
      0.375000          0.113358E-03
      0.380000          0.111309E-03
      0.385000          0.109381E-03
      0.390000          0.107573E-03
      0.395000          0.105893E-03
      0.400000          0.104348E-03
      0.405000          0.102950E-03
      0.410000          0.101709E-03
      0.415000          0.100633E-03
      0.420000          0.997266E-04
      0.425000          0.989930E-04
      0.430000          0.984302E-04
      0.435000          0.980324E-04
      0.440000          0.977906E-04
      0.445000          0.976928E-04
      0.450000          0.977245E-04
      0.455000          0.978701E-04
      0.460000          0.981129E-04
      0.465000          0.984364E-04
      0.470000          0.988244E-04
      0.475000          0.992614E-04
      0.480000          0.997329E-04
      0.485000          0.100225E-03
      0.490000          0.100725E-03
      0.495000          0.101219E-03
      0.500000          0.101696E-03
