 I_abs(s)[cm^-1]/c[mg/ml]
       0.00000          0.137283E-01
      0.500000E-02      0.136718E-01
      0.100000E-01      0.135038E-01
      0.150000E-01      0.132294E-01
      0.200000E-01      0.128567E-01
      0.250000E-01      0.123962E-01
      0.300000E-01      0.118610E-01
      0.350000E-01      0.112654E-01
      0.400000E-01      0.106249E-01
      0.450000E-01      0.995504E-02
      0.500000E-01      0.927119E-02
      0.550000E-01      0.858763E-02
      0.600000E-01      0.791724E-02
      0.650000E-01      0.727102E-02
      0.700000E-01      0.665785E-02
      0.750000E-01      0.608436E-02
      0.800000E-01      0.555489E-02
      0.850000E-01      0.507163E-02
      0.900000E-01      0.463477E-02
      0.950000E-01      0.424284E-02
      0.100000          0.389303E-02
      0.105000          0.358152E-02
      0.110000          0.330390E-02
      0.115000          0.305550E-02
      0.120000          0.283167E-02
      0.125000          0.262808E-02
      0.130000          0.244089E-02
      0.135000          0.226687E-02
      0.140000          0.210349E-02
      0.145000          0.194888E-02
      0.150000          0.180183E-02
      0.155000          0.166167E-02
      0.160000          0.152819E-02
      0.165000          0.140150E-02
      0.170000          0.128189E-02
      0.175000          0.116974E-02
      0.180000          0.106543E-02
      0.185000          0.969216E-03
      0.190000          0.881233E-03
      0.195000          0.801424E-03
      0.200000          0.729553E-03
      0.205000          0.665216E-03
      0.210000          0.607864E-03
      0.215000          0.556845E-03
      0.220000          0.511445E-03
      0.225000          0.470930E-03
      0.230000          0.434584E-03
      0.235000          0.401742E-03
      0.240000          0.371817E-03
      0.245000          0.344310E-03
      0.250000          0.318822E-03
      0.255000          0.295050E-03
      0.260000          0.272779E-03
      0.265000          0.251869E-03
      0.270000          0.232242E-03
      0.275000          0.213864E-03
      0.280000          0.196726E-03
      0.285000          0.180836E-03
      0.290000          0.166201E-03
      0.295000          0.152821E-03
      0.300000          0.140681E-03
      0.305000          0.129752E-03
      0.310000          0.119985E-03
      0.315000          0.111318E-03
      0.320000          0.103675E-03
      0.325000          0.969732E-04
      0.330000          0.911240E-04
      0.335000          0.860394E-04
      0.340000          0.816345E-04
      0.345000          0.778304E-04
      0.350000          0.745562E-04
      0.355000          0.717501E-04
      0.360000          0.693598E-04
      0.365000          0.673422E-04
      0.370000          0.656626E-04
      0.375000          0.642937E-04
      0.380000          0.632142E-04
      0.385000          0.624077E-04
      0.390000          0.618607E-04
      0.395000          0.615623E-04
      0.400000          0.615024E-04
      0.405000          0.616711E-04
      0.410000          0.620580E-04
      0.415000          0.626517E-04
      0.420000          0.634394E-04
      0.425000          0.644065E-04
      0.430000          0.655370E-04
      0.435000          0.668132E-04
      0.440000          0.682161E-04
      0.445000          0.697256E-04
      0.450000          0.713211E-04
      0.455000          0.729817E-04
      0.460000          0.746868E-04
      0.465000          0.764170E-04
      0.470000          0.781540E-04
      0.475000          0.798815E-04
      0.480000          0.815854E-04
      0.485000          0.832539E-04
      0.490000          0.848781E-04
      0.495000          0.864511E-04
      0.500000          0.879685E-04
