 I_abs(s)[cm^-1]/c[mg/ml]
       0.00000          0.141326E-01
      0.500000E-02      0.140839E-01
      0.100000E-01      0.139390E-01
      0.150000E-01      0.137010E-01
      0.200000E-01      0.133750E-01
      0.250000E-01      0.129683E-01
      0.300000E-01      0.124893E-01
      0.350000E-01      0.119479E-01
      0.400000E-01      0.113550E-01
      0.450000E-01      0.107222E-01
      0.500000E-01      0.100611E-01
      0.550000E-01      0.938341E-02
      0.600000E-01      0.870034E-02
      0.650000E-01      0.802241E-02
      0.700000E-01      0.735912E-02
      0.750000E-01      0.671879E-02
      0.800000E-01      0.610839E-02
      0.850000E-01      0.553346E-02
      0.900000E-01      0.499808E-02
      0.950000E-01      0.450487E-02
      0.100000          0.405508E-02
      0.105000          0.364872E-02
      0.110000          0.328468E-02
      0.115000          0.296095E-02
      0.120000          0.267477E-02
      0.125000          0.242286E-02
      0.130000          0.220162E-02
      0.135000          0.200726E-02
      0.140000          0.183606E-02
      0.145000          0.168441E-02
      0.150000          0.154900E-02
      0.155000          0.142687E-02
      0.160000          0.131548E-02
      0.165000          0.121272E-02
      0.170000          0.111693E-02
      0.175000          0.102687E-02
      0.180000          0.941685E-03
      0.185000          0.860853E-03
      0.190000          0.784128E-03
      0.195000          0.711470E-03
      0.200000          0.642986E-03
      0.205000          0.578864E-03
      0.210000          0.519326E-03
      0.215000          0.464575E-03
      0.220000          0.414763E-03
      0.225000          0.369964E-03
      0.230000          0.330161E-03
      0.235000          0.295234E-03
      0.240000          0.264968E-03
      0.245000          0.239063E-03
      0.250000          0.217143E-03
      0.255000          0.198780E-03
      0.260000          0.183510E-03
      0.265000          0.170859E-03
      0.270000          0.160355E-03
      0.275000          0.151554E-03
      0.280000          0.144049E-03
      0.285000          0.137482E-03
      0.290000          0.131553E-03
      0.295000          0.126026E-03
      0.300000          0.120725E-03
      0.305000          0.115535E-03
      0.310000          0.110396E-03
      0.315000          0.105297E-03
      0.320000          0.100264E-03
      0.325000          0.953552E-04
      0.330000          0.906490E-04
      0.335000          0.862351E-04
      0.340000          0.822061E-04
      0.345000          0.786498E-04
      0.350000          0.756428E-04
      0.355000          0.732456E-04
      0.360000          0.714992E-04
      0.365000          0.704231E-04
      0.370000          0.700146E-04
      0.375000          0.702498E-04
      0.380000          0.710847E-04
      0.385000          0.724588E-04
      0.390000          0.742974E-04
      0.395000          0.765160E-04
      0.400000          0.790239E-04
      0.405000          0.817283E-04
      0.410000          0.845380E-04
      0.415000          0.873669E-04
      0.420000          0.901368E-04
      0.425000          0.927799E-04
      0.430000          0.952402E-04
      0.435000          0.974753E-04
      0.440000          0.994559E-04
      0.445000          0.101166E-03
      0.450000          0.102603E-03
      0.455000          0.103775E-03
      0.460000          0.104700E-03
      0.465000          0.105403E-03
      0.470000          0.105915E-03
      0.475000          0.106272E-03
      0.480000          0.106508E-03
      0.485000          0.106660E-03
      0.490000          0.106760E-03
      0.495000          0.106837E-03
      0.500000          0.106915E-03
