 I_abs(s)[cm^-1]/c[mg/ml]
       0.00000          0.138133E-01
      0.500000E-02      0.137579E-01
      0.100000E-01      0.135934E-01
      0.150000E-01      0.133242E-01
      0.200000E-01      0.129582E-01
      0.250000E-01      0.125052E-01
      0.300000E-01      0.119776E-01
      0.350000E-01      0.113890E-01
      0.400000E-01      0.107541E-01
      0.450000E-01      0.100878E-01
      0.500000E-01      0.940505E-02
      0.550000E-01      0.871968E-02
      0.600000E-01      0.804441E-02
      0.650000E-01      0.739026E-02
      0.700000E-01      0.676633E-02
      0.750000E-01      0.617963E-02
      0.800000E-01      0.563502E-02
      0.850000E-01      0.513530E-02
      0.900000E-01      0.468136E-02
      0.950000E-01      0.427241E-02
      0.100000          0.390627E-02
      0.105000          0.357972E-02
      0.110000          0.328880E-02
      0.115000          0.302917E-02
      0.120000          0.279638E-02
      0.125000          0.258615E-02
      0.130000          0.239456E-02
      0.135000          0.221817E-02
      0.140000          0.205418E-02
      0.145000          0.190038E-02
      0.150000          0.175518E-02
      0.155000          0.161755E-02
      0.160000          0.148692E-02
      0.165000          0.136310E-02
      0.170000          0.124616E-02
      0.175000          0.113630E-02
      0.180000          0.103380E-02
      0.185000          0.938887E-03
      0.190000          0.851729E-03
      0.195000          0.772347E-03
      0.200000          0.700615E-03
      0.205000          0.636259E-03
      0.210000          0.578866E-03
      0.215000          0.527910E-03
      0.220000          0.482787E-03
      0.225000          0.442844E-03
      0.230000          0.407421E-03
      0.235000          0.375875E-03
      0.240000          0.347612E-03
      0.245000          0.322102E-03
      0.250000          0.298891E-03
      0.255000          0.277607E-03
      0.260000          0.257957E-03
      0.265000          0.239722E-03
      0.270000          0.222746E-03
      0.275000          0.206921E-03
      0.280000          0.192182E-03
      0.285000          0.178485E-03
      0.290000          0.165805E-03
      0.295000          0.154119E-03
      0.300000          0.143407E-03
      0.305000          0.133640E-03
      0.310000          0.124785E-03
      0.315000          0.116798E-03
      0.320000          0.109631E-03
      0.325000          0.103227E-03
      0.330000          0.975300E-04
      0.335000          0.924808E-04
      0.340000          0.880232E-04
      0.345000          0.841043E-04
      0.350000          0.806764E-04
      0.355000          0.776971E-04
      0.360000          0.751304E-04
      0.365000          0.729458E-04
      0.370000          0.711180E-04
      0.375000          0.696260E-04
      0.380000          0.684525E-04
      0.385000          0.675825E-04
      0.390000          0.670026E-04
      0.395000          0.667003E-04
      0.400000          0.666630E-04
      0.405000          0.668778E-04
      0.410000          0.673307E-04
      0.415000          0.680068E-04
      0.420000          0.688894E-04
      0.425000          0.699608E-04
      0.430000          0.712016E-04
      0.435000          0.725911E-04
      0.440000          0.741073E-04
      0.445000          0.757274E-04
      0.450000          0.774278E-04
      0.455000          0.791849E-04
      0.460000          0.809750E-04
      0.465000          0.827754E-04
      0.470000          0.845643E-04
      0.475000          0.863218E-04
      0.480000          0.880299E-04
      0.485000          0.896735E-04
      0.490000          0.912398E-04
      0.495000          0.927191E-04
      0.500000          0.941044E-04
