 I_abs(s)[cm^-1]/c[mg/ml]
       0.00000          0.139142E-01
      0.500000E-02      0.138588E-01
      0.100000E-01      0.136940E-01
      0.150000E-01      0.134244E-01
      0.200000E-01      0.130570E-01
      0.250000E-01      0.126014E-01
      0.300000E-01      0.120691E-01
      0.350000E-01      0.114735E-01
      0.400000E-01      0.108285E-01
      0.450000E-01      0.101490E-01
      0.500000E-01      0.944957E-02
      0.550000E-01      0.874430E-02
      0.600000E-01      0.804621E-02
      0.650000E-01      0.736691E-02
      0.700000E-01      0.671627E-02
      0.750000E-01      0.610221E-02
      0.800000E-01      0.553062E-02
      0.850000E-01      0.500532E-02
      0.900000E-01      0.452818E-02
      0.950000E-01      0.409926E-02
      0.100000          0.371707E-02
      0.105000          0.337883E-02
      0.110000          0.308079E-02
      0.115000          0.281855E-02
      0.120000          0.258736E-02
      0.125000          0.238244E-02
      0.130000          0.219918E-02
      0.135000          0.203339E-02
      0.140000          0.188139E-02
      0.145000          0.174018E-02
      0.150000          0.160742E-02
      0.155000          0.148143E-02
      0.160000          0.136117E-02
      0.165000          0.124614E-02
      0.170000          0.113625E-02
      0.175000          0.103176E-02
      0.180000          0.933118E-03
      0.185000          0.840851E-03
      0.190000          0.755483E-03
      0.195000          0.677440E-03
      0.200000          0.606993E-03
      0.205000          0.544223E-03
      0.210000          0.489007E-03
      0.215000          0.441019E-03
      0.220000          0.399758E-03
      0.225000          0.364578E-03
      0.230000          0.334736E-03
      0.235000          0.309434E-03
      0.240000          0.287870E-03
      0.245000          0.269276E-03
      0.250000          0.252956E-03
      0.255000          0.238309E-03
      0.260000          0.224851E-03
      0.265000          0.212217E-03
      0.270000          0.200160E-03
      0.275000          0.188543E-03
      0.280000          0.177321E-03
      0.285000          0.166523E-03
      0.290000          0.156230E-03
      0.295000          0.146552E-03
      0.300000          0.137610E-03
      0.305000          0.129517E-03
      0.310000          0.122366E-03
      0.315000          0.116221E-03
      0.320000          0.111108E-03
      0.325000          0.107021E-03
      0.330000          0.103916E-03
      0.335000          0.101722E-03
      0.340000          0.100346E-03
      0.345000          0.996785E-04
      0.350000          0.996038E-04
      0.355000          0.100005E-03
      0.360000          0.100773E-03
      0.365000          0.101806E-03
      0.370000          0.103018E-03
      0.375000          0.104337E-03
      0.380000          0.105708E-03
      0.385000          0.107089E-03
      0.390000          0.108450E-03
      0.395000          0.109772E-03
      0.400000          0.111042E-03
      0.405000          0.112253E-03
      0.410000          0.113400E-03
      0.415000          0.114480E-03
      0.420000          0.115490E-03
      0.425000          0.116423E-03
      0.430000          0.117275E-03
      0.435000          0.118040E-03
      0.440000          0.118712E-03
      0.445000          0.119286E-03
      0.450000          0.119758E-03
      0.455000          0.120127E-03
      0.460000          0.120394E-03
      0.465000          0.120563E-03
      0.470000          0.120641E-03
      0.475000          0.120634E-03
      0.480000          0.120553E-03
      0.485000          0.120407E-03
      0.490000          0.120205E-03
      0.495000          0.119955E-03
      0.500000          0.119660E-03
