 I_abs(s)[cm^-1]/c[mg/ml]
       0.00000          0.139219E-01
      0.500000E-02      0.138694E-01
      0.100000E-01      0.137130E-01
      0.150000E-01      0.134568E-01
      0.200000E-01      0.131070E-01
      0.250000E-01      0.126721E-01
      0.300000E-01      0.121625E-01
      0.350000E-01      0.115899E-01
      0.400000E-01      0.109671E-01
      0.450000E-01      0.103073E-01
      0.500000E-01      0.962389E-02
      0.550000E-01      0.892977E-02
      0.600000E-01      0.823705E-02
      0.650000E-01      0.755671E-02
      0.700000E-01      0.689829E-02
      0.750000E-01      0.626977E-02
      0.800000E-01      0.567737E-02
      0.850000E-01      0.512559E-02
      0.900000E-01      0.461724E-02
      0.950000E-01      0.415355E-02
      0.100000          0.373432E-02
      0.105000          0.335818E-02
      0.110000          0.302281E-02
      0.115000          0.272514E-02
      0.120000          0.246167E-02
      0.125000          0.222865E-02
      0.130000          0.202229E-02
      0.135000          0.183894E-02
      0.140000          0.167523E-02
      0.145000          0.152816E-02
      0.150000          0.139515E-02
      0.155000          0.127408E-02
      0.160000          0.116327E-02
      0.165000          0.106144E-02
      0.170000          0.967676E-03
      0.175000          0.881374E-03
      0.180000          0.802143E-03
      0.185000          0.729754E-03
      0.190000          0.664075E-03
      0.195000          0.605006E-03
      0.200000          0.552440E-03
      0.205000          0.506225E-03
      0.210000          0.466139E-03
      0.215000          0.431881E-03
      0.220000          0.403066E-03
      0.225000          0.379234E-03
      0.230000          0.359861E-03
      0.235000          0.344377E-03
      0.240000          0.332184E-03
      0.245000          0.322682E-03
      0.250000          0.315280E-03
      0.255000          0.309420E-03
      0.260000          0.304590E-03
      0.265000          0.300335E-03
      0.270000          0.296264E-03
      0.275000          0.292057E-03
      0.280000          0.287466E-03
      0.285000          0.282308E-03
      0.290000          0.276469E-03
      0.295000          0.269892E-03
      0.300000          0.262572E-03
      0.305000          0.254546E-03
      0.310000          0.245889E-03
      0.315000          0.236699E-03
      0.320000          0.227094E-03
      0.325000          0.217201E-03
      0.330000          0.207152E-03
      0.335000          0.197078E-03
      0.340000          0.187103E-03
      0.345000          0.177341E-03
      0.350000          0.167896E-03
      0.355000          0.158856E-03
      0.360000          0.150295E-03
      0.365000          0.142275E-03
      0.370000          0.134841E-03
      0.375000          0.128026E-03
      0.380000          0.121849E-03
      0.385000          0.116319E-03
      0.390000          0.111433E-03
      0.395000          0.107181E-03
      0.400000          0.103543E-03
      0.405000          0.100490E-03
      0.410000          0.979883E-04
      0.415000          0.959974E-04
      0.420000          0.944716E-04
      0.425000          0.933608E-04
      0.430000          0.926113E-04
      0.435000          0.921670E-04
      0.440000          0.919706E-04
      0.445000          0.919643E-04
      0.450000          0.920916E-04
      0.455000          0.922983E-04
      0.460000          0.925340E-04
      0.465000          0.927530E-04
      0.470000          0.929158E-04
      0.475000          0.929898E-04
      0.480000          0.929500E-04
      0.485000          0.927797E-04
      0.490000          0.924701E-04
      0.495000          0.920208E-04
      0.500000          0.914389E-04
