 I_abs(s)[cm^-1]/c[mg/ml]
       0.00000          0.138521E-01
      0.500000E-02      0.137990E-01
      0.100000E-01      0.136411E-01
      0.150000E-01      0.133825E-01
      0.200000E-01      0.130302E-01
      0.250000E-01      0.125932E-01
      0.300000E-01      0.120825E-01
      0.350000E-01      0.115106E-01
      0.400000E-01      0.108909E-01
      0.450000E-01      0.102375E-01
      0.500000E-01      0.956420E-02
      0.550000E-01      0.888422E-02
      0.600000E-01      0.820988E-02
      0.650000E-01      0.755212E-02
      0.700000E-01      0.692022E-02
      0.750000E-01      0.632166E-02
      0.800000E-01      0.576197E-02
      0.850000E-01      0.524479E-02
      0.900000E-01      0.477191E-02
      0.950000E-01      0.434351E-02
      0.100000          0.395831E-02
      0.105000          0.361386E-02
      0.110000          0.330685E-02
      0.115000          0.303340E-02
      0.120000          0.278930E-02
      0.125000          0.257032E-02
      0.130000          0.237241E-02
      0.135000          0.219187E-02
      0.140000          0.202548E-02
      0.145000          0.187060E-02
      0.150000          0.172514E-02
      0.155000          0.158762E-02
      0.160000          0.145709E-02
      0.165000          0.133302E-02
      0.170000          0.121528E-02
      0.175000          0.110399E-02
      0.180000          0.999422E-03
      0.185000          0.901923E-03
      0.190000          0.811825E-03
      0.195000          0.729373E-03
      0.200000          0.654688E-03
      0.205000          0.587731E-03
      0.210000          0.528296E-03
      0.215000          0.476019E-03
      0.220000          0.430393E-03
      0.225000          0.390801E-03
      0.230000          0.356549E-03
      0.235000          0.326906E-03
      0.240000          0.301139E-03
      0.245000          0.278550E-03
      0.250000          0.258499E-03
      0.255000          0.240431E-03
      0.260000          0.223882E-03
      0.265000          0.208493E-03
      0.270000          0.194003E-03
      0.275000          0.180244E-03
      0.280000          0.167130E-03
      0.285000          0.154641E-03
      0.290000          0.142807E-03
      0.295000          0.131689E-03
      0.300000          0.121366E-03
      0.305000          0.111920E-03
      0.310000          0.103422E-03
      0.315000          0.959233E-04
      0.320000          0.894539E-04
      0.325000          0.840149E-04
      0.330000          0.795803E-04
      0.335000          0.760988E-04
      0.340000          0.734979E-04
      0.345000          0.716883E-04
      0.350000          0.705699E-04
      0.355000          0.700369E-04
      0.360000          0.699838E-04
      0.365000          0.703097E-04
      0.370000          0.709222E-04
      0.375000          0.717401E-04
      0.380000          0.726955E-04
      0.385000          0.737345E-04
      0.390000          0.748170E-04
      0.395000          0.759160E-04
      0.400000          0.770164E-04
      0.405000          0.781126E-04
      0.410000          0.792073E-04
      0.415000          0.803085E-04
      0.420000          0.814283E-04
      0.425000          0.825803E-04
      0.430000          0.837781E-04
      0.435000          0.850338E-04
      0.440000          0.863570E-04
      0.445000          0.877534E-04
      0.450000          0.892249E-04
      0.455000          0.907685E-04
      0.460000          0.923768E-04
      0.465000          0.940379E-04
      0.470000          0.957358E-04
      0.475000          0.974510E-04
      0.480000          0.991611E-04
      0.485000          0.100842E-03
      0.490000          0.102468E-03
      0.495000          0.104014E-03
      0.500000          0.105457E-03
