 I_abs(s)[cm^-1]/c[mg/ml]
       0.00000          0.140466E-01
      0.500000E-02      0.139918E-01
      0.100000E-01      0.138291E-01
      0.150000E-01      0.135623E-01
      0.200000E-01      0.131983E-01
      0.250000E-01      0.127459E-01
      0.300000E-01      0.122161E-01
      0.350000E-01      0.116213E-01
      0.400000E-01      0.109749E-01
      0.450000E-01      0.102910E-01
      0.500000E-01      0.958351E-02
      0.550000E-01      0.886616E-02
      0.600000E-01      0.815173E-02
      0.650000E-01      0.745179E-02
      0.700000E-01      0.677642E-02
      0.750000E-01      0.613398E-02
      0.800000E-01      0.553099E-02
      0.850000E-01      0.497210E-02
      0.900000E-01      0.446017E-02
      0.950000E-01      0.399632E-02
      0.100000          0.358020E-02
      0.105000          0.321015E-02
      0.110000          0.288346E-02
      0.115000          0.259668E-02
      0.120000          0.234584E-02
      0.125000          0.212675E-02
      0.130000          0.193515E-02
      0.135000          0.176697E-02
      0.140000          0.161845E-02
      0.145000          0.148624E-02
      0.150000          0.136746E-02
      0.155000          0.125974E-02
      0.160000          0.116121E-02
      0.165000          0.107043E-02
      0.170000          0.986375E-03
      0.175000          0.908349E-03
      0.180000          0.835900E-03
      0.185000          0.768754E-03
      0.190000          0.706745E-03
      0.195000          0.649755E-03
      0.200000          0.597669E-03
      0.205000          0.550342E-03
      0.210000          0.507577E-03
      0.215000          0.469124E-03
      0.220000          0.434674E-03
      0.225000          0.403880E-03
      0.230000          0.376364E-03
      0.235000          0.351740E-03
      0.240000          0.329630E-03
      0.245000          0.309682E-03
      0.250000          0.291580E-03
      0.255000          0.275054E-03
      0.260000          0.259885E-03
      0.265000          0.245900E-03
      0.270000          0.232975E-03
      0.275000          0.221021E-03
      0.280000          0.209979E-03
      0.285000          0.199813E-03
      0.290000          0.190494E-03
      0.295000          0.181998E-03
      0.300000          0.174297E-03
      0.305000          0.167356E-03
      0.310000          0.161129E-03
      0.315000          0.155560E-03
      0.320000          0.150586E-03
      0.325000          0.146135E-03
      0.330000          0.142136E-03
      0.335000          0.138517E-03
      0.340000          0.135212E-03
      0.345000          0.132163E-03
      0.350000          0.129322E-03
      0.355000          0.126653E-03
      0.360000          0.124130E-03
      0.365000          0.121741E-03
      0.370000          0.119480E-03
      0.375000          0.117350E-03
      0.380000          0.115357E-03
      0.385000          0.113511E-03
      0.390000          0.111820E-03
      0.395000          0.110292E-03
      0.400000          0.108929E-03
      0.405000          0.107730E-03
      0.410000          0.106687E-03
      0.415000          0.105790E-03
      0.420000          0.105022E-03
      0.425000          0.104365E-03
      0.430000          0.103797E-03
      0.435000          0.103296E-03
      0.440000          0.102840E-03
      0.445000          0.102409E-03
      0.450000          0.101986E-03
      0.455000          0.101555E-03
      0.460000          0.101105E-03
      0.465000          0.100629E-03
      0.470000          0.100122E-03
      0.475000          0.995829E-04
      0.480000          0.990144E-04
      0.485000          0.984203E-04
      0.490000          0.978067E-04
      0.495000          0.971809E-04
      0.500000          0.965509E-04
