 I_abs(s)[cm^-1]/c[mg/ml]
       0.00000          0.144396E-01
      0.500000E-02      0.143895E-01
      0.100000E-01      0.142402E-01
      0.150000E-01      0.139951E-01
      0.200000E-01      0.136596E-01
      0.250000E-01      0.132409E-01
      0.300000E-01      0.127478E-01
      0.350000E-01      0.121906E-01
      0.400000E-01      0.115803E-01
      0.450000E-01      0.109286E-01
      0.500000E-01      0.102473E-01
      0.550000E-01      0.954815E-02
      0.600000E-01      0.884230E-02
      0.650000E-01      0.814015E-02
      0.700000E-01      0.745107E-02
      0.750000E-01      0.678321E-02
      0.800000E-01      0.614341E-02
      0.850000E-01      0.553714E-02
      0.900000E-01      0.496846E-02
      0.950000E-01      0.444014E-02
      0.100000          0.395371E-02
      0.105000          0.350957E-02
      0.110000          0.310722E-02
      0.115000          0.274535E-02
      0.120000          0.242203E-02
      0.125000          0.213490E-02
      0.130000          0.188129E-02
      0.135000          0.165838E-02
      0.140000          0.146329E-02
      0.145000          0.129319E-02
      0.150000          0.114537E-02
      0.155000          0.101728E-02
      0.160000          0.906552E-03
      0.165000          0.811047E-03
      0.170000          0.728822E-03
      0.175000          0.658142E-03
      0.180000          0.597460E-03
      0.185000          0.545403E-03
      0.190000          0.500755E-03
      0.195000          0.462441E-03
      0.200000          0.429510E-03
      0.205000          0.401127E-03
      0.210000          0.376556E-03
      0.215000          0.355159E-03
      0.220000          0.336384E-03
      0.225000          0.319761E-03
      0.230000          0.304898E-03
      0.235000          0.291472E-03
      0.240000          0.279225E-03
      0.245000          0.267956E-03
      0.250000          0.257514E-03
      0.255000          0.247791E-03
      0.260000          0.238711E-03
      0.265000          0.230225E-03
      0.270000          0.222301E-03
      0.275000          0.214917E-03
      0.280000          0.208059E-03
      0.285000          0.201708E-03
      0.290000          0.195847E-03
      0.295000          0.190451E-03
      0.300000          0.185489E-03
      0.305000          0.180926E-03
      0.310000          0.176720E-03
      0.315000          0.172828E-03
      0.320000          0.169207E-03
      0.325000          0.165812E-03
      0.330000          0.162604E-03
      0.335000          0.159548E-03
      0.340000          0.156614E-03
      0.345000          0.153778E-03
      0.350000          0.151024E-03
      0.355000          0.148339E-03
      0.360000          0.145716E-03
      0.365000          0.143151E-03
      0.370000          0.140644E-03
      0.375000          0.138194E-03
      0.380000          0.135798E-03
      0.385000          0.133456E-03
      0.390000          0.131161E-03
      0.395000          0.128908E-03
      0.400000          0.126687E-03
      0.405000          0.124486E-03
      0.410000          0.122294E-03
      0.415000          0.120100E-03
      0.420000          0.117894E-03
      0.425000          0.115667E-03
      0.430000          0.113417E-03
      0.435000          0.111145E-03
      0.440000          0.108857E-03
      0.445000          0.106565E-03
      0.450000          0.104286E-03
      0.455000          0.102041E-03
      0.460000          0.998548E-04
      0.465000          0.977541E-04
      0.470000          0.957663E-04
      0.475000          0.939174E-04
      0.480000          0.922304E-04
      0.485000          0.907243E-04
      0.490000          0.894125E-04
      0.495000          0.883021E-04
      0.500000          0.873935E-04
