 I_abs(s)[cm^-1]/c[mg/ml]
       0.00000          0.138598E-01
      0.500000E-02      0.138110E-01
      0.100000E-01      0.136656E-01
      0.150000E-01      0.134270E-01
      0.200000E-01      0.131007E-01
      0.250000E-01      0.126941E-01
      0.300000E-01      0.122163E-01
      0.350000E-01      0.116775E-01
      0.400000E-01      0.110891E-01
      0.450000E-01      0.104630E-01
      0.500000E-01      0.981117E-02
      0.550000E-01      0.914563E-02
      0.600000E-01      0.847765E-02
      0.650000E-01      0.781769E-02
      0.700000E-01      0.717511E-02
      0.750000E-01      0.655789E-02
      0.800000E-01      0.597257E-02
      0.850000E-01      0.542414E-02
      0.900000E-01      0.491605E-02
      0.950000E-01      0.445023E-02
      0.100000          0.402725E-02
      0.105000          0.364641E-02
      0.110000          0.330600E-02
      0.115000          0.300344E-02
      0.120000          0.273553E-02
      0.125000          0.249867E-02
      0.130000          0.228908E-02
      0.135000          0.210294E-02
      0.140000          0.193661E-02
      0.145000          0.178672E-02
      0.150000          0.165028E-02
      0.155000          0.152476E-02
      0.160000          0.140808E-02
      0.165000          0.129864E-02
      0.170000          0.119531E-02
      0.175000          0.109735E-02
      0.180000          0.100434E-02
      0.185000          0.916151E-03
      0.190000          0.832854E-03
      0.195000          0.754632E-03
      0.200000          0.681728E-03
      0.205000          0.614380E-03
      0.210000          0.552779E-03
      0.215000          0.497030E-03
      0.220000          0.447132E-03
      0.225000          0.402968E-03
      0.230000          0.364306E-03
      0.235000          0.330807E-03
      0.240000          0.302047E-03
      0.245000          0.277538E-03
      0.250000          0.256748E-03
      0.255000          0.239132E-03
      0.260000          0.224155E-03
      0.265000          0.211309E-03
      0.270000          0.200133E-03
      0.275000          0.190227E-03
      0.280000          0.181255E-03
      0.285000          0.172955E-03
      0.290000          0.165131E-03
      0.295000          0.157652E-03
      0.300000          0.150445E-03
      0.305000          0.143483E-03
      0.310000          0.136778E-03
      0.315000          0.130368E-03
      0.320000          0.124307E-03
      0.325000          0.118656E-03
      0.330000          0.113475E-03
      0.335000          0.108818E-03
      0.340000          0.104725E-03
      0.345000          0.101222E-03
      0.350000          0.983180E-04
      0.355000          0.960060E-04
      0.360000          0.942636E-04
      0.365000          0.930548E-04
      0.370000          0.923328E-04
      0.375000          0.920422E-04
      0.380000          0.921226E-04
      0.385000          0.925104E-04
      0.390000          0.931419E-04
      0.395000          0.939552E-04
      0.400000          0.948918E-04
      0.405000          0.958982E-04
      0.410000          0.969266E-04
      0.415000          0.979354E-04
      0.420000          0.988897E-04
      0.425000          0.997614E-04
      0.430000          0.100529E-03
      0.435000          0.101176E-03
      0.440000          0.101693E-03
      0.445000          0.102076E-03
      0.450000          0.102325E-03
      0.455000          0.102445E-03
      0.460000          0.102444E-03
      0.465000          0.102334E-03
      0.470000          0.102128E-03
      0.475000          0.101843E-03
      0.480000          0.101495E-03
      0.485000          0.101103E-03
      0.490000          0.100684E-03
      0.495000          0.100254E-03
      0.500000          0.998288E-04
