 I_abs(s)[cm^-1]/c[mg/ml]
       0.00000          0.140622E-01
      0.500000E-02      0.140088E-01
      0.100000E-01      0.138500E-01
      0.150000E-01      0.135899E-01
      0.200000E-01      0.132350E-01
      0.250000E-01      0.127944E-01
      0.300000E-01      0.122787E-01
      0.350000E-01      0.117002E-01
      0.400000E-01      0.110723E-01
      0.450000E-01      0.104085E-01
      0.500000E-01      0.972275E-02
      0.550000E-01      0.902821E-02
      0.600000E-01      0.833728E-02
      0.650000E-01      0.766104E-02
      0.700000E-01      0.700903E-02
      0.750000E-01      0.638906E-02
      0.800000E-01      0.580709E-02
      0.850000E-01      0.526722E-02
      0.900000E-01      0.477174E-02
      0.950000E-01      0.432133E-02
      0.100000          0.391519E-02
      0.105000          0.355132E-02
      0.110000          0.322681E-02
      0.115000          0.293807E-02
      0.120000          0.268113E-02
      0.125000          0.245190E-02
      0.130000          0.224637E-02
      0.135000          0.206082E-02
      0.140000          0.189189E-02
      0.145000          0.173676E-02
      0.150000          0.159311E-02
      0.155000          0.145917E-02
      0.160000          0.133369E-02
      0.165000          0.121585E-02
      0.170000          0.110518E-02
      0.175000          0.100154E-02
      0.180000          0.904918E-03
      0.185000          0.815442E-03
      0.190000          0.733242E-03
      0.195000          0.658415E-03
      0.200000          0.590964E-03
      0.205000          0.530777E-03
      0.210000          0.477611E-03
      0.215000          0.431094E-03
      0.220000          0.390742E-03
      0.225000          0.355980E-03
      0.230000          0.326176E-03
      0.235000          0.300669E-03
      0.240000          0.278802E-03
      0.245000          0.259951E-03
      0.250000          0.243549E-03
      0.255000          0.229097E-03
      0.260000          0.216184E-03
      0.265000          0.204481E-03
      0.270000          0.193743E-03
      0.275000          0.183801E-03
      0.280000          0.174548E-03
      0.285000          0.165929E-03
      0.290000          0.157925E-03
      0.295000          0.150536E-03
      0.300000          0.143776E-03
      0.305000          0.137652E-03
      0.310000          0.132167E-03
      0.315000          0.127307E-03
      0.320000          0.123042E-03
      0.325000          0.119329E-03
      0.330000          0.116108E-03
      0.335000          0.113311E-03
      0.340000          0.110865E-03
      0.345000          0.108697E-03
      0.350000          0.106738E-03
      0.355000          0.104928E-03
      0.360000          0.103220E-03
      0.365000          0.101579E-03
      0.370000          0.999852E-04
      0.375000          0.984348E-04
      0.380000          0.969360E-04
      0.385000          0.955082E-04
      0.390000          0.941797E-04
      0.395000          0.929842E-04
      0.400000          0.919574E-04
      0.405000          0.911345E-04
      0.410000          0.905474E-04
      0.415000          0.902218E-04
      0.420000          0.901760E-04
      0.425000          0.904192E-04
      0.430000          0.909514E-04
      0.435000          0.917624E-04
      0.440000          0.928331E-04
      0.445000          0.941357E-04
      0.450000          0.956350E-04
      0.455000          0.972901E-04
      0.460000          0.990553E-04
      0.465000          0.100883E-03
      0.470000          0.102723E-03
      0.475000          0.104527E-03
      0.480000          0.106249E-03
      0.485000          0.107844E-03
      0.490000          0.109276E-03
      0.495000          0.110510E-03
      0.500000          0.111521E-03
