 I_abs(s)[cm^-1]/c[mg/ml]
       0.00000          0.139530E-01
      0.500000E-02      0.138956E-01
      0.100000E-01      0.137251E-01
      0.150000E-01      0.134465E-01
      0.200000E-01      0.130677E-01
      0.250000E-01      0.125996E-01
      0.300000E-01      0.120550E-01
      0.350000E-01      0.114484E-01
      0.400000E-01      0.107955E-01
      0.450000E-01      0.101119E-01
      0.500000E-01      0.941327E-02
      0.550000E-01      0.871416E-02
      0.600000E-01      0.802776E-02
      0.650000E-01      0.736544E-02
      0.700000E-01      0.673647E-02
      0.750000E-01      0.614785E-02
      0.800000E-01      0.560425E-02
      0.850000E-01      0.510815E-02
      0.900000E-01      0.465998E-02
      0.950000E-01      0.425842E-02
      0.100000          0.390069E-02
      0.105000          0.358296E-02
      0.110000          0.330068E-02
      0.115000          0.304900E-02
      0.120000          0.282300E-02
      0.125000          0.261808E-02
      0.130000          0.243008E-02
      0.135000          0.225548E-02
      0.140000          0.209148E-02
      0.145000          0.193601E-02
      0.150000          0.178769E-02
      0.155000          0.164577E-02
      0.160000          0.151001E-02
      0.165000          0.138056E-02
      0.170000          0.125782E-02
      0.175000          0.114231E-02
      0.180000          0.103456E-02
      0.185000          0.935022E-03
      0.190000          0.843988E-03
      0.195000          0.761551E-03
      0.200000          0.687593E-03
      0.205000          0.621787E-03
      0.210000          0.563621E-03
      0.215000          0.512437E-03
      0.220000          0.467477E-03
      0.225000          0.427935E-03
      0.230000          0.392999E-03
      0.235000          0.361898E-03
      0.240000          0.333936E-03
      0.245000          0.308513E-03
      0.250000          0.285142E-03
      0.255000          0.263449E-03
      0.260000          0.243175E-03
      0.265000          0.224154E-03
      0.270000          0.206307E-03
      0.275000          0.189613E-03
      0.280000          0.174091E-03
      0.285000          0.159785E-03
      0.290000          0.146737E-03
      0.295000          0.134983E-03
      0.300000          0.124537E-03
      0.305000          0.115386E-03
      0.310000          0.107487E-03
      0.315000          0.100772E-03
      0.320000          0.951476E-04
      0.325000          0.905012E-04
      0.330000          0.867101E-04
      0.335000          0.836470E-04
      0.340000          0.811867E-04
      0.345000          0.792122E-04
      0.350000          0.776196E-04
      0.355000          0.763210E-04
      0.360000          0.752465E-04
      0.365000          0.743443E-04
      0.370000          0.735801E-04
      0.375000          0.729350E-04
      0.380000          0.724028E-04
      0.385000          0.719869E-04
      0.390000          0.716972E-04
      0.395000          0.715466E-04
      0.400000          0.715484E-04
      0.405000          0.717138E-04
      0.410000          0.720501E-04
      0.415000          0.725593E-04
      0.420000          0.732382E-04
      0.425000          0.740776E-04
      0.430000          0.750635E-04
      0.435000          0.761777E-04
      0.440000          0.773991E-04
      0.445000          0.787050E-04
      0.450000          0.800726E-04
      0.455000          0.814797E-04
      0.460000          0.829063E-04
      0.465000          0.843351E-04
      0.470000          0.857516E-04
      0.475000          0.871447E-04
      0.480000          0.885063E-04
      0.485000          0.898304E-04
      0.490000          0.911132E-04
      0.495000          0.923518E-04
      0.500000          0.935438E-04
