 I_abs(s)[cm^-1]/c[mg/ml]
       0.00000          0.138443E-01
      0.500000E-02      0.137891E-01
      0.100000E-01      0.136251E-01
      0.150000E-01      0.133569E-01
      0.200000E-01      0.129918E-01
      0.250000E-01      0.125397E-01
      0.300000E-01      0.120126E-01
      0.350000E-01      0.114239E-01
      0.400000E-01      0.107882E-01
      0.450000E-01      0.101202E-01
      0.500000E-01      0.943448E-02
      0.550000E-01      0.874505E-02
      0.600000E-01      0.806458E-02
      0.650000E-01      0.740419E-02
      0.700000E-01      0.677313E-02
      0.750000E-01      0.617863E-02
      0.800000E-01      0.562586E-02
      0.850000E-01      0.511790E-02
      0.900000E-01      0.465597E-02
      0.950000E-01      0.423958E-02
      0.100000          0.386686E-02
      0.105000          0.353480E-02
      0.110000          0.323963E-02
      0.115000          0.297713E-02
      0.120000          0.274288E-02
      0.125000          0.253259E-02
      0.130000          0.234223E-02
      0.135000          0.216824E-02
      0.140000          0.200760E-02
      0.145000          0.185788E-02
      0.150000          0.171724E-02
      0.155000          0.158441E-02
      0.160000          0.145857E-02
      0.165000          0.133931E-02
      0.170000          0.122648E-02
      0.175000          0.112015E-02
      0.180000          0.102045E-02
      0.185000          0.927557E-03
      0.190000          0.841577E-03
      0.195000          0.762542E-03
      0.200000          0.690366E-03
      0.205000          0.624847E-03
      0.210000          0.565670E-03
      0.215000          0.512432E-03
      0.220000          0.464660E-03
      0.225000          0.421847E-03
      0.230000          0.383474E-03
      0.235000          0.349042E-03
      0.240000          0.318084E-03
      0.245000          0.290188E-03
      0.250000          0.264997E-03
      0.255000          0.242218E-03
      0.260000          0.221613E-03
      0.265000          0.202993E-03
      0.270000          0.186210E-03
      0.275000          0.171146E-03
      0.280000          0.157699E-03
      0.285000          0.145779E-03
      0.290000          0.135296E-03
      0.295000          0.126158E-03
      0.300000          0.118264E-03
      0.305000          0.111509E-03
      0.310000          0.105781E-03
      0.315000          0.100965E-03
      0.320000          0.969472E-04
      0.325000          0.936165E-04
      0.330000          0.908693E-04
      0.335000          0.886121E-04
      0.340000          0.867634E-04
      0.345000          0.852545E-04
      0.350000          0.840302E-04
      0.355000          0.830477E-04
      0.360000          0.822757E-04
      0.365000          0.816922E-04
      0.370000          0.812831E-04
      0.375000          0.810393E-04
      0.380000          0.809554E-04
      0.385000          0.810278E-04
      0.390000          0.812526E-04
      0.395000          0.816253E-04
      0.400000          0.821394E-04
      0.405000          0.827861E-04
      0.410000          0.835542E-04
      0.415000          0.844302E-04
      0.420000          0.853988E-04
      0.425000          0.864431E-04
      0.430000          0.875455E-04
      0.435000          0.886880E-04
      0.440000          0.898534E-04
      0.445000          0.910254E-04
      0.450000          0.921893E-04
      0.455000          0.933327E-04
      0.460000          0.944451E-04
      0.465000          0.955188E-04
      0.470000          0.965480E-04
      0.475000          0.975293E-04
      0.480000          0.984605E-04
      0.485000          0.993409E-04
      0.490000          0.100170E-03
      0.495000          0.100949E-03
      0.500000          0.101675E-03
