 I_abs(s)[cm^-1]/c[mg/ml]
       0.00000          0.141169E-01
      0.500000E-02      0.140603E-01
      0.100000E-01      0.138922E-01
      0.150000E-01      0.136174E-01
      0.200000E-01      0.132436E-01
      0.250000E-01      0.127814E-01
      0.300000E-01      0.122433E-01
      0.350000E-01      0.116434E-01
      0.400000E-01      0.109967E-01
      0.450000E-01      0.103184E-01
      0.500000E-01      0.962373E-02
      0.550000E-01      0.892663E-02
      0.600000E-01      0.823987E-02
      0.650000E-01      0.757443E-02
      0.700000E-01      0.693927E-02
      0.750000E-01      0.634118E-02
      0.800000E-01      0.578480E-02
      0.850000E-01      0.527267E-02
      0.900000E-01      0.480547E-02
      0.950000E-01      0.438223E-02
      0.100000          0.400070E-02
      0.105000          0.365765E-02
      0.110000          0.334925E-02
      0.115000          0.307138E-02
      0.120000          0.281992E-02
      0.125000          0.259098E-02
      0.130000          0.238109E-02
      0.135000          0.218730E-02
      0.140000          0.200725E-02
      0.145000          0.183916E-02
      0.150000          0.168178E-02
      0.155000          0.153432E-02
      0.160000          0.139634E-02
      0.165000          0.126767E-02
      0.170000          0.114825E-02
      0.175000          0.103808E-02
      0.180000          0.937123E-03
      0.185000          0.845244E-03
      0.190000          0.762188E-03
      0.195000          0.687562E-03
      0.200000          0.620845E-03
      0.205000          0.561411E-03
      0.210000          0.508565E-03
      0.215000          0.461577E-03
      0.220000          0.419725E-03
      0.225000          0.382326E-03
      0.230000          0.348768E-03
      0.235000          0.318520E-03
      0.240000          0.291149E-03
      0.245000          0.266314E-03
      0.250000          0.243759E-03
      0.255000          0.223299E-03
      0.260000          0.204800E-03
      0.265000          0.188165E-03
      0.270000          0.173310E-03
      0.275000          0.160156E-03
      0.280000          0.148611E-03
      0.285000          0.138568E-03
      0.290000          0.129903E-03
      0.295000          0.122477E-03
      0.300000          0.116138E-03
      0.305000          0.110735E-03
      0.310000          0.106120E-03
      0.315000          0.102158E-03
      0.320000          0.987361E-04
      0.325000          0.957624E-04
      0.330000          0.931718E-04
      0.335000          0.909243E-04
      0.340000          0.890014E-04
      0.345000          0.874019E-04
      0.350000          0.861356E-04
      0.355000          0.852169E-04
      0.360000          0.846585E-04
      0.365000          0.844659E-04
      0.370000          0.846334E-04
      0.375000          0.851419E-04
      0.380000          0.859577E-04
      0.385000          0.870337E-04
      0.390000          0.883121E-04
      0.395000          0.897279E-04
      0.400000          0.912126E-04
      0.405000          0.926994E-04
      0.410000          0.941272E-04
      0.415000          0.954439E-04
      0.420000          0.966098E-04
      0.425000          0.975986E-04
      0.430000          0.983986E-04
      0.435000          0.990117E-04
      0.440000          0.994521E-04
      0.445000          0.997439E-04
      0.450000          0.999180E-04
      0.455000          0.100009E-03
      0.460000          0.100054E-03
      0.465000          0.100084E-03
      0.470000          0.100129E-03
      0.475000          0.100210E-03
      0.480000          0.100342E-03
      0.485000          0.100530E-03
      0.490000          0.100770E-03
      0.495000          0.101053E-03
      0.500000          0.101361E-03
