 I_abs(s)[cm^-1]/c[mg/ml]
       0.00000          0.142818E-01
      0.500000E-02      0.142308E-01
      0.100000E-01      0.140790E-01
      0.150000E-01      0.138301E-01
      0.200000E-01      0.134898E-01
      0.250000E-01      0.130658E-01
      0.300000E-01      0.125679E-01
      0.350000E-01      0.120067E-01
      0.400000E-01      0.113941E-01
      0.450000E-01      0.107426E-01
      0.500000E-01      0.100644E-01
      0.550000E-01      0.937202E-02
      0.600000E-01      0.867681E-02
      0.650000E-01      0.798943E-02
      0.700000E-01      0.731924E-02
      0.750000E-01      0.667422E-02
      0.800000E-01      0.606081E-02
      0.850000E-01      0.548391E-02
      0.900000E-01      0.494688E-02
      0.950000E-01      0.445161E-02
      0.100000          0.399869E-02
      0.105000          0.358756E-02
      0.110000          0.321674E-02
      0.115000          0.288399E-02
      0.120000          0.258657E-02
      0.125000          0.232141E-02
      0.130000          0.208532E-02
      0.135000          0.187513E-02
      0.140000          0.168780E-02
      0.145000          0.152055E-02
      0.150000          0.137091E-02
      0.155000          0.123672E-02
      0.160000          0.111615E-02
      0.165000          0.100772E-02
      0.170000          0.910193E-03
      0.175000          0.822594E-03
      0.180000          0.744122E-03
      0.185000          0.674114E-03
      0.190000          0.611992E-03
      0.195000          0.557225E-03
      0.200000          0.509297E-03
      0.205000          0.467681E-03
      0.210000          0.431833E-03
      0.215000          0.401181E-03
      0.220000          0.375137E-03
      0.225000          0.353099E-03
      0.230000          0.334467E-03
      0.235000          0.318661E-03
      0.240000          0.305134E-03
      0.245000          0.293383E-03
      0.250000          0.282966E-03
      0.255000          0.273505E-03
      0.260000          0.264691E-03
      0.265000          0.256285E-03
      0.270000          0.248114E-03
      0.275000          0.240067E-03
      0.280000          0.232081E-03
      0.285000          0.224139E-03
      0.290000          0.216256E-03
      0.295000          0.208468E-03
      0.300000          0.200825E-03
      0.305000          0.193383E-03
      0.310000          0.186196E-03
      0.315000          0.179310E-03
      0.320000          0.172765E-03
      0.325000          0.166587E-03
      0.330000          0.160792E-03
      0.335000          0.155384E-03
      0.340000          0.150357E-03
      0.345000          0.145699E-03
      0.350000          0.141389E-03
      0.355000          0.137406E-03
      0.360000          0.133726E-03
      0.365000          0.130326E-03
      0.370000          0.127185E-03
      0.375000          0.124282E-03
      0.380000          0.121602E-03
      0.385000          0.119134E-03
      0.390000          0.116867E-03
      0.395000          0.114797E-03
      0.400000          0.112919E-03
      0.405000          0.111230E-03
      0.410000          0.109729E-03
      0.415000          0.108413E-03
      0.420000          0.107281E-03
      0.425000          0.106327E-03
      0.430000          0.105545E-03
      0.435000          0.104925E-03
      0.440000          0.104455E-03
      0.445000          0.104119E-03
      0.450000          0.103900E-03
      0.455000          0.103776E-03
      0.460000          0.103726E-03
      0.465000          0.103726E-03
      0.470000          0.103750E-03
      0.475000          0.103774E-03
      0.480000          0.103774E-03
      0.485000          0.103730E-03
      0.490000          0.103620E-03
      0.495000          0.103431E-03
      0.500000          0.103148E-03
