 I_abs(s)[cm^-1]/c[mg/ml]
       0.00000          0.143054E-01
      0.500000E-02      0.142546E-01
      0.100000E-01      0.141035E-01
      0.150000E-01      0.138554E-01
      0.200000E-01      0.135160E-01
      0.250000E-01      0.130926E-01
      0.300000E-01      0.125944E-01
      0.350000E-01      0.120320E-01
      0.400000E-01      0.114168E-01
      0.450000E-01      0.107609E-01
      0.500000E-01      0.100767E-01
      0.550000E-01      0.937634E-02
      0.600000E-01      0.867147E-02
      0.650000E-01      0.797292E-02
      0.700000E-01      0.729043E-02
      0.750000E-01      0.663246E-02
      0.800000E-01      0.600601E-02
      0.850000E-01      0.541659E-02
      0.900000E-01      0.486820E-02
      0.950000E-01      0.436333E-02
      0.100000          0.390312E-02
      0.105000          0.348745E-02
      0.110000          0.311514E-02
      0.115000          0.278413E-02
      0.120000          0.249169E-02
      0.125000          0.223461E-02
      0.130000          0.200940E-02
      0.135000          0.181248E-02
      0.140000          0.164029E-02
      0.145000          0.148946E-02
      0.150000          0.135688E-02
      0.155000          0.123974E-02
      0.160000          0.113563E-02
      0.165000          0.104250E-02
      0.170000          0.958644E-03
      0.175000          0.882724E-03
      0.180000          0.813678E-03
      0.185000          0.750697E-03
      0.190000          0.693173E-03
      0.195000          0.640644E-03
      0.200000          0.592756E-03
      0.205000          0.549215E-03
      0.210000          0.509765E-03
      0.215000          0.474157E-03
      0.220000          0.442137E-03
      0.225000          0.413439E-03
      0.230000          0.387780E-03
      0.235000          0.364865E-03
      0.240000          0.344394E-03
      0.245000          0.326068E-03
      0.250000          0.309600E-03
      0.255000          0.294722E-03
      0.260000          0.281188E-03
      0.265000          0.268786E-03
      0.270000          0.257333E-03
      0.275000          0.246679E-03
      0.280000          0.236703E-03
      0.285000          0.227311E-03
      0.290000          0.218433E-03
      0.295000          0.210015E-03
      0.300000          0.202014E-03
      0.305000          0.194399E-03
      0.310000          0.187141E-03
      0.315000          0.180215E-03
      0.320000          0.173593E-03
      0.325000          0.167252E-03
      0.330000          0.161165E-03
      0.335000          0.155309E-03
      0.340000          0.149663E-03
      0.345000          0.144209E-03
      0.350000          0.138936E-03
      0.355000          0.133840E-03
      0.360000          0.128926E-03
      0.365000          0.124205E-03
      0.370000          0.119696E-03
      0.375000          0.115426E-03
      0.380000          0.111425E-03
      0.385000          0.107729E-03
      0.390000          0.104373E-03
      0.395000          0.101390E-03
      0.400000          0.988111E-04
      0.405000          0.966602E-04
      0.410000          0.949539E-04
      0.415000          0.936995E-04
      0.420000          0.928939E-04
      0.425000          0.925235E-04
      0.430000          0.925634E-04
      0.435000          0.929789E-04
      0.440000          0.937257E-04
      0.445000          0.947514E-04
      0.450000          0.959975E-04
      0.455000          0.974008E-04
      0.460000          0.988959E-04
      0.465000          0.100417E-03
      0.470000          0.101900E-03
      0.475000          0.103286E-03
      0.480000          0.104519E-03
      0.485000          0.105554E-03
      0.490000          0.106352E-03
      0.495000          0.106886E-03
      0.500000          0.107138E-03
