 I_abs(s)[cm^-1]/c[mg/ml]
       0.00000          0.139530E-01
      0.500000E-02      0.139018E-01
      0.100000E-01      0.137495E-01
      0.150000E-01      0.134998E-01
      0.200000E-01      0.131589E-01
      0.250000E-01      0.127352E-01
      0.300000E-01      0.122387E-01
      0.350000E-01      0.116808E-01
      0.400000E-01      0.110738E-01
      0.450000E-01      0.104306E-01
      0.500000E-01      0.976396E-02
      0.550000E-01      0.908632E-02
      0.600000E-01      0.840925E-02
      0.650000E-01      0.774318E-02
      0.700000E-01      0.709720E-02
      0.750000E-01      0.647882E-02
      0.800000E-01      0.589393E-02
      0.850000E-01      0.534677E-02
      0.900000E-01      0.484001E-02
      0.950000E-01      0.437488E-02
      0.100000          0.395133E-02
      0.105000          0.356824E-02
      0.110000          0.322366E-02
      0.115000          0.291501E-02
      0.120000          0.263935E-02
      0.125000          0.239350E-02
      0.130000          0.217428E-02
      0.135000          0.197863E-02
      0.140000          0.180368E-02
      0.145000          0.164686E-02
      0.150000          0.150589E-02
      0.155000          0.137883E-02
      0.160000          0.126403E-02
      0.165000          0.116012E-02
      0.170000          0.106596E-02
      0.175000          0.980587E-03
      0.180000          0.903182E-03
      0.185000          0.833027E-03
      0.190000          0.769475E-03
      0.195000          0.711921E-03
      0.200000          0.659790E-03
      0.205000          0.612529E-03
      0.210000          0.569605E-03
      0.215000          0.530513E-03
      0.220000          0.494778E-03
      0.225000          0.461967E-03
      0.230000          0.431695E-03
      0.235000          0.403628E-03
      0.240000          0.377491E-03
      0.245000          0.353060E-03
      0.250000          0.330166E-03
      0.255000          0.308684E-03
      0.260000          0.288531E-03
      0.265000          0.269651E-03
      0.270000          0.252009E-03
      0.275000          0.235584E-03
      0.280000          0.220361E-03
      0.285000          0.206324E-03
      0.290000          0.193453E-03
      0.295000          0.181720E-03
      0.300000          0.171090E-03
      0.305000          0.161523E-03
      0.310000          0.152968E-03
      0.315000          0.145371E-03
      0.320000          0.138676E-03
      0.325000          0.132822E-03
      0.330000          0.127750E-03
      0.335000          0.123400E-03
      0.340000          0.119713E-03
      0.345000          0.116629E-03
      0.350000          0.114091E-03
      0.355000          0.112041E-03
      0.360000          0.110419E-03
      0.365000          0.109168E-03
      0.370000          0.108230E-03
      0.375000          0.107546E-03
      0.380000          0.107060E-03
      0.385000          0.106718E-03
      0.390000          0.106467E-03
      0.395000          0.106261E-03
      0.400000          0.106057E-03
      0.405000          0.105819E-03
      0.410000          0.105518E-03
      0.415000          0.105131E-03
      0.420000          0.104641E-03
      0.425000          0.104040E-03
      0.430000          0.103324E-03
      0.435000          0.102495E-03
      0.440000          0.101561E-03
      0.445000          0.100531E-03
      0.450000          0.994196E-04
      0.455000          0.982415E-04
      0.460000          0.970139E-04
      0.465000          0.957547E-04
      0.470000          0.944822E-04
      0.475000          0.932146E-04
      0.480000          0.919700E-04
      0.485000          0.907656E-04
      0.490000          0.896178E-04
      0.495000          0.885415E-04
      0.500000          0.875498E-04
