 I_abs(s)[cm^-1]/c[mg/ml]
       0.00000          0.141404E-01
      0.500000E-02      0.140934E-01
      0.100000E-01      0.139535E-01
      0.150000E-01      0.137237E-01
      0.200000E-01      0.134089E-01
      0.250000E-01      0.130158E-01
      0.300000E-01      0.125526E-01
      0.350000E-01      0.120287E-01
      0.400000E-01      0.114545E-01
      0.450000E-01      0.108407E-01
      0.500000E-01      0.101985E-01
      0.550000E-01      0.953884E-02
      0.600000E-01      0.887237E-02
      0.650000E-01      0.820892E-02
      0.700000E-01      0.755744E-02
      0.750000E-01      0.692574E-02
      0.800000E-01      0.632040E-02
      0.850000E-01      0.574665E-02
      0.900000E-01      0.520838E-02
      0.950000E-01      0.470818E-02
      0.100000          0.424739E-02
      0.105000          0.382625E-02
      0.110000          0.344403E-02
      0.115000          0.309918E-02
      0.120000          0.278953E-02
      0.125000          0.251249E-02
      0.130000          0.226515E-02
      0.135000          0.204451E-02
      0.140000          0.184757E-02
      0.145000          0.167147E-02
      0.150000          0.151354E-02
      0.155000          0.137142E-02
      0.160000          0.124304E-02
      0.165000          0.112665E-02
      0.170000          0.102081E-02
      0.175000          0.924372E-03
      0.180000          0.836452E-03
      0.185000          0.756360E-03
      0.190000          0.683571E-03
      0.195000          0.617676E-03
      0.200000          0.558337E-03
      0.205000          0.505249E-03
      0.210000          0.458110E-03
      0.215000          0.416601E-03
      0.220000          0.380369E-03
      0.225000          0.349022E-03
      0.230000          0.322131E-03
      0.235000          0.299235E-03
      0.240000          0.279853E-03
      0.245000          0.263494E-03
      0.250000          0.249676E-03
      0.255000          0.237937E-03
      0.260000          0.227848E-03
      0.265000          0.219023E-03
      0.270000          0.211128E-03
      0.275000          0.203887E-03
      0.280000          0.197079E-03
      0.285000          0.190541E-03
      0.290000          0.184164E-03
      0.295000          0.177885E-03
      0.300000          0.171682E-03
      0.305000          0.165565E-03
      0.310000          0.159569E-03
      0.315000          0.153744E-03
      0.320000          0.148149E-03
      0.325000          0.142845E-03
      0.330000          0.137890E-03
      0.335000          0.133334E-03
      0.340000          0.129216E-03
      0.345000          0.125562E-03
      0.350000          0.122384E-03
      0.355000          0.119684E-03
      0.360000          0.117446E-03
      0.365000          0.115647E-03
      0.370000          0.114253E-03
      0.375000          0.113222E-03
      0.380000          0.112508E-03
      0.385000          0.112062E-03
      0.390000          0.111831E-03
      0.395000          0.111767E-03
      0.400000          0.111819E-03
      0.405000          0.111942E-03
      0.410000          0.112094E-03
      0.415000          0.112239E-03
      0.420000          0.112344E-03
      0.425000          0.112384E-03
      0.430000          0.112335E-03
      0.435000          0.112182E-03
      0.440000          0.111914E-03
      0.445000          0.111524E-03
      0.450000          0.111009E-03
      0.455000          0.110369E-03
      0.460000          0.109608E-03
      0.465000          0.108734E-03
      0.470000          0.107755E-03
      0.475000          0.106682E-03
      0.480000          0.105526E-03
      0.485000          0.104301E-03
      0.490000          0.103021E-03
      0.495000          0.101700E-03
      0.500000          0.100353E-03
