 I_abs(s)[cm^-1]/c[mg/ml]
       0.00000          0.138986E-01
      0.500000E-02      0.138408E-01
      0.100000E-01      0.136689E-01
      0.150000E-01      0.133879E-01
      0.200000E-01      0.130056E-01
      0.250000E-01      0.125326E-01
      0.300000E-01      0.119815E-01
      0.350000E-01      0.113667E-01
      0.400000E-01      0.107032E-01
      0.450000E-01      0.100069E-01
      0.500000E-01      0.929286E-02
      0.550000E-01      0.857566E-02
      0.600000E-01      0.786842E-02
      0.650000E-01      0.718257E-02
      0.700000E-01      0.652756E-02
      0.750000E-01      0.591069E-02
      0.800000E-01      0.533711E-02
      0.850000E-01      0.480989E-02
      0.900000E-01      0.433016E-02
      0.950000E-01      0.389742E-02
      0.100000          0.350977E-02
      0.105000          0.316429E-02
      0.110000          0.285736E-02
      0.115000          0.258495E-02
      0.120000          0.234294E-02
      0.125000          0.212732E-02
      0.130000          0.193440E-02
      0.135000          0.176092E-02
      0.140000          0.160410E-02
      0.145000          0.146172E-02
      0.150000          0.133201E-02
      0.155000          0.121367E-02
      0.160000          0.110573E-02
      0.165000          0.100752E-02
      0.170000          0.918525E-03
      0.175000          0.838356E-03
      0.180000          0.766645E-03
      0.185000          0.703008E-03
      0.190000          0.647011E-03
      0.195000          0.598156E-03
      0.200000          0.555874E-03
      0.205000          0.519542E-03
      0.210000          0.488500E-03
      0.215000          0.462074E-03
      0.220000          0.439601E-03
      0.225000          0.420447E-03
      0.230000          0.404026E-03
      0.235000          0.389813E-03
      0.240000          0.377345E-03
      0.245000          0.366223E-03
      0.250000          0.356106E-03
      0.255000          0.346710E-03
      0.260000          0.337790E-03
      0.265000          0.329141E-03
      0.270000          0.320588E-03
      0.275000          0.311979E-03
      0.280000          0.303186E-03
      0.285000          0.294104E-03
      0.290000          0.284653E-03
      0.295000          0.274780E-03
      0.300000          0.264465E-03
      0.305000          0.253717E-03
      0.310000          0.242583E-03
      0.315000          0.231141E-03
      0.320000          0.219500E-03
      0.325000          0.207794E-03
      0.330000          0.196176E-03
      0.335000          0.184808E-03
      0.340000          0.173852E-03
      0.345000          0.163463E-03
      0.350000          0.153778E-03
      0.355000          0.144910E-03
      0.360000          0.136943E-03
      0.365000          0.129929E-03
      0.370000          0.123884E-03
      0.375000          0.118794E-03
      0.380000          0.114615E-03
      0.385000          0.111280E-03
      0.390000          0.108700E-03
      0.395000          0.106775E-03
      0.400000          0.105399E-03
      0.405000          0.104465E-03
      0.410000          0.103871E-03
      0.415000          0.103522E-03
      0.420000          0.103336E-03
      0.425000          0.103243E-03
      0.430000          0.103189E-03
      0.435000          0.103130E-03
      0.440000          0.103037E-03
      0.445000          0.102890E-03
      0.450000          0.102677E-03
      0.455000          0.102393E-03
      0.460000          0.102039E-03
      0.465000          0.101617E-03
      0.470000          0.101131E-03
      0.475000          0.100584E-03
      0.480000          0.999818E-04
      0.485000          0.993283E-04
      0.490000          0.986277E-04
      0.495000          0.978845E-04
      0.500000          0.971037E-04
