 I_abs(s)[cm^-1]/c[mg/ml]
       0.00000          0.139920E-01
      0.500000E-02      0.139421E-01
      0.100000E-01      0.137938E-01
      0.150000E-01      0.135506E-01
      0.200000E-01      0.132182E-01
      0.250000E-01      0.128043E-01
      0.300000E-01      0.123186E-01
      0.350000E-01      0.117717E-01
      0.400000E-01      0.111754E-01
      0.450000E-01      0.105421E-01
      0.500000E-01      0.988426E-02
      0.550000E-01      0.921400E-02
      0.600000E-01      0.854286E-02
      0.650000E-01      0.788138E-02
      0.700000E-01      0.723887E-02
      0.750000E-01      0.662318E-02
      0.800000E-01      0.604060E-02
      0.850000E-01      0.549578E-02
      0.900000E-01      0.499177E-02
      0.950000E-01      0.453008E-02
      0.100000          0.411084E-02
      0.105000          0.373294E-02
      0.110000          0.339430E-02
      0.115000          0.309204E-02
      0.120000          0.282276E-02
      0.125000          0.258275E-02
      0.130000          0.236821E-02
      0.135000          0.217542E-02
      0.140000          0.200093E-02
      0.145000          0.184163E-02
      0.150000          0.169486E-02
      0.155000          0.155846E-02
      0.160000          0.143075E-02
      0.165000          0.131053E-02
      0.170000          0.119702E-02
      0.175000          0.108980E-02
      0.180000          0.988730E-03
      0.185000          0.893881E-03
      0.190000          0.805438E-03
      0.195000          0.723631E-03
      0.200000          0.648674E-03
      0.205000          0.580708E-03
      0.210000          0.519764E-03
      0.215000          0.465746E-03
      0.220000          0.418415E-03
      0.225000          0.377401E-03
      0.230000          0.342213E-03
      0.235000          0.312269E-03
      0.240000          0.286918E-03
      0.245000          0.265479E-03
      0.250000          0.247268E-03
      0.255000          0.231630E-03
      0.260000          0.217961E-03
      0.265000          0.205735E-03
      0.270000          0.194510E-03
      0.275000          0.183941E-03
      0.280000          0.173776E-03
      0.285000          0.163857E-03
      0.290000          0.154109E-03
      0.295000          0.144525E-03
      0.300000          0.135155E-03
      0.305000          0.126086E-03
      0.310000          0.117431E-03
      0.315000          0.109307E-03
      0.320000          0.101831E-03
      0.325000          0.951004E-04
      0.330000          0.891915E-04
      0.335000          0.841512E-04
      0.340000          0.799961E-04
      0.345000          0.767125E-04
      0.350000          0.742591E-04
      0.355000          0.725710E-04
      0.360000          0.715654E-04
      0.365000          0.711472E-04
      0.370000          0.712157E-04
      0.375000          0.716701E-04
      0.380000          0.724149E-04
      0.385000          0.733639E-04
      0.390000          0.744436E-04
      0.395000          0.755950E-04
      0.400000          0.767744E-04
      0.405000          0.779531E-04
      0.410000          0.791162E-04
      0.415000          0.802606E-04
      0.420000          0.813928E-04
      0.425000          0.825258E-04
      0.430000          0.836766E-04
      0.435000          0.848635E-04
      0.440000          0.861038E-04
      0.445000          0.874115E-04
      0.450000          0.887966E-04
      0.455000          0.902634E-04
      0.460000          0.918103E-04
      0.465000          0.934303E-04
      0.470000          0.951107E-04
      0.475000          0.968345E-04
      0.480000          0.985811E-04
      0.485000          0.100327E-03
      0.490000          0.102049E-03
      0.495000          0.103722E-03
      0.500000          0.105322E-03
