 I_abs(s)[cm^-1]/c[mg/ml]
       0.00000          0.139375E-01
      0.500000E-02      0.138830E-01
      0.100000E-01      0.137212E-01
      0.150000E-01      0.134564E-01
      0.200000E-01      0.130958E-01
      0.250000E-01      0.126492E-01
      0.300000E-01      0.121280E-01
      0.350000E-01      0.115456E-01
      0.400000E-01      0.109161E-01
      0.450000E-01      0.102539E-01
      0.500000E-01      0.957362E-02
      0.550000E-01      0.888885E-02
      0.600000E-01      0.821220E-02
      0.650000E-01      0.755476E-02
      0.700000E-01      0.692579E-02
      0.750000E-01      0.633257E-02
      0.800000E-01      0.578032E-02
      0.850000E-01      0.527225E-02
      0.900000E-01      0.480964E-02
      0.950000E-01      0.439209E-02
      0.100000          0.401775E-02
      0.105000          0.368364E-02
      0.110000          0.338594E-02
      0.115000          0.312037E-02
      0.120000          0.288243E-02
      0.125000          0.266769E-02
      0.130000          0.247204E-02
      0.135000          0.229181E-02
      0.140000          0.212394E-02
      0.145000          0.196598E-02
      0.150000          0.181615E-02
      0.155000          0.167325E-02
      0.160000          0.153665E-02
      0.165000          0.140614E-02
      0.170000          0.128183E-02
      0.175000          0.116407E-02
      0.180000          0.105330E-02
      0.185000          0.949980E-03
      0.190000          0.854476E-03
      0.195000          0.767041E-03
      0.200000          0.687754E-03
      0.205000          0.616511E-03
      0.210000          0.553030E-03
      0.215000          0.496867E-03
      0.220000          0.447450E-03
      0.225000          0.404116E-03
      0.230000          0.366151E-03
      0.235000          0.332835E-03
      0.240000          0.303471E-03
      0.245000          0.277420E-03
      0.250000          0.254120E-03
      0.255000          0.233100E-03
      0.260000          0.213982E-03
      0.265000          0.196481E-03
      0.270000          0.180398E-03
      0.275000          0.165600E-03
      0.280000          0.152012E-03
      0.285000          0.139596E-03
      0.290000          0.128338E-03
      0.295000          0.118233E-03
      0.300000          0.109271E-03
      0.305000          0.101433E-03
      0.310000          0.946852E-04
      0.315000          0.889741E-04
      0.320000          0.842297E-04
      0.325000          0.803672E-04
      0.330000          0.772910E-04
      0.335000          0.748995E-04
      0.340000          0.730898E-04
      0.345000          0.717625E-04
      0.350000          0.708253E-04
      0.355000          0.701960E-04
      0.360000          0.698046E-04
      0.365000          0.695939E-04
      0.370000          0.695195E-04
      0.375000          0.695494E-04
      0.380000          0.696621E-04
      0.385000          0.698453E-04
      0.390000          0.700938E-04
      0.395000          0.704078E-04
      0.400000          0.707908E-04
      0.405000          0.712483E-04
      0.410000          0.717866E-04
      0.415000          0.724114E-04
      0.420000          0.731272E-04
      0.425000          0.739366E-04
      0.430000          0.748406E-04
      0.435000          0.758374E-04
      0.440000          0.769232E-04
      0.445000          0.780921E-04
      0.450000          0.793360E-04
      0.455000          0.806446E-04
      0.460000          0.820065E-04
      0.465000          0.834084E-04
      0.470000          0.848363E-04
      0.475000          0.862750E-04
      0.480000          0.877091E-04
      0.485000          0.891232E-04
      0.490000          0.905020E-04
      0.495000          0.918309E-04
      0.500000          0.930963E-04
