 I_abs(s)[cm^-1]/c[mg/ml]
       0.00000          0.138753E-01
      0.500000E-02      0.138195E-01
      0.100000E-01      0.136537E-01
      0.150000E-01      0.133827E-01
      0.200000E-01      0.130141E-01
      0.250000E-01      0.125581E-01
      0.300000E-01      0.120272E-01
      0.350000E-01      0.114352E-01
      0.400000E-01      0.107970E-01
      0.450000E-01      0.101278E-01
      0.500000E-01      0.944242E-02
      0.550000E-01      0.875494E-02
      0.600000E-01      0.807807E-02
      0.650000E-01      0.742284E-02
      0.700000E-01      0.679825E-02
      0.750000E-01      0.621120E-02
      0.800000E-01      0.566637E-02
      0.850000E-01      0.516638E-02
      0.900000E-01      0.471189E-02
      0.950000E-01      0.430191E-02
      0.100000          0.393407E-02
      0.105000          0.360499E-02
      0.110000          0.331064E-02
      0.115000          0.304661E-02
      0.120000          0.280852E-02
      0.125000          0.259219E-02
      0.130000          0.239386E-02
      0.135000          0.221036E-02
      0.140000          0.203915E-02
      0.145000          0.187834E-02
      0.150000          0.172666E-02
      0.155000          0.158338E-02
      0.160000          0.144820E-02
      0.165000          0.132114E-02
      0.170000          0.120241E-02
      0.175000          0.109226E-02
      0.180000          0.990958E-03
      0.185000          0.898627E-03
      0.190000          0.815239E-03
      0.195000          0.740569E-03
      0.200000          0.674200E-03
      0.205000          0.615535E-03
      0.210000          0.563836E-03
      0.215000          0.518268E-03
      0.220000          0.477954E-03
      0.225000          0.442021E-03
      0.230000          0.409652E-03
      0.235000          0.380119E-03
      0.240000          0.352814E-03
      0.245000          0.327265E-03
      0.250000          0.303133E-03
      0.255000          0.280212E-03
      0.260000          0.258407E-03
      0.265000          0.237713E-03
      0.270000          0.218189E-03
      0.275000          0.199929E-03
      0.280000          0.183037E-03
      0.285000          0.167604E-03
      0.290000          0.153693E-03
      0.295000          0.141324E-03
      0.300000          0.130470E-03
      0.305000          0.121057E-03
      0.310000          0.112970E-03
      0.315000          0.106061E-03
      0.320000          0.100159E-03
      0.325000          0.950857E-04
      0.330000          0.906648E-04
      0.335000          0.867354E-04
      0.340000          0.831598E-04
      0.345000          0.798307E-04
      0.350000          0.766744E-04
      0.355000          0.736516E-04
      0.360000          0.707554E-04
      0.365000          0.680066E-04
      0.370000          0.654480E-04
      0.375000          0.631367E-04
      0.380000          0.611371E-04
      0.385000          0.595127E-04
      0.390000          0.583196E-04
      0.395000          0.576008E-04
      0.400000          0.573818E-04
      0.405000          0.576682E-04
      0.410000          0.584446E-04
      0.415000          0.596750E-04
      0.420000          0.613056E-04
      0.425000          0.632675E-04
      0.430000          0.654813E-04
      0.435000          0.678620E-04
      0.440000          0.703240E-04
      0.445000          0.727861E-04
      0.450000          0.751762E-04
      0.455000          0.774347E-04
      0.460000          0.795181E-04
      0.465000          0.814000E-04
      0.470000          0.830721E-04
      0.475000          0.845435E-04
      0.480000          0.858388E-04
      0.485000          0.869952E-04
      0.490000          0.880590E-04
      0.495000          0.890814E-04
      0.500000          0.901140E-04
