 I_abs(s)[cm^-1]/c[mg/ml]
       0.00000          0.146701E-01
      0.500000E-02      0.146208E-01
      0.100000E-01      0.144741E-01
      0.150000E-01      0.142330E-01
      0.200000E-01      0.139027E-01
      0.250000E-01      0.134903E-01
      0.300000E-01      0.130043E-01
      0.350000E-01      0.124543E-01
      0.400000E-01      0.118510E-01
      0.450000E-01      0.112057E-01
      0.500000E-01      0.105297E-01
      0.550000E-01      0.983415E-02
      0.600000E-01      0.912993E-02
      0.650000E-01      0.842701E-02
      0.700000E-01      0.773446E-02
      0.750000E-01      0.706021E-02
      0.800000E-01      0.641097E-02
      0.850000E-01      0.579217E-02
      0.900000E-01      0.520796E-02
      0.950000E-01      0.466128E-02
      0.100000          0.415394E-02
      0.105000          0.368672E-02
      0.110000          0.325955E-02
      0.115000          0.287164E-02
      0.120000          0.252161E-02
      0.125000          0.220766E-02
      0.130000          0.192769E-02
      0.135000          0.167941E-02
      0.140000          0.146043E-02
      0.145000          0.126836E-02
      0.150000          0.110082E-02
      0.155000          0.955524E-03
      0.160000          0.830283E-03
      0.165000          0.723017E-03
      0.170000          0.631764E-03
      0.175000          0.554683E-03
      0.180000          0.490052E-03
      0.185000          0.436263E-03
      0.190000          0.391826E-03
      0.195000          0.355368E-03
      0.200000          0.325631E-03
      0.205000          0.301479E-03
      0.210000          0.281901E-03
      0.215000          0.266011E-03
      0.220000          0.253045E-03
      0.225000          0.242368E-03
      0.230000          0.233460E-03
      0.235000          0.225912E-03
      0.240000          0.219413E-03
      0.245000          0.213740E-03
      0.250000          0.208740E-03
      0.255000          0.204314E-03
      0.260000          0.200403E-03
      0.265000          0.196975E-03
      0.270000          0.194006E-03
      0.275000          0.191477E-03
      0.280000          0.189362E-03
      0.285000          0.187622E-03
      0.290000          0.186208E-03
      0.295000          0.185059E-03
      0.300000          0.184102E-03
      0.305000          0.183260E-03
      0.310000          0.182454E-03
      0.315000          0.181609E-03
      0.320000          0.180659E-03
      0.325000          0.179548E-03
      0.330000          0.178235E-03
      0.335000          0.176694E-03
      0.340000          0.174916E-03
      0.345000          0.172906E-03
      0.350000          0.170679E-03
      0.355000          0.168261E-03
      0.360000          0.165687E-03
      0.365000          0.162990E-03
      0.370000          0.160207E-03
      0.375000          0.157372E-03
      0.380000          0.154513E-03
      0.385000          0.151654E-03
      0.390000          0.148812E-03
      0.395000          0.145998E-03
      0.400000          0.143218E-03
      0.405000          0.140471E-03
      0.410000          0.137756E-03
      0.415000          0.135068E-03
      0.420000          0.132401E-03
      0.425000          0.129752E-03
      0.430000          0.127118E-03
      0.435000          0.124499E-03
      0.440000          0.121900E-03
      0.445000          0.119327E-03
      0.450000          0.116791E-03
      0.455000          0.114305E-03
      0.460000          0.111885E-03
      0.465000          0.109549E-03
      0.470000          0.107314E-03
      0.475000          0.105201E-03
      0.480000          0.103225E-03
      0.485000          0.101404E-03
      0.490000          0.997514E-04
      0.495000          0.982781E-04
      0.500000          0.969916E-04
