 I_abs(s)[cm^-1]/c[mg/ml]
       0.00000          0.139297E-01
      0.500000E-02      0.138757E-01
      0.100000E-01      0.137151E-01
      0.150000E-01      0.134524E-01
      0.200000E-01      0.130947E-01
      0.250000E-01      0.126515E-01
      0.300000E-01      0.121344E-01
      0.350000E-01      0.115564E-01
      0.400000E-01      0.109314E-01
      0.450000E-01      0.102739E-01
      0.500000E-01      0.959785E-02
      0.550000E-01      0.891686E-02
      0.600000E-01      0.824325E-02
      0.650000E-01      0.758786E-02
      0.700000E-01      0.695977E-02
      0.750000E-01      0.636612E-02
      0.800000E-01      0.581205E-02
      0.850000E-01      0.530077E-02
      0.900000E-01      0.483364E-02
      0.950000E-01      0.441044E-02
      0.100000          0.402955E-02
      0.105000          0.368830E-02
      0.110000          0.338324E-02
      0.115000          0.311043E-02
      0.120000          0.286578E-02
      0.125000          0.264519E-02
      0.130000          0.244486E-02
      0.135000          0.226136E-02
      0.140000          0.209174E-02
      0.145000          0.193361E-02
      0.150000          0.178513E-02
      0.155000          0.164498E-02
      0.160000          0.151227E-02
      0.165000          0.138651E-02
      0.170000          0.126750E-02
      0.175000          0.115522E-02
      0.180000          0.104980E-02
      0.185000          0.951358E-03
      0.190000          0.860033E-03
      0.195000          0.775877E-03
      0.200000          0.698851E-03
      0.205000          0.628808E-03
      0.210000          0.565495E-03
      0.215000          0.508559E-03
      0.220000          0.457574E-03
      0.225000          0.412054E-03
      0.230000          0.371485E-03
      0.235000          0.335345E-03
      0.240000          0.303127E-03
      0.245000          0.274354E-03
      0.250000          0.248594E-03
      0.255000          0.225466E-03
      0.260000          0.204642E-03
      0.265000          0.185850E-03
      0.270000          0.168869E-03
      0.275000          0.153522E-03
      0.280000          0.139669E-03
      0.285000          0.127199E-03
      0.290000          0.116024E-03
      0.295000          0.106071E-03
      0.300000          0.972769E-04
      0.305000          0.895820E-04
      0.310000          0.829284E-04
      0.315000          0.772570E-04
      0.320000          0.725065E-04
      0.325000          0.686129E-04
      0.330000          0.655103E-04
      0.335000          0.631312E-04
      0.340000          0.614077E-04
      0.345000          0.602731E-04
      0.350000          0.596625E-04
      0.355000          0.595141E-04
      0.360000          0.597700E-04
      0.365000          0.603766E-04
      0.370000          0.612853E-04
      0.375000          0.624524E-04
      0.380000          0.638390E-04
      0.385000          0.654109E-04
      0.390000          0.671380E-04
      0.395000          0.689940E-04
      0.400000          0.709556E-04
      0.405000          0.730022E-04
      0.410000          0.751152E-04
      0.415000          0.772773E-04
      0.420000          0.794722E-04
      0.425000          0.816845E-04
      0.430000          0.838989E-04
      0.435000          0.861002E-04
      0.440000          0.882734E-04
      0.445000          0.904034E-04
      0.450000          0.924753E-04
      0.455000          0.944741E-04
      0.460000          0.963857E-04
      0.465000          0.981963E-04
      0.470000          0.998932E-04
      0.475000          0.101465E-03
      0.480000          0.102901E-03
      0.485000          0.104193E-03
      0.490000          0.105336E-03
      0.495000          0.106324E-03
      0.500000          0.107155E-03
