 I_abs(s)[cm^-1]/c[mg/ml]
       0.00000          0.145555E-01
      0.500000E-02      0.144813E-01
      0.100000E-01      0.142615E-01
      0.150000E-01      0.139046E-01
      0.200000E-01      0.134242E-01
      0.250000E-01      0.128378E-01
      0.300000E-01      0.121659E-01
      0.350000E-01      0.114307E-01
      0.400000E-01      0.106546E-01
      0.450000E-01      0.985917E-02
      0.500000E-01      0.906386E-02
      0.550000E-01      0.828540E-02
      0.600000E-01      0.753723E-02
      0.650000E-01      0.682927E-02
      0.700000E-01      0.616804E-02
      0.750000E-01      0.555698E-02
      0.800000E-01      0.499690E-02
      0.850000E-01      0.448659E-02
      0.900000E-01      0.402344E-02
      0.950000E-01      0.360401E-02
      0.100000          0.322454E-02
      0.105000          0.288131E-02
      0.110000          0.257089E-02
      0.115000          0.229032E-02
      0.120000          0.203707E-02
      0.125000          0.180908E-02
      0.130000          0.160458E-02
      0.135000          0.142203E-02
      0.140000          0.125999E-02
      0.145000          0.111705E-02
      0.150000          0.991770E-03
      0.155000          0.882648E-03
      0.160000          0.788138E-03
      0.165000          0.706674E-03
      0.170000          0.636709E-03
      0.175000          0.576759E-03
      0.180000          0.525432E-03
      0.185000          0.481461E-03
      0.190000          0.443716E-03
      0.195000          0.411208E-03
      0.200000          0.383087E-03
      0.205000          0.358629E-03
      0.210000          0.337222E-03
      0.215000          0.318357E-03
      0.220000          0.301614E-03
      0.225000          0.286650E-03
      0.230000          0.273188E-03
      0.235000          0.261011E-03
      0.240000          0.249954E-03
      0.245000          0.239888E-03
      0.250000          0.230716E-03
      0.255000          0.222362E-03
      0.260000          0.214760E-03
      0.265000          0.207848E-03
      0.270000          0.201565E-03
      0.275000          0.195845E-03
      0.280000          0.190622E-03
      0.285000          0.185828E-03
      0.290000          0.181399E-03
      0.295000          0.177278E-03
      0.300000          0.173415E-03
      0.305000          0.169768E-03
      0.310000          0.166306E-03
      0.315000          0.163002E-03
      0.320000          0.159830E-03
      0.325000          0.156768E-03
      0.330000          0.153786E-03
      0.335000          0.150858E-03
      0.340000          0.147951E-03
      0.345000          0.145037E-03
      0.350000          0.142091E-03
      0.355000          0.139100E-03
      0.360000          0.136061E-03
      0.365000          0.132985E-03
      0.370000          0.129896E-03
      0.375000          0.126828E-03
      0.380000          0.123820E-03
      0.385000          0.120912E-03
      0.390000          0.118136E-03
      0.395000          0.115514E-03
      0.400000          0.113054E-03
      0.405000          0.110750E-03
      0.410000          0.108583E-03
      0.415000          0.106526E-03
      0.420000          0.104548E-03
      0.425000          0.102624E-03
      0.430000          0.100733E-03
      0.435000          0.988677E-04
      0.440000          0.970348E-04
      0.445000          0.952518E-04
      0.450000          0.935453E-04
      0.455000          0.919458E-04
      0.460000          0.904822E-04
      0.465000          0.891762E-04
      0.470000          0.880385E-04
      0.475000          0.870662E-04
      0.480000          0.862435E-04
      0.485000          0.855431E-04
      0.490000          0.849314E-04
      0.495000          0.843726E-04
      0.500000          0.838348E-04
