 I_abs(s)[cm^-1]/c[mg/ml]
       0.00000          0.147306E-01
      0.500000E-02      0.146850E-01
      0.100000E-01      0.145493E-01
      0.150000E-01      0.143256E-01
      0.200000E-01      0.140179E-01
      0.250000E-01      0.136316E-01
      0.300000E-01      0.131732E-01
      0.350000E-01      0.126503E-01
      0.400000E-01      0.120715E-01
      0.450000E-01      0.114459E-01
      0.500000E-01      0.107832E-01
      0.550000E-01      0.100933E-01
      0.600000E-01      0.938582E-02
      0.650000E-01      0.867038E-02
      0.700000E-01      0.795603E-02
      0.750000E-01      0.725124E-02
      0.800000E-01      0.656366E-02
      0.850000E-01      0.590009E-02
      0.900000E-01      0.526634E-02
      0.950000E-01      0.466719E-02
      0.100000          0.410639E-02
      0.105000          0.358666E-02
      0.110000          0.310972E-02
      0.115000          0.267637E-02
      0.120000          0.228656E-02
      0.125000          0.193950E-02
      0.130000          0.163374E-02
      0.135000          0.136730E-02
      0.140000          0.113780E-02
      0.145000          0.942505E-03
      0.150000          0.778511E-03
      0.155000          0.642780E-03
      0.160000          0.532246E-03
      0.165000          0.443888E-03
      0.170000          0.374786E-03
      0.175000          0.322170E-03
      0.180000          0.283457E-03
      0.185000          0.256272E-03
      0.190000          0.238471E-03
      0.195000          0.228136E-03
      0.200000          0.223584E-03
      0.205000          0.223354E-03
      0.210000          0.226196E-03
      0.215000          0.231059E-03
      0.220000          0.237075E-03
      0.225000          0.243537E-03
      0.230000          0.249886E-03
      0.235000          0.255691E-03
      0.240000          0.260634E-03
      0.245000          0.264492E-03
      0.250000          0.267125E-03
      0.255000          0.268463E-03
      0.260000          0.268492E-03
      0.265000          0.267245E-03
      0.270000          0.264792E-03
      0.275000          0.261233E-03
      0.280000          0.256686E-03
      0.285000          0.251288E-03
      0.290000          0.245178E-03
      0.295000          0.238505E-03
      0.300000          0.231410E-03
      0.305000          0.224032E-03
      0.310000          0.216500E-03
      0.315000          0.208933E-03
      0.320000          0.201435E-03
      0.325000          0.194096E-03
      0.330000          0.186988E-03
      0.335000          0.180172E-03
      0.340000          0.173689E-03
      0.345000          0.167568E-03
      0.350000          0.161822E-03
      0.355000          0.156454E-03
      0.360000          0.151455E-03
      0.365000          0.146809E-03
      0.370000          0.142491E-03
      0.375000          0.138471E-03
      0.380000          0.134719E-03
      0.385000          0.131200E-03
      0.390000          0.127880E-03
      0.395000          0.124729E-03
      0.400000          0.121716E-03
      0.405000          0.118816E-03
      0.410000          0.116007E-03
      0.415000          0.113274E-03
      0.420000          0.110603E-03
      0.425000          0.107989E-03
      0.430000          0.105429E-03
      0.435000          0.102925E-03
      0.440000          0.100484E-03
      0.445000          0.981141E-04
      0.450000          0.958280E-04
      0.455000          0.936387E-04
      0.460000          0.915604E-04
      0.465000          0.896073E-04
      0.470000          0.877926E-04
      0.475000          0.861280E-04
      0.480000          0.846232E-04
      0.485000          0.832847E-04
      0.490000          0.821161E-04
      0.495000          0.811173E-04
      0.500000          0.802845E-04
