 I_abs(s)[cm^-1]/c[mg/ml]
       0.00000          0.144367E-01
      0.500000E-02      0.143938E-01
      0.100000E-01      0.142660E-01
      0.150000E-01      0.140556E-01
      0.200000E-01      0.137667E-01
      0.250000E-01      0.134047E-01
      0.300000E-01      0.129763E-01
      0.350000E-01      0.124890E-01
      0.400000E-01      0.119514E-01
      0.450000E-01      0.113725E-01
      0.500000E-01      0.107615E-01
      0.550000E-01      0.101279E-01
      0.600000E-01      0.948068E-02
      0.650000E-01      0.882856E-02
      0.700000E-01      0.817960E-02
      0.750000E-01      0.754107E-02
      0.800000E-01      0.691939E-02
      0.850000E-01      0.631997E-02
      0.900000E-01      0.574726E-02
      0.950000E-01      0.520467E-02
      0.100000          0.469467E-02
      0.105000          0.421883E-02
      0.110000          0.377789E-02
      0.115000          0.337187E-02
      0.120000          0.300020E-02
      0.125000          0.266181E-02
      0.130000          0.235525E-02
      0.135000          0.207881E-02
      0.140000          0.183060E-02
      0.145000          0.160862E-02
      0.150000          0.141087E-02
      0.155000          0.123538E-02
      0.160000          0.108023E-02
      0.165000          0.943610E-03
      0.170000          0.823821E-03
      0.175000          0.719276E-03
      0.180000          0.628503E-03
      0.185000          0.550137E-03
      0.190000          0.482913E-03
      0.195000          0.425650E-03
      0.200000          0.377249E-03
      0.205000          0.336677E-03
      0.210000          0.302967E-03
      0.215000          0.275213E-03
      0.220000          0.252566E-03
      0.225000          0.234240E-03
      0.230000          0.219507E-03
      0.235000          0.207707E-03
      0.240000          0.198246E-03
      0.245000          0.190600E-03
      0.250000          0.184316E-03
      0.255000          0.179012E-03
      0.260000          0.174373E-03
      0.265000          0.170151E-03
      0.270000          0.166156E-03
      0.275000          0.162254E-03
      0.280000          0.158355E-03
      0.285000          0.154411E-03
      0.290000          0.150404E-03
      0.295000          0.146337E-03
      0.300000          0.142233E-03
      0.305000          0.138123E-03
      0.310000          0.134045E-03
      0.315000          0.130036E-03
      0.320000          0.126131E-03
      0.325000          0.122364E-03
      0.330000          0.118759E-03
      0.335000          0.115338E-03
      0.340000          0.112115E-03
      0.345000          0.109100E-03
      0.350000          0.106299E-03
      0.355000          0.103713E-03
      0.360000          0.101341E-03
      0.365000          0.991797E-04
      0.370000          0.972228E-04
      0.375000          0.954638E-04
      0.380000          0.938940E-04
      0.385000          0.925038E-04
      0.390000          0.912820E-04
      0.395000          0.902161E-04
      0.400000          0.892920E-04
      0.405000          0.884945E-04
      0.410000          0.878069E-04
      0.415000          0.872114E-04
      0.420000          0.866896E-04
      0.425000          0.862223E-04
      0.430000          0.857905E-04
      0.435000          0.853754E-04
      0.440000          0.849590E-04
      0.445000          0.845248E-04
      0.450000          0.840576E-04
      0.455000          0.835442E-04
      0.460000          0.829737E-04
      0.465000          0.823374E-04
      0.470000          0.816292E-04
      0.475000          0.808453E-04
      0.480000          0.799845E-04
      0.485000          0.790476E-04
      0.490000          0.780377E-04
      0.495000          0.769596E-04
      0.500000          0.758197E-04
