 I_abs(s)[cm^-1]/c[mg/ml]
       0.00000          0.145873E-01
      0.500000E-02      0.145457E-01
      0.100000E-01      0.144219E-01
      0.150000E-01      0.142179E-01
      0.200000E-01      0.139371E-01
      0.250000E-01      0.135842E-01
      0.300000E-01      0.131651E-01
      0.350000E-01      0.126865E-01
      0.400000E-01      0.121560E-01
      0.450000E-01      0.115818E-01
      0.500000E-01      0.109723E-01
      0.550000E-01      0.103365E-01
      0.600000E-01      0.968293E-02
      0.650000E-01      0.902017E-02
      0.700000E-01      0.835633E-02
      0.750000E-01      0.769899E-02
      0.800000E-01      0.705505E-02
      0.850000E-01      0.643062E-02
      0.900000E-01      0.583097E-02
      0.950000E-01      0.526044E-02
      0.100000          0.472246E-02
      0.105000          0.421954E-02
      0.110000          0.375330E-02
      0.115000          0.332456E-02
      0.120000          0.293336E-02
      0.125000          0.257910E-02
      0.130000          0.226061E-02
      0.135000          0.197623E-02
      0.140000          0.172396E-02
      0.145000          0.150154E-02
      0.150000          0.130654E-02
      0.155000          0.113645E-02
      0.160000          0.988747E-03
      0.165000          0.860987E-03
      0.170000          0.750829E-03
      0.175000          0.656090E-03
      0.180000          0.574768E-03
      0.185000          0.505060E-03
      0.190000          0.445365E-03
      0.195000          0.394287E-03
      0.200000          0.350620E-03
      0.205000          0.313337E-03
      0.210000          0.281569E-03
      0.215000          0.254585E-03
      0.220000          0.231771E-03
      0.225000          0.212608E-03
      0.230000          0.196651E-03
      0.235000          0.183514E-03
      0.240000          0.172854E-03
      0.245000          0.164360E-03
      0.250000          0.157741E-03
      0.255000          0.152723E-03
      0.260000          0.149045E-03
      0.265000          0.146456E-03
      0.270000          0.144718E-03
      0.275000          0.143604E-03
      0.280000          0.142907E-03
      0.285000          0.142438E-03
      0.290000          0.142027E-03
      0.295000          0.141534E-03
      0.300000          0.140843E-03
      0.305000          0.139866E-03
      0.310000          0.138545E-03
      0.315000          0.136847E-03
      0.320000          0.134767E-03
      0.325000          0.132322E-03
      0.330000          0.129550E-03
      0.335000          0.126504E-03
      0.340000          0.123250E-03
      0.345000          0.119862E-03
      0.350000          0.116416E-03
      0.355000          0.112989E-03
      0.360000          0.109653E-03
      0.365000          0.106474E-03
      0.370000          0.103507E-03
      0.375000          0.100796E-03
      0.380000          0.983717E-04
      0.385000          0.962516E-04
      0.390000          0.944405E-04
      0.395000          0.929304E-04
      0.400000          0.917026E-04
      0.405000          0.907284E-04
      0.410000          0.899721E-04
      0.415000          0.893923E-04
      0.420000          0.889447E-04
      0.425000          0.885840E-04
      0.430000          0.882659E-04
      0.435000          0.879494E-04
      0.440000          0.875978E-04
      0.445000          0.871805E-04
      0.450000          0.866735E-04
      0.455000          0.860602E-04
      0.460000          0.853312E-04
      0.465000          0.844847E-04
      0.470000          0.835254E-04
      0.475000          0.824638E-04
      0.480000          0.813155E-04
      0.485000          0.800999E-04
      0.490000          0.788389E-04
      0.495000          0.775558E-04
      0.500000          0.762736E-04
