 I_abs(s)[cm^-1]/c[mg/ml]
       0.00000          0.147785E-01
      0.500000E-02      0.147383E-01
      0.100000E-01      0.146184E-01
      0.150000E-01      0.144207E-01
      0.200000E-01      0.141481E-01
      0.250000E-01      0.138049E-01
      0.300000E-01      0.133962E-01
      0.350000E-01      0.129281E-01
      0.400000E-01      0.124074E-01
      0.450000E-01      0.118414E-01
      0.500000E-01      0.112382E-01
      0.550000E-01      0.106056E-01
      0.600000E-01      0.995191E-02
      0.650000E-01      0.928517E-02
      0.700000E-01      0.861321E-02
      0.750000E-01      0.794349E-02
      0.800000E-01      0.728293E-02
      0.850000E-01      0.663785E-02
      0.900000E-01      0.601386E-02
      0.950000E-01      0.541579E-02
      0.100000          0.484770E-02
      0.105000          0.431278E-02
      0.110000          0.381344E-02
      0.115000          0.335129E-02
      0.120000          0.292719E-02
      0.125000          0.254129E-02
      0.130000          0.219315E-02
      0.135000          0.188177E-02
      0.140000          0.160568E-02
      0.145000          0.136305E-02
      0.150000          0.115175E-02
      0.155000          0.969438E-03
      0.160000          0.813659E-03
      0.165000          0.681883E-03
      0.170000          0.571584E-03
      0.175000          0.480294E-03
      0.180000          0.405645E-03
      0.185000          0.345399E-03
      0.190000          0.297480E-03
      0.195000          0.259988E-03
      0.200000          0.231205E-03
      0.205000          0.209603E-03
      0.210000          0.193834E-03
      0.215000          0.182728E-03
      0.220000          0.175279E-03
      0.225000          0.170631E-03
      0.230000          0.168064E-03
      0.235000          0.166982E-03
      0.240000          0.166892E-03
      0.245000          0.167395E-03
      0.250000          0.168170E-03
      0.255000          0.168965E-03
      0.260000          0.169586E-03
      0.265000          0.169885E-03
      0.270000          0.169759E-03
      0.275000          0.169140E-03
      0.280000          0.167990E-03
      0.285000          0.166297E-03
      0.290000          0.164073E-03
      0.295000          0.161349E-03
      0.300000          0.158174E-03
      0.305000          0.154609E-03
      0.310000          0.150725E-03
      0.315000          0.146603E-03
      0.320000          0.142326E-03
      0.325000          0.137982E-03
      0.330000          0.133656E-03
      0.335000          0.129429E-03
      0.340000          0.125376E-03
      0.345000          0.121564E-03
      0.350000          0.118049E-03
      0.355000          0.114875E-03
      0.360000          0.112074E-03
      0.365000          0.109664E-03
      0.370000          0.107651E-03
      0.375000          0.106029E-03
      0.380000          0.104780E-03
      0.385000          0.103875E-03
      0.390000          0.103278E-03
      0.395000          0.102947E-03
      0.400000          0.102833E-03
      0.405000          0.102888E-03
      0.410000          0.103061E-03
      0.415000          0.103302E-03
      0.420000          0.103566E-03
      0.425000          0.103809E-03
      0.430000          0.103994E-03
      0.435000          0.104090E-03
      0.440000          0.104072E-03
      0.445000          0.103920E-03
      0.450000          0.103623E-03
      0.455000          0.103175E-03
      0.460000          0.102575E-03
      0.465000          0.101827E-03
      0.470000          0.100939E-03
      0.475000          0.999243E-04
      0.480000          0.987957E-04
      0.485000          0.975693E-04
      0.490000          0.962615E-04
      0.495000          0.948892E-04
      0.500000          0.934686E-04
