 I_abs(s)[cm^-1]/c[mg/ml]
       0.00000          0.147066E-01
      0.500000E-02      0.146686E-01
      0.100000E-01      0.145550E-01
      0.150000E-01      0.143676E-01
      0.200000E-01      0.141089E-01
      0.250000E-01      0.137828E-01
      0.300000E-01      0.133939E-01
      0.350000E-01      0.129475E-01
      0.400000E-01      0.124499E-01
      0.450000E-01      0.119077E-01
      0.500000E-01      0.113281E-01
      0.550000E-01      0.107184E-01
      0.600000E-01      0.100863E-01
      0.650000E-01      0.943921E-02
      0.700000E-01      0.878454E-02
      0.750000E-01      0.812939E-02
      0.800000E-01      0.748046E-02
      0.850000E-01      0.684394E-02
      0.900000E-01      0.622542E-02
      0.950000E-01      0.562985E-02
      0.100000          0.506146E-02
      0.105000          0.452374E-02
      0.110000          0.401942E-02
      0.115000          0.355051E-02
      0.120000          0.311827E-02
      0.125000          0.272329E-02
      0.130000          0.236550E-02
      0.135000          0.204429E-02
      0.140000          0.175851E-02
      0.145000          0.150660E-02
      0.150000          0.128664E-02
      0.155000          0.109643E-02
      0.160000          0.933559E-03
      0.165000          0.795514E-03
      0.170000          0.679707E-03
      0.175000          0.583557E-03
      0.180000          0.504544E-03
      0.185000          0.440252E-03
      0.190000          0.388410E-03
      0.195000          0.346921E-03
      0.200000          0.313881E-03
      0.205000          0.287597E-03
      0.210000          0.266590E-03
      0.215000          0.249594E-03
      0.220000          0.235552E-03
      0.225000          0.223604E-03
      0.230000          0.213071E-03
      0.235000          0.203440E-03
      0.240000          0.194341E-03
      0.245000          0.185532E-03
      0.250000          0.176871E-03
      0.255000          0.168303E-03
      0.260000          0.159836E-03
      0.265000          0.151523E-03
      0.270000          0.143450E-03
      0.275000          0.135719E-03
      0.280000          0.128434E-03
      0.285000          0.121696E-03
      0.290000          0.115595E-03
      0.295000          0.110198E-03
      0.300000          0.105556E-03
      0.305000          0.101692E-03
      0.310000          0.986077E-04
      0.315000          0.962804E-04
      0.320000          0.946668E-04
      0.325000          0.937054E-04
      0.330000          0.933191E-04
      0.335000          0.934192E-04
      0.340000          0.939093E-04
      0.345000          0.946888E-04
      0.350000          0.956565E-04
      0.355000          0.967138E-04
      0.360000          0.977680E-04
      0.365000          0.987347E-04
      0.370000          0.995396E-04
      0.375000          0.100120E-03
      0.380000          0.100428E-03
      0.385000          0.100426E-03
      0.390000          0.100092E-03
      0.395000          0.994181E-04
      0.400000          0.984075E-04
      0.405000          0.970755E-04
      0.410000          0.954477E-04
      0.415000          0.935584E-04
      0.420000          0.914488E-04
      0.425000          0.891656E-04
      0.430000          0.867587E-04
      0.435000          0.842797E-04
      0.440000          0.817804E-04
      0.445000          0.793105E-04
      0.450000          0.769171E-04
      0.455000          0.746427E-04
      0.460000          0.725245E-04
      0.465000          0.705935E-04
      0.470000          0.688742E-04
      0.475000          0.673839E-04
      0.480000          0.661329E-04
      0.485000          0.651245E-04
      0.490000          0.643556E-04
      0.495000          0.638167E-04
      0.500000          0.634932E-04
