 I_abs(s)[cm^-1]/c[mg/ml]
       0.00000          0.146588E-01
      0.500000E-02      0.146220E-01
      0.100000E-01      0.145122E-01
      0.150000E-01      0.143308E-01
      0.200000E-01      0.140807E-01
      0.250000E-01      0.137653E-01
      0.300000E-01      0.133892E-01
      0.350000E-01      0.129576E-01
      0.400000E-01      0.124765E-01
      0.450000E-01      0.119524E-01
      0.500000E-01      0.113922E-01
      0.550000E-01      0.108029E-01
      0.600000E-01      0.101919E-01
      0.650000E-01      0.956630E-02
      0.700000E-01      0.893317E-02
      0.750000E-01      0.829924E-02
      0.800000E-01      0.767086E-02
      0.850000E-01      0.705385E-02
      0.900000E-01      0.645346E-02
      0.950000E-01      0.587429E-02
      0.100000          0.532025E-02
      0.105000          0.479455E-02
      0.110000          0.429968E-02
      0.115000          0.383743E-02
      0.120000          0.340891E-02
      0.125000          0.301461E-02
      0.130000          0.265445E-02
      0.135000          0.232783E-02
      0.140000          0.203370E-02
      0.145000          0.177065E-02
      0.150000          0.153697E-02
      0.155000          0.133073E-02
      0.160000          0.114986E-02
      0.165000          0.992168E-03
      0.170000          0.855474E-03
      0.175000          0.737604E-03
      0.180000          0.636453E-03
      0.185000          0.550025E-03
      0.190000          0.476451E-03
      0.195000          0.414016E-03
      0.200000          0.361165E-03
      0.205000          0.316510E-03
      0.210000          0.278829E-03
      0.215000          0.247058E-03
      0.220000          0.220283E-03
      0.225000          0.197727E-03
      0.230000          0.178735E-03
      0.235000          0.162756E-03
      0.240000          0.149333E-03
      0.245000          0.138084E-03
      0.250000          0.128687E-03
      0.255000          0.120873E-03
      0.260000          0.114411E-03
      0.265000          0.109101E-03
      0.270000          0.104766E-03
      0.275000          0.101251E-03
      0.280000          0.984151E-04
      0.285000          0.961306E-04
      0.290000          0.942841E-04
      0.295000          0.927742E-04
      0.300000          0.915126E-04
      0.305000          0.904241E-04
      0.310000          0.894474E-04
      0.315000          0.885348E-04
      0.320000          0.876526E-04
      0.325000          0.867801E-04
      0.330000          0.859086E-04
      0.335000          0.850403E-04
      0.340000          0.841860E-04
      0.345000          0.833633E-04
      0.350000          0.825941E-04
      0.355000          0.819024E-04
      0.360000          0.813117E-04
      0.365000          0.808432E-04
      0.370000          0.805139E-04
      0.375000          0.803349E-04
      0.380000          0.803106E-04
      0.385000          0.804379E-04
      0.390000          0.807061E-04
      0.395000          0.810976E-04
      0.400000          0.815880E-04
      0.405000          0.821478E-04
      0.410000          0.827432E-04
      0.415000          0.833382E-04
      0.420000          0.838958E-04
      0.425000          0.843799E-04
      0.430000          0.847570E-04
      0.435000          0.849972E-04
      0.440000          0.850757E-04
      0.445000          0.849739E-04
      0.450000          0.846796E-04
      0.455000          0.841878E-04
      0.460000          0.835002E-04
      0.465000          0.826254E-04
      0.470000          0.815779E-04
      0.475000          0.803776E-04
      0.480000          0.790486E-04
      0.485000          0.776182E-04
      0.490000          0.761156E-04
      0.495000          0.745707E-04
      0.500000          0.730131E-04
