 I_abs(s)[cm^-1]/c[mg/ml]
       0.00000          0.148425E-01
      0.500000E-02      0.147923E-01
      0.100000E-01      0.146428E-01
      0.150000E-01      0.143972E-01
      0.200000E-01      0.140609E-01
      0.250000E-01      0.136409E-01
      0.300000E-01      0.131460E-01
      0.350000E-01      0.125861E-01
      0.400000E-01      0.119722E-01
      0.450000E-01      0.113157E-01
      0.500000E-01      0.106283E-01
      0.550000E-01      0.992167E-02
      0.600000E-01      0.920674E-02
      0.650000E-01      0.849388E-02
      0.700000E-01      0.779242E-02
      0.750000E-01      0.711051E-02
      0.800000E-01      0.645506E-02
      0.850000E-01      0.583162E-02
      0.900000E-01      0.524439E-02
      0.950000E-01      0.469630E-02
      0.100000          0.418905E-02
      0.105000          0.372328E-02
      0.110000          0.329868E-02
      0.115000          0.291418E-02
      0.120000          0.256805E-02
      0.125000          0.225816E-02
      0.130000          0.198203E-02
      0.135000          0.173701E-02
      0.140000          0.152039E-02
      0.145000          0.132950E-02
      0.150000          0.116175E-02
      0.155000          0.101471E-02
      0.160000          0.886134E-03
      0.165000          0.773971E-03
      0.170000          0.676375E-03
      0.175000          0.591699E-03
      0.180000          0.518477E-03
      0.185000          0.455412E-03
      0.190000          0.401354E-03
      0.195000          0.355280E-03
      0.200000          0.316279E-03
      0.205000          0.283534E-03
      0.210000          0.256304E-03
      0.215000          0.233920E-03
      0.220000          0.215769E-03
      0.225000          0.201292E-03
      0.230000          0.189974E-03
      0.235000          0.181345E-03
      0.240000          0.174974E-03
      0.245000          0.170468E-03
      0.250000          0.167471E-03
      0.255000          0.165662E-03
      0.260000          0.164756E-03
      0.265000          0.164502E-03
      0.270000          0.164680E-03
      0.275000          0.165106E-03
      0.280000          0.165624E-03
      0.285000          0.166109E-03
      0.290000          0.166463E-03
      0.295000          0.166616E-03
      0.300000          0.166518E-03
      0.305000          0.166142E-03
      0.310000          0.165479E-03
      0.315000          0.164533E-03
      0.320000          0.163320E-03
      0.325000          0.161863E-03
      0.330000          0.160191E-03
      0.335000          0.158332E-03
      0.340000          0.156316E-03
      0.345000          0.154169E-03
      0.350000          0.151912E-03
      0.355000          0.149562E-03
      0.360000          0.147130E-03
      0.365000          0.144623E-03
      0.370000          0.142041E-03
      0.375000          0.139385E-03
      0.380000          0.136651E-03
      0.385000          0.133836E-03
      0.390000          0.130941E-03
      0.395000          0.127966E-03
      0.400000          0.124918E-03
      0.405000          0.121807E-03
      0.410000          0.118650E-03
      0.415000          0.115467E-03
      0.420000          0.112285E-03
      0.425000          0.109133E-03
      0.430000          0.106042E-03
      0.435000          0.103045E-03
      0.440000          0.100174E-03
      0.445000          0.974591E-04
      0.450000          0.949254E-04
      0.455000          0.925934E-04
      0.460000          0.904774E-04
      0.465000          0.885846E-04
      0.470000          0.869148E-04
      0.475000          0.854607E-04
      0.480000          0.842080E-04
      0.485000          0.831367E-04
      0.490000          0.822220E-04
      0.495000          0.814357E-04
      0.500000          0.807474E-04
