 I_abs(s)[cm^-1]/c[mg/ml]
       0.00000          0.147785E-01
      0.500000E-02      0.147321E-01
      0.100000E-01      0.145938E-01
      0.150000E-01      0.143664E-01
      0.200000E-01      0.140543E-01
      0.250000E-01      0.136636E-01
      0.300000E-01      0.132016E-01
      0.350000E-01      0.126769E-01
      0.400000E-01      0.120989E-01
      0.450000E-01      0.114774E-01
      0.500000E-01      0.108227E-01
      0.550000E-01      0.101450E-01
      0.600000E-01      0.945398E-02
      0.650000E-01      0.875917E-02
      0.700000E-01      0.806917E-02
      0.750000E-01      0.739176E-02
      0.800000E-01      0.673372E-02
      0.850000E-01      0.610081E-02
      0.900000E-01      0.549769E-02
      0.950000E-01      0.492797E-02
      0.100000          0.439427E-02
      0.105000          0.389825E-02
      0.110000          0.344073E-02
      0.115000          0.302180E-02
      0.120000          0.264090E-02
      0.125000          0.229699E-02
      0.130000          0.198859E-02
      0.135000          0.171390E-02
      0.140000          0.147092E-02
      0.145000          0.125750E-02
      0.150000          0.107140E-02
      0.155000          0.910344E-03
      0.160000          0.772088E-03
      0.165000          0.654426E-03
      0.170000          0.555228E-03
      0.175000          0.472458E-03
      0.180000          0.404187E-03
      0.185000          0.348606E-03
      0.190000          0.304029E-03
      0.195000          0.268903E-03
      0.200000          0.241808E-03
      0.205000          0.221454E-03
      0.210000          0.206685E-03
      0.215000          0.196475E-03
      0.220000          0.189917E-03
      0.225000          0.186221E-03
      0.230000          0.184708E-03
      0.235000          0.184794E-03
      0.240000          0.185985E-03
      0.245000          0.187867E-03
      0.250000          0.190094E-03
      0.255000          0.192382E-03
      0.260000          0.194497E-03
      0.265000          0.196254E-03
      0.270000          0.197504E-03
      0.275000          0.198138E-03
      0.280000          0.198075E-03
      0.285000          0.197268E-03
      0.290000          0.195695E-03
      0.295000          0.193363E-03
      0.300000          0.190301E-03
      0.305000          0.186563E-03
      0.310000          0.182220E-03
      0.315000          0.177364E-03
      0.320000          0.172096E-03
      0.325000          0.166528E-03
      0.330000          0.160776E-03
      0.335000          0.154955E-03
      0.340000          0.149176E-03
      0.345000          0.143541E-03
      0.350000          0.138138E-03
      0.355000          0.133041E-03
      0.360000          0.128305E-03
      0.365000          0.123970E-03
      0.370000          0.120054E-03
      0.375000          0.116561E-03
      0.380000          0.113478E-03
      0.385000          0.110780E-03
      0.390000          0.108430E-03
      0.395000          0.106387E-03
      0.400000          0.104601E-03
      0.405000          0.103024E-03
      0.410000          0.101608E-03
      0.415000          0.100307E-03
      0.420000          0.990816E-04
      0.425000          0.978974E-04
      0.430000          0.967269E-04
      0.435000          0.955495E-04
      0.440000          0.943516E-04
      0.445000          0.931262E-04
      0.450000          0.918717E-04
      0.455000          0.905918E-04
      0.460000          0.892938E-04
      0.465000          0.879881E-04
      0.470000          0.866870E-04
      0.475000          0.854038E-04
      0.480000          0.841521E-04
      0.485000          0.829448E-04
      0.490000          0.817937E-04
      0.495000          0.807089E-04
      0.500000          0.796986E-04
