 I_abs(s)[cm^-1]/c[mg/ml]
       0.00000          0.146190E-01
      0.500000E-02      0.145709E-01
      0.100000E-01      0.144274E-01
      0.150000E-01      0.141913E-01
      0.200000E-01      0.138674E-01
      0.250000E-01      0.134617E-01
      0.300000E-01      0.129821E-01
      0.350000E-01      0.124375E-01
      0.400000E-01      0.118377E-01
      0.450000E-01      0.111933E-01
      0.500000E-01      0.105152E-01
      0.550000E-01      0.981440E-02
      0.600000E-01      0.910171E-02
      0.650000E-01      0.838742E-02
      0.700000E-01      0.768116E-02
      0.750000E-01      0.699161E-02
      0.800000E-01      0.632642E-02
      0.850000E-01      0.569202E-02
      0.900000E-01      0.509364E-02
      0.950000E-01      0.453522E-02
      0.100000          0.401943E-02
      0.105000          0.354780E-02
      0.110000          0.312072E-02
      0.115000          0.273763E-02
      0.120000          0.239711E-02
      0.125000          0.209706E-02
      0.130000          0.183483E-02
      0.135000          0.160741E-02
      0.140000          0.141151E-02
      0.145000          0.124379E-02
      0.150000          0.110087E-02
      0.155000          0.979513E-03
      0.160000          0.876668E-03
      0.165000          0.789527E-03
      0.170000          0.715567E-03
      0.175000          0.652573E-03
      0.180000          0.598638E-03
      0.185000          0.552153E-03
      0.190000          0.511786E-03
      0.195000          0.476454E-03
      0.200000          0.445289E-03
      0.205000          0.417604E-03
      0.210000          0.392858E-03
      0.215000          0.370625E-03
      0.220000          0.350561E-03
      0.225000          0.332386E-03
      0.230000          0.315861E-03
      0.235000          0.300776E-03
      0.240000          0.286937E-03
      0.245000          0.274168E-03
      0.250000          0.262302E-03
      0.255000          0.251186E-03
      0.260000          0.240683E-03
      0.265000          0.230671E-03
      0.270000          0.221051E-03
      0.275000          0.211746E-03
      0.280000          0.202703E-03
      0.285000          0.193892E-03
      0.290000          0.185307E-03
      0.295000          0.176959E-03
      0.300000          0.168879E-03
      0.305000          0.161106E-03
      0.310000          0.153688E-03
      0.315000          0.146674E-03
      0.320000          0.140112E-03
      0.325000          0.134042E-03
      0.330000          0.128493E-03
      0.335000          0.123485E-03
      0.340000          0.119022E-03
      0.345000          0.115095E-03
      0.350000          0.111683E-03
      0.355000          0.108751E-03
      0.360000          0.106256E-03
      0.365000          0.104145E-03
      0.370000          0.102362E-03
      0.375000          0.100849E-03
      0.380000          0.995453E-04
      0.385000          0.983946E-04
      0.390000          0.973436E-04
      0.395000          0.963446E-04
      0.400000          0.953563E-04
      0.405000          0.943440E-04
      0.410000          0.932804E-04
      0.415000          0.921447E-04
      0.420000          0.909230E-04
      0.425000          0.896071E-04
      0.430000          0.881945E-04
      0.435000          0.866872E-04
      0.440000          0.850914E-04
      0.445000          0.834169E-04
      0.450000          0.816763E-04
      0.455000          0.798853E-04
      0.460000          0.780614E-04
      0.465000          0.762245E-04
      0.470000          0.743960E-04
      0.475000          0.725989E-04
      0.480000          0.708572E-04
      0.485000          0.691960E-04
      0.490000          0.676404E-04
      0.495000          0.662157E-04
      0.500000          0.649462E-04
