 I_abs(s)[cm^-1]/c[mg/ml]
       0.00000          0.147865E-01
      0.500000E-02      0.147422E-01
      0.100000E-01      0.146099E-01
      0.150000E-01      0.143921E-01
      0.200000E-01      0.140925E-01
      0.250000E-01      0.137163E-01
      0.300000E-01      0.132700E-01
      0.350000E-01      0.127610E-01
      0.400000E-01      0.121976E-01
      0.450000E-01      0.115888E-01
      0.500000E-01      0.109439E-01
      0.550000E-01      0.102724E-01
      0.600000E-01      0.958392E-02
      0.650000E-01      0.888754E-02
      0.700000E-01      0.819205E-02
      0.750000E-01      0.750554E-02
      0.800000E-01      0.683536E-02
      0.850000E-01      0.618797E-02
      0.900000E-01      0.556885E-02
      0.950000E-01      0.498251E-02
      0.100000          0.443242E-02
      0.105000          0.392107E-02
      0.110000          0.345001E-02
      0.115000          0.301988E-02
      0.120000          0.263055E-02
      0.125000          0.228117E-02
      0.130000          0.197031E-02
      0.135000          0.169608E-02
      0.140000          0.145617E-02
      0.145000          0.124806E-02
      0.150000          0.106903E-02
      0.155000          0.916301E-03
      0.160000          0.787085E-03
      0.165000          0.678664E-03
      0.170000          0.588435E-03
      0.175000          0.513955E-03
      0.180000          0.452959E-03
      0.185000          0.403388E-03
      0.190000          0.363387E-03
      0.195000          0.331313E-03
      0.200000          0.305722E-03
      0.205000          0.285364E-03
      0.210000          0.269164E-03
      0.215000          0.256215E-03
      0.220000          0.245751E-03
      0.225000          0.237141E-03
      0.230000          0.229869E-03
      0.235000          0.223519E-03
      0.240000          0.217764E-03
      0.245000          0.212354E-03
      0.250000          0.207105E-03
      0.255000          0.201887E-03
      0.260000          0.196621E-03
      0.265000          0.191265E-03
      0.270000          0.185810E-03
      0.275000          0.180273E-03
      0.280000          0.174687E-03
      0.285000          0.169101E-03
      0.290000          0.163569E-03
      0.295000          0.158146E-03
      0.300000          0.152887E-03
      0.305000          0.147840E-03
      0.310000          0.143043E-03
      0.315000          0.138526E-03
      0.320000          0.134304E-03
      0.325000          0.130384E-03
      0.330000          0.126760E-03
      0.335000          0.123418E-03
      0.340000          0.120335E-03
      0.345000          0.117485E-03
      0.350000          0.114838E-03
      0.355000          0.112364E-03
      0.360000          0.110037E-03
      0.365000          0.107835E-03
      0.370000          0.105741E-03
      0.375000          0.103746E-03
      0.380000          0.101846E-03
      0.385000          0.100046E-03
      0.390000          0.983567E-04
      0.395000          0.967928E-04
      0.400000          0.953724E-04
      0.405000          0.941144E-04
      0.410000          0.930372E-04
      0.415000          0.921560E-04
      0.420000          0.914818E-04
      0.425000          0.910196E-04
      0.430000          0.907673E-04
      0.435000          0.907155E-04
      0.440000          0.908472E-04
      0.445000          0.911385E-04
      0.450000          0.915588E-04
      0.455000          0.920730E-04
      0.460000          0.926422E-04
      0.465000          0.932260E-04
      0.470000          0.937840E-04
      0.475000          0.942777E-04
      0.480000          0.946722E-04
      0.485000          0.949377E-04
      0.490000          0.950506E-04
      0.495000          0.949944E-04
      0.500000          0.947601E-04
