 I_abs(s)[cm^-1]/c[mg/ml]
       0.00000          0.145714E-01
      0.500000E-02      0.145270E-01
      0.100000E-01      0.143946E-01
      0.150000E-01      0.141767E-01
      0.200000E-01      0.138774E-01
      0.250000E-01      0.135022E-01
      0.300000E-01      0.130580E-01
      0.350000E-01      0.125526E-01
      0.400000E-01      0.119947E-01
      0.450000E-01      0.113936E-01
      0.500000E-01      0.107588E-01
      0.550000E-01      0.101000E-01
      0.600000E-01      0.942665E-02
      0.650000E-01      0.874772E-02
      0.700000E-01      0.807164E-02
      0.750000E-01      0.740609E-02
      0.800000E-01      0.675784E-02
      0.850000E-01      0.613269E-02
      0.900000E-01      0.553545E-02
      0.950000E-01      0.496992E-02
      0.100000          0.443891E-02
      0.105000          0.394430E-02
      0.110000          0.348714E-02
      0.115000          0.306769E-02
      0.120000          0.268560E-02
      0.125000          0.233995E-02
      0.130000          0.202939E-02
      0.135000          0.175225E-02
      0.140000          0.150661E-02
      0.145000          0.129039E-02
      0.150000          0.110143E-02
      0.155000          0.937552E-03
      0.160000          0.796577E-03
      0.165000          0.676382E-03
      0.170000          0.574917E-03
      0.175000          0.490217E-03
      0.180000          0.420417E-03
      0.185000          0.363748E-03
      0.190000          0.318548E-03
      0.195000          0.283255E-03
      0.200000          0.256413E-03
      0.205000          0.236667E-03
      0.210000          0.222767E-03
      0.215000          0.213570E-03
      0.220000          0.208040E-03
      0.225000          0.205252E-03
      0.230000          0.204389E-03
      0.235000          0.204751E-03
      0.240000          0.205743E-03
      0.245000          0.206881E-03
      0.250000          0.207784E-03
      0.255000          0.208169E-03
      0.260000          0.207837E-03
      0.265000          0.206674E-03
      0.270000          0.204630E-03
      0.275000          0.201714E-03
      0.280000          0.197978E-03
      0.285000          0.193510E-03
      0.290000          0.188422E-03
      0.295000          0.182838E-03
      0.300000          0.176890E-03
      0.305000          0.170708E-03
      0.310000          0.164418E-03
      0.315000          0.158134E-03
      0.320000          0.151958E-03
      0.325000          0.145979E-03
      0.330000          0.140271E-03
      0.335000          0.134896E-03
      0.340000          0.129897E-03
      0.345000          0.125310E-03
      0.350000          0.121156E-03
      0.355000          0.117445E-03
      0.360000          0.114176E-03
      0.365000          0.111342E-03
      0.370000          0.108926E-03
      0.375000          0.106901E-03
      0.380000          0.105236E-03
      0.385000          0.103895E-03
      0.390000          0.102833E-03
      0.395000          0.102005E-03
      0.400000          0.101362E-03
      0.405000          0.100854E-03
      0.410000          0.100431E-03
      0.415000          0.100044E-03
      0.420000          0.996482E-04
      0.425000          0.992038E-04
      0.430000          0.986756E-04
      0.435000          0.980351E-04
      0.440000          0.972614E-04
      0.445000          0.963409E-04
      0.450000          0.952680E-04
      0.455000          0.940440E-04
      0.460000          0.926773E-04
      0.465000          0.911825E-04
      0.470000          0.895789E-04
      0.475000          0.878898E-04
      0.480000          0.861414E-04
      0.485000          0.843612E-04
      0.490000          0.825772E-04
      0.495000          0.808165E-04
      0.500000          0.791046E-04
