 I_abs(s)[cm^-1]/c[mg/ml]
       0.00000          0.146031E-01
      0.500000E-02      0.145620E-01
      0.100000E-01      0.144391E-01
      0.150000E-01      0.142366E-01
      0.200000E-01      0.139577E-01
      0.250000E-01      0.136071E-01
      0.300000E-01      0.131902E-01
      0.350000E-01      0.127138E-01
      0.400000E-01      0.121850E-01
      0.450000E-01      0.116119E-01
      0.500000E-01      0.110029E-01
      0.550000E-01      0.103664E-01
      0.600000E-01      0.971101E-02
      0.650000E-01      0.904522E-02
      0.700000E-01      0.837706E-02
      0.750000E-01      0.771412E-02
      0.800000E-01      0.706337E-02
      0.850000E-01      0.643104E-02
      0.900000E-01      0.582259E-02
      0.950000E-01      0.524258E-02
      0.100000          0.469471E-02
      0.105000          0.418179E-02
      0.110000          0.370576E-02
      0.115000          0.326776E-02
      0.120000          0.286816E-02
      0.125000          0.250665E-02
      0.130000          0.218233E-02
      0.135000          0.189380E-02
      0.140000          0.163924E-02
      0.145000          0.141652E-02
      0.150000          0.122328E-02
      0.155000          0.105702E-02
      0.160000          0.915183E-03
      0.165000          0.795200E-03
      0.170000          0.694566E-03
      0.175000          0.610874E-03
      0.180000          0.541859E-03
      0.185000          0.485415E-03
      0.190000          0.439614E-03
      0.195000          0.402719E-03
      0.200000          0.373175E-03
      0.205000          0.349615E-03
      0.210000          0.330846E-03
      0.215000          0.315840E-03
      0.220000          0.303720E-03
      0.225000          0.293745E-03
      0.230000          0.285300E-03
      0.235000          0.277878E-03
      0.240000          0.271070E-03
      0.245000          0.264551E-03
      0.250000          0.258072E-03
      0.255000          0.251448E-03
      0.260000          0.244553E-03
      0.265000          0.237309E-03
      0.270000          0.229680E-03
      0.275000          0.221667E-03
      0.280000          0.213301E-03
      0.285000          0.204639E-03
      0.290000          0.195755E-03
      0.295000          0.186739E-03
      0.300000          0.177688E-03
      0.305000          0.168703E-03
      0.310000          0.159886E-03
      0.315000          0.151333E-03
      0.320000          0.143132E-03
      0.325000          0.135357E-03
      0.330000          0.128073E-03
      0.335000          0.121327E-03
      0.340000          0.115149E-03
      0.345000          0.109557E-03
      0.350000          0.104550E-03
      0.355000          0.100115E-03
      0.360000          0.962270E-04
      0.365000          0.928506E-04
      0.370000          0.899431E-04
      0.375000          0.874568E-04
      0.380000          0.853417E-04
      0.385000          0.835473E-04
      0.390000          0.820252E-04
      0.395000          0.807303E-04
      0.400000          0.796223E-04
      0.405000          0.786667E-04
      0.410000          0.778348E-04
      0.415000          0.771042E-04
      0.420000          0.764585E-04
      0.425000          0.758864E-04
      0.430000          0.753810E-04
      0.435000          0.749390E-04
      0.440000          0.745597E-04
      0.445000          0.742440E-04
      0.450000          0.739932E-04
      0.455000          0.738086E-04
      0.460000          0.736906E-04
      0.465000          0.736383E-04
      0.470000          0.736491E-04
      0.475000          0.737187E-04
      0.480000          0.738412E-04
      0.485000          0.740092E-04
      0.490000          0.742141E-04
      0.495000          0.744466E-04
      0.500000          0.746971E-04
