 I_abs(s)[cm^-1]/c[mg/ml]
       0.00000          0.146350E-01
      0.500000E-02      0.145902E-01
      0.100000E-01      0.144567E-01
      0.150000E-01      0.142372E-01
      0.200000E-01      0.139361E-01
      0.250000E-01      0.135593E-01
      0.300000E-01      0.131141E-01
      0.350000E-01      0.126088E-01
      0.400000E-01      0.120527E-01
      0.450000E-01      0.114555E-01
      0.500000E-01      0.108272E-01
      0.550000E-01      0.101776E-01
      0.600000E-01      0.951641E-02
      0.650000E-01      0.885268E-02
      0.700000E-01      0.819472E-02
      0.750000E-01      0.754991E-02
      0.800000E-01      0.692461E-02
      0.850000E-01      0.632410E-02
      0.900000E-01      0.575254E-02
      0.950000E-01      0.521299E-02
      0.100000          0.470750E-02
      0.105000          0.423715E-02
      0.110000          0.380223E-02
      0.115000          0.340230E-02
      0.120000          0.303637E-02
      0.125000          0.270301E-02
      0.130000          0.240049E-02
      0.135000          0.212689E-02
      0.140000          0.188020E-02
      0.145000          0.165839E-02
      0.150000          0.145951E-02
      0.155000          0.128167E-02
      0.160000          0.112314E-02
      0.165000          0.982294E-03
      0.170000          0.857664E-03
      0.175000          0.747889E-03
      0.180000          0.651722E-03
      0.185000          0.568001E-03
      0.190000          0.495638E-03
      0.195000          0.433597E-03
      0.200000          0.380880E-03
      0.205000          0.336524E-03
      0.210000          0.299593E-03
      0.215000          0.269177E-03
      0.220000          0.244401E-03
      0.225000          0.224429E-03
      0.230000          0.208475E-03
      0.235000          0.195810E-03
      0.240000          0.185771E-03
      0.245000          0.177774E-03
      0.250000          0.171309E-03
      0.255000          0.165952E-03
      0.260000          0.161358E-03
      0.265000          0.157258E-03
      0.270000          0.153459E-03
      0.275000          0.149825E-03
      0.280000          0.146280E-03
      0.285000          0.142787E-03
      0.290000          0.139343E-03
      0.295000          0.135968E-03
      0.300000          0.132696E-03
      0.305000          0.129567E-03
      0.310000          0.126619E-03
      0.315000          0.123888E-03
      0.320000          0.121400E-03
      0.325000          0.119171E-03
      0.330000          0.117208E-03
      0.335000          0.115508E-03
      0.340000          0.114060E-03
      0.345000          0.112845E-03
      0.350000          0.111840E-03
      0.355000          0.111017E-03
      0.360000          0.110348E-03
      0.365000          0.109801E-03
      0.370000          0.109346E-03
      0.375000          0.108953E-03
      0.380000          0.108591E-03
      0.385000          0.108234E-03
      0.390000          0.107853E-03
      0.395000          0.107423E-03
      0.400000          0.106919E-03
      0.405000          0.106319E-03
      0.410000          0.105603E-03
      0.415000          0.104753E-03
      0.420000          0.103755E-03
      0.425000          0.102598E-03
      0.430000          0.101277E-03
      0.435000          0.997878E-04
      0.440000          0.981350E-04
      0.445000          0.963257E-04
      0.450000          0.943721E-04
      0.455000          0.922908E-04
      0.460000          0.901017E-04
      0.465000          0.878278E-04
      0.470000          0.854942E-04
      0.475000          0.831272E-04
      0.480000          0.807534E-04
      0.485000          0.783988E-04
      0.490000          0.760882E-04
      0.495000          0.738444E-04
      0.500000          0.716879E-04
