 I_abs(s)[cm^-1]/c[mg/ml]
       0.00000          0.147945E-01
      0.500000E-02      0.147427E-01
      0.100000E-01      0.145886E-01
      0.150000E-01      0.143356E-01
      0.200000E-01      0.139894E-01
      0.250000E-01      0.135577E-01
      0.300000E-01      0.130497E-01
      0.350000E-01      0.124762E-01
      0.400000E-01      0.118486E-01
      0.450000E-01      0.111791E-01
      0.500000E-01      0.104799E-01
      0.550000E-01      0.976309E-02
      0.600000E-01      0.904007E-02
      0.650000E-01      0.832141E-02
      0.700000E-01      0.761655E-02
      0.750000E-01      0.693369E-02
      0.800000E-01      0.627962E-02
      0.850000E-01      0.565972E-02
      0.900000E-01      0.507800E-02
      0.950000E-01      0.453712E-02
      0.100000          0.403854E-02
      0.105000          0.358264E-02
      0.110000          0.316890E-02
      0.115000          0.279606E-02
      0.120000          0.246225E-02
      0.125000          0.216519E-02
      0.130000          0.190233E-02
      0.135000          0.167092E-02
      0.140000          0.146816E-02
      0.145000          0.129128E-02
      0.150000          0.113757E-02
      0.155000          0.100444E-02
      0.160000          0.889459E-03
      0.165000          0.790362E-03
      0.170000          0.705072E-03
      0.175000          0.631697E-03
      0.180000          0.568534E-03
      0.185000          0.514069E-03
      0.190000          0.466970E-03
      0.195000          0.426085E-03
      0.200000          0.390433E-03
      0.205000          0.359192E-03
      0.210000          0.331693E-03
      0.215000          0.307396E-03
      0.220000          0.285881E-03
      0.225000          0.266825E-03
      0.230000          0.249983E-03
      0.235000          0.235166E-03
      0.240000          0.222224E-03
      0.245000          0.211026E-03
      0.250000          0.201444E-03
      0.255000          0.193344E-03
      0.260000          0.186577E-03
      0.265000          0.180977E-03
      0.270000          0.176360E-03
      0.275000          0.172532E-03
      0.280000          0.169291E-03
      0.285000          0.166443E-03
      0.290000          0.163805E-03
      0.295000          0.161220E-03
      0.300000          0.158558E-03
      0.305000          0.155731E-03
      0.310000          0.152688E-03
      0.315000          0.149418E-03
      0.320000          0.145949E-03
      0.325000          0.142340E-03
      0.330000          0.138673E-03
      0.335000          0.135047E-03
      0.340000          0.131565E-03
      0.345000          0.128329E-03
      0.350000          0.125425E-03
      0.355000          0.122923E-03
      0.360000          0.120868E-03
      0.365000          0.119276E-03
      0.370000          0.118138E-03
      0.375000          0.117419E-03
      0.380000          0.117059E-03
      0.385000          0.116982E-03
      0.390000          0.117100E-03
      0.395000          0.117319E-03
      0.400000          0.117546E-03
      0.405000          0.117693E-03
      0.410000          0.117684E-03
      0.415000          0.117457E-03
      0.420000          0.116967E-03
      0.425000          0.116187E-03
      0.430000          0.115107E-03
      0.435000          0.113736E-03
      0.440000          0.112096E-03
      0.445000          0.110219E-03
      0.450000          0.108150E-03
      0.455000          0.105935E-03
      0.460000          0.103625E-03
      0.465000          0.101268E-03
      0.470000          0.989113E-04
      0.475000          0.965948E-04
      0.480000          0.943533E-04
      0.485000          0.922140E-04
      0.490000          0.901965E-04
      0.495000          0.883133E-04
      0.500000          0.865699E-04
