 I_abs(s)[cm^-1]/c[mg/ml]
       0.00000          0.146588E-01
      0.500000E-02      0.146141E-01
      0.100000E-01      0.144807E-01
      0.150000E-01      0.142610E-01
      0.200000E-01      0.139592E-01
      0.250000E-01      0.135806E-01
      0.300000E-01      0.131319E-01
      0.350000E-01      0.126209E-01
      0.400000E-01      0.120564E-01
      0.450000E-01      0.114476E-01
      0.500000E-01      0.108040E-01
      0.550000E-01      0.101356E-01
      0.600000E-01      0.945190E-02
      0.650000E-01      0.876229E-02
      0.700000E-01      0.807552E-02
      0.750000E-01      0.739966E-02
      0.800000E-01      0.674191E-02
      0.850000E-01      0.610853E-02
      0.900000E-01      0.550475E-02
      0.950000E-01      0.493474E-02
      0.100000          0.440163E-02
      0.105000          0.390755E-02
      0.110000          0.345364E-02
      0.115000          0.304020E-02
      0.120000          0.266673E-02
      0.125000          0.233208E-02
      0.130000          0.203455E-02
      0.135000          0.177201E-02
      0.140000          0.154201E-02
      0.145000          0.134188E-02
      0.150000          0.116887E-02
      0.155000          0.102016E-02
      0.160000          0.893005E-03
      0.165000          0.784761E-03
      0.170000          0.692932E-03
      0.175000          0.615213E-03
      0.180000          0.549501E-03
      0.185000          0.493918E-03
      0.190000          0.446805E-03
      0.195000          0.406720E-03
      0.200000          0.372430E-03
      0.205000          0.342893E-03
      0.210000          0.317246E-03
      0.215000          0.294779E-03
      0.220000          0.274923E-03
      0.225000          0.257228E-03
      0.230000          0.241343E-03
      0.235000          0.227000E-03
      0.240000          0.213999E-03
      0.245000          0.202192E-03
      0.250000          0.191473E-03
      0.255000          0.181762E-03
      0.260000          0.173004E-03
      0.265000          0.165151E-03
      0.270000          0.158164E-03
      0.275000          0.152006E-03
      0.280000          0.146637E-03
      0.285000          0.142010E-03
      0.290000          0.138076E-03
      0.295000          0.134776E-03
      0.300000          0.132048E-03
      0.305000          0.129824E-03
      0.310000          0.128030E-03
      0.315000          0.126594E-03
      0.320000          0.125441E-03
      0.325000          0.124500E-03
      0.330000          0.123702E-03
      0.335000          0.122985E-03
      0.340000          0.122294E-03
      0.345000          0.121580E-03
      0.350000          0.120806E-03
      0.355000          0.119942E-03
      0.360000          0.118967E-03
      0.365000          0.117871E-03
      0.370000          0.116651E-03
      0.375000          0.115310E-03
      0.380000          0.113860E-03
      0.385000          0.112317E-03
      0.390000          0.110702E-03
      0.395000          0.109039E-03
      0.400000          0.107353E-03
      0.405000          0.105671E-03
      0.410000          0.104018E-03
      0.415000          0.102419E-03
      0.420000          0.100897E-03
      0.425000          0.994706E-04
      0.430000          0.981570E-04
      0.435000          0.969683E-04
      0.440000          0.959131E-04
      0.445000          0.949954E-04
      0.450000          0.942151E-04
      0.455000          0.935680E-04
      0.460000          0.930459E-04
      0.465000          0.926371E-04
      0.470000          0.923269E-04
      0.475000          0.920980E-04
      0.480000          0.919313E-04
      0.485000          0.918065E-04
      0.490000          0.917028E-04
      0.495000          0.915995E-04
      0.500000          0.914770E-04
