 I_abs(s)[cm^-1]/c[mg/ml]
       0.00000          0.146588E-01
      0.500000E-02      0.146127E-01
      0.100000E-01      0.144753E-01
      0.150000E-01      0.142493E-01
      0.200000E-01      0.139395E-01
      0.250000E-01      0.135519E-01
      0.300000E-01      0.130942E-01
      0.350000E-01      0.125750E-01
      0.400000E-01      0.120041E-01
      0.450000E-01      0.113915E-01
      0.500000E-01      0.107477E-01
      0.550000E-01      0.100830E-01
      0.600000E-01      0.940749E-02
      0.650000E-01      0.873065E-02
      0.700000E-01      0.806112E-02
      0.750000E-01      0.740663E-02
      0.800000E-01      0.677377E-02
      0.850000E-01      0.616801E-02
      0.900000E-01      0.559362E-02
      0.950000E-01      0.505370E-02
      0.100000          0.455027E-02
      0.105000          0.408432E-02
      0.110000          0.365594E-02
      0.115000          0.326448E-02
      0.120000          0.290867E-02
      0.125000          0.258677E-02
      0.130000          0.229671E-02
      0.135000          0.203622E-02
      0.140000          0.180293E-02
      0.145000          0.159449E-02
      0.150000          0.140861E-02
      0.155000          0.124313E-02
      0.160000          0.109606E-02
      0.165000          0.965601E-03
      0.170000          0.850108E-03
      0.175000          0.748128E-03
      0.180000          0.658360E-03
      0.185000          0.579640E-03
      0.190000          0.510914E-03
      0.195000          0.451221E-03
      0.200000          0.399667E-03
      0.205000          0.355414E-03
      0.210000          0.317669E-03
      0.215000          0.285673E-03
      0.220000          0.258704E-03
      0.225000          0.236076E-03
      0.230000          0.217144E-03
      0.235000          0.201308E-03
      0.240000          0.188024E-03
      0.245000          0.176803E-03
      0.250000          0.167223E-03
      0.255000          0.158926E-03
      0.260000          0.151620E-03
      0.265000          0.145078E-03
      0.270000          0.139132E-03
      0.275000          0.133666E-03
      0.280000          0.128611E-03
      0.285000          0.123932E-03
      0.290000          0.119621E-03
      0.295000          0.115688E-03
      0.300000          0.112152E-03
      0.305000          0.109032E-03
      0.310000          0.106347E-03
      0.315000          0.104101E-03
      0.320000          0.102294E-03
      0.325000          0.100908E-03
      0.330000          0.999151E-04
      0.335000          0.992775E-04
      0.340000          0.989477E-04
      0.345000          0.988728E-04
      0.350000          0.989971E-04
      0.355000          0.992650E-04
      0.360000          0.996236E-04
      0.365000          0.100025E-03
      0.370000          0.100428E-03
      0.375000          0.100798E-03
      0.380000          0.101110E-03
      0.385000          0.101347E-03
      0.390000          0.101497E-03
      0.395000          0.101557E-03
      0.400000          0.101529E-03
      0.405000          0.101417E-03
      0.410000          0.101229E-03
      0.415000          0.100973E-03
      0.420000          0.100660E-03
      0.425000          0.100296E-03
      0.430000          0.998889E-04
      0.435000          0.994432E-04
      0.440000          0.989614E-04
      0.445000          0.984439E-04
      0.450000          0.978893E-04
      0.455000          0.972943E-04
      0.460000          0.966544E-04
      0.465000          0.959646E-04
      0.470000          0.952193E-04
      0.475000          0.944131E-04
      0.480000          0.935412E-04
      0.485000          0.925997E-04
      0.490000          0.915861E-04
      0.495000          0.904990E-04
      0.500000          0.893389E-04
