 I_abs(s)[cm^-1]/c[mg/ml]
       0.00000          0.143894E-01
      0.500000E-02      0.143461E-01
      0.100000E-01      0.142172E-01
      0.150000E-01      0.140047E-01
      0.200000E-01      0.137125E-01
      0.250000E-01      0.133455E-01
      0.300000E-01      0.129100E-01
      0.350000E-01      0.124132E-01
      0.400000E-01      0.118632E-01
      0.450000E-01      0.112687E-01
      0.500000E-01      0.106390E-01
      0.550000E-01      0.998322E-02
      0.600000E-01      0.931087E-02
      0.650000E-01      0.863098E-02
      0.700000E-01      0.795224E-02
      0.750000E-01      0.728271E-02
      0.800000E-01      0.662973E-02
      0.850000E-01      0.599978E-02
      0.900000E-01      0.539837E-02
      0.950000E-01      0.483004E-02
      0.100000          0.429830E-02
      0.105000          0.380565E-02
      0.110000          0.335361E-02
      0.115000          0.294278E-02
      0.120000          0.257294E-02
      0.125000          0.224313E-02
      0.130000          0.195175E-02
      0.135000          0.169668E-02
      0.140000          0.147543E-02
      0.145000          0.128521E-02
      0.150000          0.112305E-02
      0.155000          0.985929E-03
      0.160000          0.870823E-03
      0.165000          0.774815E-03
      0.170000          0.695140E-03
      0.175000          0.629239E-03
      0.180000          0.574787E-03
      0.185000          0.529721E-03
      0.190000          0.492239E-03
      0.195000          0.460805E-03
      0.200000          0.434131E-03
      0.205000          0.411164E-03
      0.210000          0.391059E-03
      0.215000          0.373156E-03
      0.220000          0.356948E-03
      0.225000          0.342059E-03
      0.230000          0.328213E-03
      0.235000          0.315214E-03
      0.240000          0.302922E-03
      0.245000          0.291239E-03
      0.250000          0.280095E-03
      0.255000          0.269436E-03
      0.260000          0.259218E-03
      0.265000          0.249401E-03
      0.270000          0.239949E-03
      0.275000          0.230831E-03
      0.280000          0.222015E-03
      0.285000          0.213476E-03
      0.290000          0.205195E-03
      0.295000          0.197160E-03
      0.300000          0.189367E-03
      0.305000          0.181821E-03
      0.310000          0.174533E-03
      0.315000          0.167524E-03
      0.320000          0.160817E-03
      0.325000          0.154442E-03
      0.330000          0.148427E-03
      0.335000          0.142799E-03
      0.340000          0.137582E-03
      0.345000          0.132794E-03
      0.350000          0.128443E-03
      0.355000          0.124533E-03
      0.360000          0.121053E-03
      0.365000          0.117988E-03
      0.370000          0.115310E-03
      0.375000          0.112987E-03
      0.380000          0.110978E-03
      0.385000          0.109240E-03
      0.390000          0.107726E-03
      0.395000          0.106390E-03
      0.400000          0.105187E-03
      0.405000          0.104076E-03
      0.410000          0.103021E-03
      0.415000          0.101991E-03
      0.420000          0.100963E-03
      0.425000          0.999213E-04
      0.430000          0.988559E-04
      0.435000          0.977641E-04
      0.440000          0.966486E-04
      0.445000          0.955168E-04
      0.450000          0.943794E-04
      0.455000          0.932490E-04
      0.460000          0.921391E-04
      0.465000          0.910625E-04
      0.470000          0.900305E-04
      0.475000          0.890519E-04
      0.480000          0.881323E-04
      0.485000          0.872737E-04
      0.490000          0.864747E-04
      0.495000          0.857301E-04
      0.500000          0.850321E-04
