 I_abs(s)[cm^-1]/c[mg/ml]
       0.00000          0.147066E-01
      0.500000E-02      0.146619E-01
      0.100000E-01      0.145284E-01
      0.150000E-01      0.143085E-01
      0.200000E-01      0.140061E-01
      0.250000E-01      0.136264E-01
      0.300000E-01      0.131759E-01
      0.350000E-01      0.126623E-01
      0.400000E-01      0.120938E-01
      0.450000E-01      0.114797E-01
      0.500000E-01      0.108293E-01
      0.550000E-01      0.101525E-01
      0.600000E-01      0.945887E-02
      0.650000E-01      0.875777E-02
      0.700000E-01      0.805814E-02
      0.750000E-01      0.736826E-02
      0.800000E-01      0.669564E-02
      0.850000E-01      0.604688E-02
      0.900000E-01      0.542758E-02
      0.950000E-01      0.484232E-02
      0.100000          0.429464E-02
      0.105000          0.378702E-02
      0.110000          0.332097E-02
      0.115000          0.289708E-02
      0.120000          0.251508E-02
      0.125000          0.217398E-02
      0.130000          0.187219E-02
      0.135000          0.160758E-02
      0.140000          0.137767E-02
      0.145000          0.117968E-02
      0.150000          0.101070E-02
      0.155000          0.867738E-03
      0.160000          0.747822E-03
      0.165000          0.648079E-03
      0.170000          0.565784E-03
      0.175000          0.498403E-03
      0.180000          0.443626E-03
      0.185000          0.399380E-03
      0.190000          0.363835E-03
      0.195000          0.335401E-03
      0.200000          0.312716E-03
      0.205000          0.294629E-03
      0.210000          0.280180E-03
      0.215000          0.268577E-03
      0.220000          0.259176E-03
      0.225000          0.251455E-03
      0.230000          0.244993E-03
      0.235000          0.239456E-03
      0.240000          0.234579E-03
      0.245000          0.230153E-03
      0.250000          0.226013E-03
      0.255000          0.222032E-03
      0.260000          0.218114E-03
      0.265000          0.214190E-03
      0.270000          0.210212E-03
      0.275000          0.206155E-03
      0.280000          0.202007E-03
      0.285000          0.197775E-03
      0.290000          0.193476E-03
      0.295000          0.189137E-03
      0.300000          0.184793E-03
      0.305000          0.180480E-03
      0.310000          0.176238E-03
      0.315000          0.172104E-03
      0.320000          0.168108E-03
      0.325000          0.164277E-03
      0.330000          0.160627E-03
      0.335000          0.157166E-03
      0.340000          0.153891E-03
      0.345000          0.150792E-03
      0.350000          0.147850E-03
      0.355000          0.145040E-03
      0.360000          0.142332E-03
      0.365000          0.139695E-03
      0.370000          0.137098E-03
      0.375000          0.134512E-03
      0.380000          0.131915E-03
      0.385000          0.129287E-03
      0.390000          0.126620E-03
      0.395000          0.123909E-03
      0.400000          0.121160E-03
      0.405000          0.118385E-03
      0.410000          0.115603E-03
      0.415000          0.112836E-03
      0.420000          0.110111E-03
      0.425000          0.107456E-03
      0.430000          0.104897E-03
      0.435000          0.102460E-03
      0.440000          0.100163E-03
      0.445000          0.980241E-04
      0.450000          0.960520E-04
      0.455000          0.942504E-04
      0.460000          0.926163E-04
      0.465000          0.911411E-04
      0.470000          0.898109E-04
      0.475000          0.886078E-04
      0.480000          0.875108E-04
      0.485000          0.864979E-04
      0.490000          0.855468E-04
      0.495000          0.846363E-04
      0.500000          0.837479E-04
