 I_abs(s)[cm^-1]/c[mg/ml]
       0.00000          0.145873E-01
      0.500000E-02      0.145410E-01
      0.100000E-01      0.144030E-01
      0.150000E-01      0.141760E-01
      0.200000E-01      0.138643E-01
      0.250000E-01      0.134741E-01
      0.300000E-01      0.130125E-01
      0.350000E-01      0.124880E-01
      0.400000E-01      0.119101E-01
      0.450000E-01      0.112887E-01
      0.500000E-01      0.106342E-01
      0.550000E-01      0.995682E-02
      0.600000E-01      0.926686E-02
      0.650000E-01      0.857398E-02
      0.700000E-01      0.788717E-02
      0.750000E-01      0.721460E-02
      0.800000E-01      0.656341E-02
      0.850000E-01      0.593963E-02
      0.900000E-01      0.534816E-02
      0.950000E-01      0.479272E-02
      0.100000          0.427591E-02
      0.105000          0.379924E-02
      0.110000          0.336324E-02
      0.115000          0.296759E-02
      0.120000          0.261121E-02
      0.125000          0.229243E-02
      0.130000          0.200910E-02
      0.135000          0.175877E-02
      0.140000          0.153875E-02
      0.145000          0.134626E-02
      0.150000          0.117855E-02
      0.155000          0.103292E-02
      0.160000          0.906827E-03
      0.165000          0.797901E-03
      0.170000          0.703990E-03
      0.175000          0.623159E-03
      0.180000          0.553698E-03
      0.185000          0.494107E-03
      0.190000          0.443082E-03
      0.195000          0.399494E-03
      0.200000          0.362368E-03
      0.205000          0.330854E-03
      0.210000          0.304216E-03
      0.215000          0.281802E-03
      0.220000          0.263034E-03
      0.225000          0.247396E-03
      0.230000          0.234422E-03
      0.235000          0.223688E-03
      0.240000          0.214814E-03
      0.245000          0.207453E-03
      0.250000          0.201297E-03
      0.255000          0.196074E-03
      0.260000          0.191543E-03
      0.265000          0.187499E-03
      0.270000          0.183771E-03
      0.275000          0.180214E-03
      0.280000          0.176713E-03
      0.285000          0.173180E-03
      0.290000          0.169545E-03
      0.295000          0.165760E-03
      0.300000          0.161792E-03
      0.305000          0.157620E-03
      0.310000          0.153237E-03
      0.315000          0.148645E-03
      0.320000          0.143855E-03
      0.325000          0.138887E-03
      0.330000          0.133769E-03
      0.335000          0.128537E-03
      0.340000          0.123234E-03
      0.345000          0.117913E-03
      0.350000          0.112629E-03
      0.355000          0.107445E-03
      0.360000          0.102428E-03
      0.365000          0.976435E-04
      0.370000          0.931570E-04
      0.375000          0.890295E-04
      0.380000          0.853148E-04
      0.385000          0.820572E-04
      0.390000          0.792885E-04
      0.395000          0.770269E-04
      0.400000          0.752751E-04
      0.405000          0.740209E-04
      0.410000          0.732367E-04
      0.415000          0.728815E-04
      0.420000          0.729027E-04
      0.425000          0.732386E-04
      0.430000          0.738217E-04
      0.435000          0.745821E-04
      0.440000          0.754509E-04
      0.445000          0.763632E-04
      0.450000          0.772617E-04
      0.455000          0.780981E-04
      0.460000          0.788358E-04
      0.465000          0.794500E-04
      0.470000          0.799285E-04
      0.475000          0.802709E-04
      0.480000          0.804874E-04
      0.485000          0.805971E-04
      0.490000          0.806256E-04
      0.495000          0.806027E-04
      0.500000          0.805598E-04
