 I_abs(s)[cm^-1]/c[mg/ml]
       0.00000          0.146270E-01
      0.500000E-02      0.145809E-01
      0.100000E-01      0.144436E-01
      0.150000E-01      0.142179E-01
      0.200000E-01      0.139082E-01
      0.250000E-01      0.135205E-01
      0.300000E-01      0.130624E-01
      0.350000E-01      0.125424E-01
      0.400000E-01      0.119700E-01
      0.450000E-01      0.113551E-01
      0.500000E-01      0.107082E-01
      0.550000E-01      0.100394E-01
      0.600000E-01      0.935888E-02
      0.650000E-01      0.867605E-02
      0.700000E-01      0.799964E-02
      0.750000E-01      0.733749E-02
      0.800000E-01      0.669636E-02
      0.850000E-01      0.608192E-02
      0.900000E-01      0.549868E-02
      0.950000E-01      0.494998E-02
      0.100000          0.443812E-02
      0.105000          0.396433E-02
      0.110000          0.352896E-02
      0.115000          0.313159E-02
      0.120000          0.277111E-02
      0.125000          0.244595E-02
      0.130000          0.215411E-02
      0.135000          0.189338E-02
      0.140000          0.166137E-02
      0.145000          0.145569E-02
      0.150000          0.127393E-02
      0.155000          0.111381E-02
      0.160000          0.973171E-03
      0.165000          0.850013E-03
      0.170000          0.742510E-03
      0.175000          0.649005E-03
      0.180000          0.568008E-03
      0.185000          0.498179E-03
      0.190000          0.438309E-03
      0.195000          0.387306E-03
      0.200000          0.344176E-03
      0.205000          0.308006E-03
      0.210000          0.277955E-03
      0.215000          0.253243E-03
      0.220000          0.233146E-03
      0.225000          0.216993E-03
      0.230000          0.204165E-03
      0.235000          0.194098E-03
      0.240000          0.186279E-03
      0.245000          0.180254E-03
      0.250000          0.175626E-03
      0.255000          0.172055E-03
      0.260000          0.169257E-03
      0.265000          0.167001E-03
      0.270000          0.165106E-03
      0.275000          0.163435E-03
      0.280000          0.161887E-03
      0.285000          0.160395E-03
      0.290000          0.158917E-03
      0.295000          0.157427E-03
      0.300000          0.155912E-03
      0.305000          0.154369E-03
      0.310000          0.152794E-03
      0.315000          0.151188E-03
      0.320000          0.149545E-03
      0.325000          0.147859E-03
      0.330000          0.146121E-03
      0.335000          0.144317E-03
      0.340000          0.142432E-03
      0.345000          0.140450E-03
      0.350000          0.138355E-03
      0.355000          0.136133E-03
      0.360000          0.133771E-03
      0.365000          0.131262E-03
      0.370000          0.128601E-03
      0.375000          0.125790E-03
      0.380000          0.122833E-03
      0.385000          0.119740E-03
      0.390000          0.116527E-03
      0.395000          0.113211E-03
      0.400000          0.109814E-03
      0.405000          0.106363E-03
      0.410000          0.102883E-03
      0.415000          0.994063E-04
      0.420000          0.959621E-04
      0.425000          0.925823E-04
      0.430000          0.892982E-04
      0.435000          0.861409E-04
      0.440000          0.831398E-04
      0.445000          0.803223E-04
      0.450000          0.777132E-04
      0.455000          0.753339E-04
      0.460000          0.732018E-04
      0.465000          0.713296E-04
      0.470000          0.697254E-04
      0.475000          0.683915E-04
      0.480000          0.673254E-04
      0.485000          0.665188E-04
      0.490000          0.659586E-04
      0.495000          0.656269E-04
      0.500000          0.655017E-04
