 I_abs(s)[cm^-1]/c[mg/ml]
       0.00000          0.146031E-01
      0.500000E-02      0.145585E-01
      0.100000E-01      0.144252E-01
      0.150000E-01      0.142059E-01
      0.200000E-01      0.139045E-01
      0.250000E-01      0.135265E-01
      0.300000E-01      0.130785E-01
      0.350000E-01      0.125683E-01
      0.400000E-01      0.120047E-01
      0.450000E-01      0.113970E-01
      0.500000E-01      0.107548E-01
      0.550000E-01      0.100880E-01
      0.600000E-01      0.940634E-02
      0.650000E-01      0.871925E-02
      0.700000E-01      0.803557E-02
      0.750000E-01      0.736346E-02
      0.800000E-01      0.671018E-02
      0.850000E-01      0.608204E-02
      0.900000E-01      0.548427E-02
      0.950000E-01      0.492101E-02
      0.100000          0.439532E-02
      0.105000          0.390916E-02
      0.110000          0.346353E-02
      0.115000          0.305848E-02
      0.120000          0.269326E-02
      0.125000          0.236645E-02
      0.130000          0.207604E-02
      0.135000          0.181961E-02
      0.140000          0.159444E-02
      0.145000          0.139765E-02
      0.150000          0.122629E-02
      0.155000          0.107743E-02
      0.160000          0.948277E-03
      0.165000          0.836231E-03
      0.170000          0.738906E-03
      0.175000          0.654185E-03
      0.180000          0.580223E-03
      0.185000          0.515454E-03
      0.190000          0.458571E-03
      0.195000          0.408511E-03
      0.200000          0.364422E-03
      0.205000          0.325633E-03
      0.210000          0.291620E-03
      0.215000          0.261969E-03
      0.220000          0.236346E-03
      0.225000          0.214468E-03
      0.230000          0.196079E-03
      0.235000          0.180931E-03
      0.240000          0.168771E-03
      0.245000          0.159334E-03
      0.250000          0.152336E-03
      0.255000          0.147479E-03
      0.260000          0.144451E-03
      0.265000          0.142936E-03
      0.270000          0.142619E-03
      0.275000          0.143195E-03
      0.280000          0.144377E-03
      0.285000          0.145904E-03
      0.290000          0.147547E-03
      0.295000          0.149111E-03
      0.300000          0.150441E-03
      0.305000          0.151416E-03
      0.310000          0.151958E-03
      0.315000          0.152019E-03
      0.320000          0.151583E-03
      0.325000          0.150659E-03
      0.330000          0.149278E-03
      0.335000          0.147484E-03
      0.340000          0.145332E-03
      0.345000          0.142882E-03
      0.350000          0.140195E-03
      0.355000          0.137328E-03
      0.360000          0.134337E-03
      0.365000          0.131266E-03
      0.370000          0.128158E-03
      0.375000          0.125045E-03
      0.380000          0.121952E-03
      0.385000          0.118900E-03
      0.390000          0.115904E-03
      0.395000          0.112975E-03
      0.400000          0.110122E-03
      0.405000          0.107353E-03
      0.410000          0.104675E-03
      0.415000          0.102095E-03
      0.420000          0.996202E-04
      0.425000          0.972586E-04
      0.430000          0.950182E-04
      0.435000          0.929068E-04
      0.440000          0.909314E-04
      0.445000          0.890978E-04
      0.450000          0.874099E-04
      0.455000          0.858694E-04
      0.460000          0.844751E-04
      0.465000          0.832229E-04
      0.470000          0.821058E-04
      0.475000          0.811141E-04
      0.480000          0.802355E-04
      0.485000          0.794556E-04
      0.490000          0.787590E-04
      0.495000          0.781294E-04
      0.500000          0.775505E-04
