 I_abs(s)[cm^-1]/c[mg/ml]
       0.00000          0.147465E-01
      0.500000E-02      0.147051E-01
      0.100000E-01      0.145814E-01
      0.150000E-01      0.143776E-01
      0.200000E-01      0.140971E-01
      0.250000E-01      0.137447E-01
      0.300000E-01      0.133262E-01
      0.350000E-01      0.128484E-01
      0.400000E-01      0.123189E-01
      0.450000E-01      0.117458E-01
      0.500000E-01      0.111377E-01
      0.550000E-01      0.105034E-01
      0.600000E-01      0.985143E-02
      0.650000E-01      0.919039E-02
      0.700000E-01      0.852831E-02
      0.750000E-01      0.787270E-02
      0.800000E-01      0.723038E-02
      0.850000E-01      0.660738E-02
      0.900000E-01      0.600888E-02
      0.950000E-01      0.543913E-02
      0.100000          0.490148E-02
      0.105000          0.439834E-02
      0.110000          0.393130E-02
      0.115000          0.350108E-02
      0.120000          0.310770E-02
      0.125000          0.275053E-02
      0.130000          0.242838E-02
      0.135000          0.213962E-02
      0.140000          0.188227E-02
      0.145000          0.165409E-02
      0.150000          0.145271E-02
      0.155000          0.127567E-02
      0.160000          0.112054E-02
      0.165000          0.984921E-03
      0.170000          0.866557E-03
      0.175000          0.763335E-03
      0.180000          0.673321E-03
      0.185000          0.594777E-03
      0.190000          0.526165E-03
      0.195000          0.466142E-03
      0.200000          0.413554E-03
      0.205000          0.367420E-03
      0.210000          0.326915E-03
      0.215000          0.291348E-03
      0.220000          0.260145E-03
      0.225000          0.232827E-03
      0.230000          0.208992E-03
      0.235000          0.188296E-03
      0.240000          0.170440E-03
      0.245000          0.155158E-03
      0.250000          0.142206E-03
      0.255000          0.131354E-03
      0.260000          0.122385E-03
      0.265000          0.115087E-03
      0.270000          0.109254E-03
      0.275000          0.104689E-03
      0.280000          0.101197E-03
      0.285000          0.985948E-04
      0.290000          0.967096E-04
      0.295000          0.953801E-04
      0.300000          0.944599E-04
      0.305000          0.938189E-04
      0.310000          0.933441E-04
      0.315000          0.929408E-04
      0.320000          0.925327E-04
      0.325000          0.920616E-04
      0.330000          0.914867E-04
      0.335000          0.907833E-04
      0.340000          0.899413E-04
      0.345000          0.889631E-04
      0.350000          0.878620E-04
      0.355000          0.866593E-04
      0.360000          0.853824E-04
      0.365000          0.840624E-04
      0.370000          0.827322E-04
      0.375000          0.814241E-04
      0.380000          0.801685E-04
      0.385000          0.789924E-04
      0.390000          0.779181E-04
      0.395000          0.769626E-04
      0.400000          0.761373E-04
      0.405000          0.754477E-04
      0.410000          0.748936E-04
      0.415000          0.744699E-04
      0.420000          0.741670E-04
      0.425000          0.739718E-04
      0.430000          0.738686E-04
      0.435000          0.738402E-04
      0.440000          0.738686E-04
      0.445000          0.739365E-04
      0.450000          0.740276E-04
      0.455000          0.741272E-04
      0.460000          0.742231E-04
      0.465000          0.743055E-04
      0.470000          0.743672E-04
      0.475000          0.744037E-04
      0.480000          0.744125E-04
      0.485000          0.743932E-04
      0.490000          0.743465E-04
      0.495000          0.742744E-04
      0.500000          0.741789E-04
