 I_abs(s)[cm^-1]/c[mg/ml]
       0.00000          0.146907E-01
      0.500000E-02      0.146461E-01
      0.100000E-01      0.145131E-01
      0.150000E-01      0.142942E-01
      0.200000E-01      0.139936E-01
      0.250000E-01      0.136170E-01
      0.300000E-01      0.131713E-01
      0.350000E-01      0.126644E-01
      0.400000E-01      0.121052E-01
      0.450000E-01      0.115032E-01
      0.500000E-01      0.108680E-01
      0.550000E-01      0.102094E-01
      0.600000E-01      0.953686E-02
      0.650000E-01      0.885961E-02
      0.700000E-01      0.818606E-02
      0.750000E-01      0.752388E-02
      0.800000E-01      0.687983E-02
      0.850000E-01      0.625965E-02
      0.900000E-01      0.566802E-02
      0.950000E-01      0.510861E-02
      0.100000          0.458404E-02
      0.105000          0.409599E-02
      0.110000          0.364524E-02
      0.115000          0.323182E-02
      0.120000          0.285511E-02
      0.125000          0.251392E-02
      0.130000          0.220667E-02
      0.135000          0.193143E-02
      0.140000          0.168610E-02
      0.145000          0.146844E-02
      0.150000          0.127617E-02
      0.155000          0.110705E-02
      0.160000          0.958881E-03
      0.165000          0.829601E-03
      0.170000          0.717260E-03
      0.175000          0.620054E-03
      0.180000          0.536325E-03
      0.185000          0.464560E-03
      0.190000          0.403383E-03
      0.195000          0.351550E-03
      0.200000          0.307934E-03
      0.205000          0.271518E-03
      0.210000          0.241386E-03
      0.215000          0.216710E-03
      0.220000          0.196749E-03
      0.225000          0.180836E-03
      0.230000          0.168376E-03
      0.235000          0.158841E-03
      0.240000          0.151766E-03
      0.245000          0.146741E-03
      0.250000          0.143410E-03
      0.255000          0.141467E-03
      0.260000          0.140647E-03
      0.265000          0.140723E-03
      0.270000          0.141502E-03
      0.275000          0.142817E-03
      0.280000          0.144525E-03
      0.285000          0.146499E-03
      0.290000          0.148627E-03
      0.295000          0.150811E-03
      0.300000          0.152959E-03
      0.305000          0.154988E-03
      0.310000          0.156822E-03
      0.315000          0.158395E-03
      0.320000          0.159645E-03
      0.325000          0.160523E-03
      0.330000          0.160987E-03
      0.335000          0.161008E-03
      0.340000          0.160569E-03
      0.345000          0.159663E-03
      0.350000          0.158298E-03
      0.355000          0.156490E-03
      0.360000          0.154269E-03
      0.365000          0.151671E-03
      0.370000          0.148740E-03
      0.375000          0.145526E-03
      0.380000          0.142081E-03
      0.385000          0.138459E-03
      0.390000          0.134710E-03
      0.395000          0.130885E-03
      0.400000          0.127027E-03
      0.405000          0.123176E-03
      0.410000          0.119365E-03
      0.415000          0.115621E-03
      0.420000          0.111965E-03
      0.425000          0.108412E-03
      0.430000          0.104972E-03
      0.435000          0.101653E-03
      0.440000          0.984561E-04
      0.445000          0.953842E-04
      0.450000          0.924370E-04
      0.455000          0.896144E-04
      0.460000          0.869166E-04
      0.465000          0.843448E-04
      0.470000          0.819012E-04
      0.475000          0.795892E-04
      0.480000          0.774133E-04
      0.485000          0.753787E-04
      0.490000          0.734912E-04
      0.495000          0.717564E-04
      0.500000          0.701793E-04
