 I_abs(s)[cm^-1]/c[mg/ml]
       0.00000          0.147226E-01
      0.500000E-02      0.146776E-01
      0.100000E-01      0.145436E-01
      0.150000E-01      0.143231E-01
      0.200000E-01      0.140203E-01
      0.250000E-01      0.136407E-01
      0.300000E-01      0.131914E-01
      0.350000E-01      0.126803E-01
      0.400000E-01      0.121163E-01
      0.450000E-01      0.115089E-01
      0.500000E-01      0.108680E-01
      0.550000E-01      0.102033E-01
      0.600000E-01      0.952457E-02
      0.650000E-01      0.884106E-02
      0.700000E-01      0.816138E-02
      0.750000E-01      0.749340E-02
      0.800000E-01      0.684402E-02
      0.850000E-01      0.621915E-02
      0.900000E-01      0.562362E-02
      0.950000E-01      0.506120E-02
      0.100000          0.453461E-02
      0.105000          0.404554E-02
      0.110000          0.359480E-02
      0.115000          0.318238E-02
      0.120000          0.280756E-02
      0.125000          0.246907E-02
      0.130000          0.216515E-02
      0.135000          0.189376E-02
      0.140000          0.165261E-02
      0.145000          0.143932E-02
      0.150000          0.125144E-02
      0.155000          0.108661E-02
      0.160000          0.942543E-03
      0.165000          0.817079E-03
      0.170000          0.708235E-03
      0.175000          0.614191E-03
      0.180000          0.533307E-03
      0.185000          0.464105E-03
      0.190000          0.405265E-03
      0.195000          0.355604E-03
      0.200000          0.314057E-03
      0.205000          0.279665E-03
      0.210000          0.251553E-03
      0.215000          0.228917E-03
      0.220000          0.211017E-03
      0.225000          0.197161E-03
      0.230000          0.186709E-03
      0.235000          0.179064E-03
      0.240000          0.173672E-03
      0.245000          0.170030E-03
      0.250000          0.167681E-03
      0.255000          0.166217E-03
      0.260000          0.165288E-03
      0.265000          0.164595E-03
      0.270000          0.163897E-03
      0.275000          0.163006E-03
      0.280000          0.161788E-03
      0.285000          0.160156E-03
      0.290000          0.158069E-03
      0.295000          0.155526E-03
      0.300000          0.152557E-03
      0.305000          0.149219E-03
      0.310000          0.145587E-03
      0.315000          0.141748E-03
      0.320000          0.137798E-03
      0.325000          0.133830E-03
      0.330000          0.129932E-03
      0.335000          0.126186E-03
      0.340000          0.122659E-03
      0.345000          0.119405E-03
      0.350000          0.116462E-03
      0.355000          0.113851E-03
      0.360000          0.111578E-03
      0.365000          0.109635E-03
      0.370000          0.107999E-03
      0.375000          0.106638E-03
      0.380000          0.105511E-03
      0.385000          0.104571E-03
      0.390000          0.103768E-03
      0.395000          0.103051E-03
      0.400000          0.102370E-03
      0.405000          0.101681E-03
      0.410000          0.100942E-03
      0.415000          0.100120E-03
      0.420000          0.991890E-04
      0.425000          0.981313E-04
      0.430000          0.969369E-04
      0.435000          0.956034E-04
      0.440000          0.941359E-04
      0.445000          0.925455E-04
      0.450000          0.908486E-04
      0.455000          0.890653E-04
      0.460000          0.872187E-04
      0.465000          0.853330E-04
      0.470000          0.834330E-04
      0.475000          0.815426E-04
      0.480000          0.796843E-04
      0.485000          0.778783E-04
      0.490000          0.761420E-04
      0.495000          0.744899E-04
      0.500000          0.729335E-04
