 I_abs(s)[cm^-1]/c[mg/ml]
       0.00000          0.147146E-01
      0.500000E-02      0.146766E-01
      0.100000E-01      0.145633E-01
      0.150000E-01      0.143762E-01
      0.200000E-01      0.141181E-01
      0.250000E-01      0.137929E-01
      0.300000E-01      0.134050E-01
      0.350000E-01      0.129601E-01
      0.400000E-01      0.124644E-01
      0.450000E-01      0.119245E-01
      0.500000E-01      0.113478E-01
      0.550000E-01      0.107415E-01
      0.600000E-01      0.101133E-01
      0.650000E-01      0.947061E-02
      0.700000E-01      0.882091E-02
      0.750000E-01      0.817119E-02
      0.800000E-01      0.752808E-02
      0.850000E-01      0.689767E-02
      0.900000E-01      0.628546E-02
      0.950000E-01      0.569626E-02
      0.100000          0.513415E-02
      0.105000          0.460247E-02
      0.110000          0.410382E-02
      0.115000          0.364003E-02
      0.120000          0.321223E-02
      0.125000          0.282087E-02
      0.130000          0.246578E-02
      0.135000          0.214624E-02
      0.140000          0.186105E-02
      0.145000          0.160860E-02
      0.150000          0.138696E-02
      0.155000          0.119395E-02
      0.160000          0.102721E-02
      0.165000          0.884311E-03
      0.170000          0.762760E-03
      0.175000          0.660107E-03
      0.180000          0.573973E-03
      0.185000          0.502101E-03
      0.190000          0.442382E-03
      0.195000          0.392887E-03
      0.200000          0.351877E-03
      0.205000          0.317815E-03
      0.210000          0.289363E-03
      0.215000          0.265383E-03
      0.220000          0.244924E-03
      0.225000          0.227208E-03
      0.230000          0.211617E-03
      0.235000          0.197670E-03
      0.240000          0.185008E-03
      0.245000          0.173371E-03
      0.250000          0.162582E-03
      0.255000          0.152531E-03
      0.260000          0.143152E-03
      0.265000          0.134415E-03
      0.270000          0.126315E-03
      0.275000          0.118855E-03
      0.280000          0.112045E-03
      0.285000          0.105893E-03
      0.290000          0.100402E-03
      0.295000          0.955649E-04
      0.300000          0.913689E-04
      0.305000          0.877902E-04
      0.310000          0.847971E-04
      0.315000          0.823513E-04
      0.320000          0.804089E-04
      0.325000          0.789229E-04
      0.330000          0.778445E-04
      0.335000          0.771250E-04
      0.340000          0.767170E-04
      0.345000          0.765756E-04
      0.350000          0.766594E-04
      0.355000          0.769303E-04
      0.360000          0.773543E-04
      0.365000          0.779012E-04
      0.370000          0.785441E-04
      0.375000          0.792590E-04
      0.380000          0.800245E-04
      0.385000          0.808210E-04
      0.390000          0.816300E-04
      0.395000          0.824341E-04
      0.400000          0.832162E-04
      0.405000          0.839591E-04
      0.410000          0.846460E-04
      0.415000          0.852599E-04
      0.420000          0.857841E-04
      0.425000          0.862022E-04
      0.430000          0.864988E-04
      0.435000          0.866595E-04
      0.440000          0.866718E-04
      0.445000          0.865253E-04
      0.450000          0.862123E-04
      0.455000          0.857279E-04
      0.460000          0.850709E-04
      0.465000          0.842433E-04
      0.470000          0.832510E-04
      0.475000          0.821036E-04
      0.480000          0.808142E-04
      0.485000          0.793991E-04
      0.490000          0.778777E-04
      0.495000          0.762718E-04
      0.500000          0.746051E-04
