 I_abs(s)[cm^-1]/c[mg/ml]
       0.00000          0.146190E-01
      0.500000E-02      0.145792E-01
      0.100000E-01      0.144601E-01
      0.150000E-01      0.142637E-01
      0.200000E-01      0.139931E-01
      0.250000E-01      0.136524E-01
      0.300000E-01      0.132467E-01
      0.350000E-01      0.127822E-01
      0.400000E-01      0.122656E-01
      0.450000E-01      0.117043E-01
      0.500000E-01      0.111062E-01
      0.550000E-01      0.104793E-01
      0.600000E-01      0.983177E-02
      0.650000E-01      0.917171E-02
      0.700000E-01      0.850694E-02
      0.750000E-01      0.784488E-02
      0.800000E-01      0.719247E-02
      0.850000E-01      0.655599E-02
      0.900000E-01      0.594102E-02
      0.950000E-01      0.535238E-02
      0.100000          0.479406E-02
      0.105000          0.426923E-02
      0.110000          0.378020E-02
      0.115000          0.332852E-02
      0.120000          0.291495E-02
      0.125000          0.253956E-02
      0.130000          0.220178E-02
      0.135000          0.190051E-02
      0.140000          0.163416E-02
      0.145000          0.140077E-02
      0.150000          0.119811E-02
      0.155000          0.102370E-02
      0.160000          0.875000E-03
      0.165000          0.749372E-03
      0.170000          0.644221E-03
      0.175000          0.557017E-03
      0.180000          0.485355E-03
      0.185000          0.426983E-03
      0.190000          0.379831E-03
      0.195000          0.342031E-03
      0.200000          0.311919E-03
      0.205000          0.288042E-03
      0.210000          0.269148E-03
      0.215000          0.254177E-03
      0.220000          0.242246E-03
      0.225000          0.232632E-03
      0.230000          0.224753E-03
      0.235000          0.218149E-03
      0.240000          0.212461E-03
      0.245000          0.207416E-03
      0.250000          0.202810E-03
      0.255000          0.198490E-03
      0.260000          0.194346E-03
      0.265000          0.190298E-03
      0.270000          0.186291E-03
      0.275000          0.182282E-03
      0.280000          0.178245E-03
      0.285000          0.174159E-03
      0.290000          0.170012E-03
      0.295000          0.165798E-03
      0.300000          0.161516E-03
      0.305000          0.157172E-03
      0.310000          0.152775E-03
      0.315000          0.148341E-03
      0.320000          0.143891E-03
      0.325000          0.139451E-03
      0.330000          0.135051E-03
      0.335000          0.130722E-03
      0.340000          0.126499E-03
      0.345000          0.122417E-03
      0.350000          0.118507E-03
      0.355000          0.114801E-03
      0.360000          0.111324E-03
      0.365000          0.108099E-03
      0.370000          0.105140E-03
      0.375000          0.102456E-03
      0.380000          0.100048E-03
      0.385000          0.979112E-04
      0.390000          0.960320E-04
      0.395000          0.943927E-04
      0.400000          0.929695E-04
      0.405000          0.917346E-04
      0.410000          0.906573E-04
      0.415000          0.897052E-04
      0.420000          0.888455E-04
      0.425000          0.880462E-04
      0.430000          0.872775E-04
      0.435000          0.865126E-04
      0.440000          0.857286E-04
      0.445000          0.849071E-04
      0.450000          0.840345E-04
      0.455000          0.831025E-04
      0.460000          0.821079E-04
      0.465000          0.810522E-04
      0.470000          0.799417E-04
      0.475000          0.787864E-04
      0.480000          0.775997E-04
      0.485000          0.763976E-04
      0.490000          0.751979E-04
      0.495000          0.740192E-04
      0.500000          0.728806E-04
