 I_abs(s)[cm^-1]/c[mg/ml]
       0.00000          0.145634E-01
      0.500000E-02      0.145180E-01
      0.100000E-01      0.143827E-01
      0.150000E-01      0.141602E-01
      0.200000E-01      0.138548E-01
      0.250000E-01      0.134725E-01
      0.300000E-01      0.130205E-01
      0.350000E-01      0.125073E-01
      0.400000E-01      0.119421E-01
      0.450000E-01      0.113347E-01
      0.500000E-01      0.106954E-01
      0.550000E-01      0.100341E-01
      0.600000E-01      0.936085E-02
      0.650000E-01      0.868496E-02
      0.700000E-01      0.801507E-02
      0.750000E-01      0.735895E-02
      0.800000E-01      0.672334E-02
      0.850000E-01      0.611387E-02
      0.900000E-01      0.553504E-02
      0.950000E-01      0.499021E-02
      0.100000          0.448165E-02
      0.105000          0.401061E-02
      0.110000          0.357744E-02
      0.115000          0.318167E-02
      0.120000          0.282222E-02
      0.125000          0.249746E-02
      0.130000          0.220539E-02
      0.135000          0.194376E-02
      0.140000          0.171021E-02
      0.145000          0.150230E-02
      0.150000          0.131768E-02
      0.155000          0.115408E-02
      0.160000          0.100941E-02
      0.165000          0.881751E-03
      0.170000          0.769358E-03
      0.175000          0.670692E-03
      0.180000          0.584383E-03
      0.185000          0.509215E-03
      0.190000          0.444107E-03
      0.195000          0.388085E-03
      0.200000          0.340261E-03
      0.205000          0.299811E-03
      0.210000          0.265964E-03
      0.215000          0.237984E-03
      0.220000          0.215168E-03
      0.225000          0.196844E-03
      0.230000          0.182368E-03
      0.235000          0.171134E-03
      0.240000          0.162576E-03
      0.245000          0.156175E-03
      0.250000          0.151465E-03
      0.255000          0.148038E-03
      0.260000          0.145547E-03
      0.265000          0.143705E-03
      0.270000          0.142285E-03
      0.275000          0.141115E-03
      0.280000          0.140073E-03
      0.285000          0.139078E-03
      0.290000          0.138085E-03
      0.295000          0.137074E-03
      0.300000          0.136043E-03
      0.305000          0.134999E-03
      0.310000          0.133955E-03
      0.315000          0.132921E-03
      0.320000          0.131906E-03
      0.325000          0.130910E-03
      0.330000          0.129928E-03
      0.335000          0.128950E-03
      0.340000          0.127958E-03
      0.345000          0.126936E-03
      0.350000          0.125865E-03
      0.355000          0.124729E-03
      0.360000          0.123517E-03
      0.365000          0.122222E-03
      0.370000          0.120841E-03
      0.375000          0.119379E-03
      0.380000          0.117847E-03
      0.385000          0.116257E-03
      0.390000          0.114625E-03
      0.395000          0.112968E-03
      0.400000          0.111302E-03
      0.405000          0.109639E-03
      0.410000          0.107988E-03
      0.415000          0.106354E-03
      0.420000          0.104736E-03
      0.425000          0.103128E-03
      0.430000          0.101520E-03
      0.435000          0.998981E-04
      0.440000          0.982462E-04
      0.445000          0.965482E-04
      0.450000          0.947890E-04
      0.455000          0.929557E-04
      0.460000          0.910399E-04
      0.465000          0.890380E-04
      0.470000          0.869522E-04
      0.475000          0.847910E-04
      0.480000          0.825691E-04
      0.485000          0.803067E-04
      0.490000          0.780293E-04
      0.495000          0.757662E-04
      0.500000          0.735492E-04
