 I_abs(s)[cm^-1]/c[mg/ml]
       0.00000          0.145634E-01
      0.500000E-02      0.145208E-01
      0.100000E-01      0.143936E-01
      0.150000E-01      0.141841E-01
      0.200000E-01      0.138958E-01
      0.250000E-01      0.135339E-01
      0.300000E-01      0.131044E-01
      0.350000E-01      0.126144E-01
      0.400000E-01      0.120720E-01
      0.450000E-01      0.114857E-01
      0.500000E-01      0.108646E-01
      0.550000E-01      0.102177E-01
      0.600000E-01      0.955436E-02
      0.650000E-01      0.888334E-02
      0.700000E-01      0.821312E-02
      0.750000E-01      0.755156E-02
      0.800000E-01      0.690577E-02
      0.850000E-01      0.628200E-02
      0.900000E-01      0.568556E-02
      0.950000E-01      0.512078E-02
      0.100000          0.459098E-02
      0.105000          0.409849E-02
      0.110000          0.364470E-02
      0.115000          0.323011E-02
      0.120000          0.285441E-02
      0.125000          0.251663E-02
      0.130000          0.221516E-02
      0.135000          0.194795E-02
      0.140000          0.171260E-02
      0.145000          0.150646E-02
      0.150000          0.132673E-02
      0.155000          0.117059E-02
      0.160000          0.103527E-02
      0.165000          0.918108E-03
      0.170000          0.816629E-03
      0.175000          0.728565E-03
      0.180000          0.651891E-03
      0.185000          0.584838E-03
      0.190000          0.525893E-03
      0.195000          0.473791E-03
      0.200000          0.427493E-03
      0.205000          0.386169E-03
      0.210000          0.349165E-03
      0.215000          0.315975E-03
      0.220000          0.286213E-03
      0.225000          0.259582E-03
      0.230000          0.235850E-03
      0.235000          0.214825E-03
      0.240000          0.196340E-03
      0.245000          0.180234E-03
      0.250000          0.166347E-03
      0.255000          0.154510E-03
      0.260000          0.144545E-03
      0.265000          0.136263E-03
      0.270000          0.129468E-03
      0.275000          0.123963E-03
      0.280000          0.119551E-03
      0.285000          0.116043E-03
      0.290000          0.113264E-03
      0.295000          0.111056E-03
      0.300000          0.109281E-03
      0.305000          0.107824E-03
      0.310000          0.106594E-03
      0.315000          0.105525E-03
      0.320000          0.104569E-03
      0.325000          0.103700E-03
      0.330000          0.102907E-03
      0.335000          0.102194E-03
      0.340000          0.101568E-03
      0.345000          0.101046E-03
      0.350000          0.100643E-03
      0.355000          0.100373E-03
      0.360000          0.100244E-03
      0.365000          0.100260E-03
      0.370000          0.100414E-03
      0.375000          0.100694E-03
      0.380000          0.101078E-03
      0.385000          0.101541E-03
      0.390000          0.102047E-03
      0.395000          0.102560E-03
      0.400000          0.103041E-03
      0.405000          0.103449E-03
      0.410000          0.103748E-03
      0.415000          0.103903E-03
      0.420000          0.103883E-03
      0.425000          0.103666E-03
      0.430000          0.103234E-03
      0.435000          0.102576E-03
      0.440000          0.101692E-03
      0.445000          0.100585E-03
      0.450000          0.992681E-04
      0.455000          0.977576E-04
      0.460000          0.960767E-04
      0.465000          0.942523E-04
      0.470000          0.923142E-04
      0.475000          0.902944E-04
      0.480000          0.882254E-04
      0.485000          0.861397E-04
      0.490000          0.840686E-04
      0.495000          0.820417E-04
      0.500000          0.800856E-04
