 I_abs(s)[cm^-1]/c[mg/ml]
       0.00000          0.144763E-01
      0.500000E-02      0.144273E-01
      0.100000E-01      0.142816E-01
      0.150000E-01      0.140423E-01
      0.200000E-01      0.137148E-01
      0.250000E-01      0.133060E-01
      0.300000E-01      0.128246E-01
      0.350000E-01      0.122805E-01
      0.400000E-01      0.116846E-01
      0.450000E-01      0.110482E-01
      0.500000E-01      0.103829E-01
      0.550000E-01      0.970001E-02
      0.600000E-01      0.901045E-02
      0.650000E-01      0.832431E-02
      0.700000E-01      0.765065E-02
      0.750000E-01      0.699736E-02
      0.800000E-01      0.637098E-02
      0.850000E-01      0.577671E-02
      0.900000E-01      0.521835E-02
      0.950000E-01      0.469843E-02
      0.100000          0.421823E-02
      0.105000          0.377798E-02
      0.110000          0.337698E-02
      0.115000          0.301379E-02
      0.120000          0.268641E-02
      0.125000          0.239243E-02
      0.130000          0.212923E-02
      0.135000          0.189409E-02
      0.140000          0.168430E-02
      0.145000          0.149726E-02
      0.150000          0.133057E-02
      0.155000          0.118203E-02
      0.160000          0.104970E-02
      0.165000          0.931850E-03
      0.170000          0.826997E-03
      0.175000          0.733853E-03
      0.180000          0.651303E-03
      0.185000          0.578372E-03
      0.190000          0.514193E-03
      0.195000          0.457980E-03
      0.200000          0.409008E-03
      0.205000          0.366590E-03
      0.210000          0.330073E-03
      0.215000          0.298828E-03
      0.220000          0.272249E-03
      0.225000          0.249758E-03
      0.230000          0.230808E-03
      0.235000          0.214891E-03
      0.240000          0.201540E-03
      0.245000          0.190337E-03
      0.250000          0.180915E-03
      0.255000          0.172957E-03
      0.260000          0.166199E-03
      0.265000          0.160423E-03
      0.270000          0.155455E-03
      0.275000          0.151158E-03
      0.280000          0.147428E-03
      0.285000          0.144183E-03
      0.290000          0.141364E-03
      0.295000          0.138921E-03
      0.300000          0.136816E-03
      0.305000          0.135015E-03
      0.310000          0.133486E-03
      0.315000          0.132201E-03
      0.320000          0.131128E-03
      0.325000          0.130237E-03
      0.330000          0.129498E-03
      0.335000          0.128881E-03
      0.340000          0.128356E-03
      0.345000          0.127893E-03
      0.350000          0.127466E-03
      0.355000          0.127048E-03
      0.360000          0.126612E-03
      0.365000          0.126135E-03
      0.370000          0.125593E-03
      0.375000          0.124962E-03
      0.380000          0.124222E-03
      0.385000          0.123351E-03
      0.390000          0.122332E-03
      0.395000          0.121147E-03
      0.400000          0.119783E-03
      0.405000          0.118230E-03
      0.410000          0.116483E-03
      0.415000          0.114542E-03
      0.420000          0.112411E-03
      0.425000          0.110101E-03
      0.430000          0.107628E-03
      0.435000          0.105015E-03
      0.440000          0.102287E-03
      0.445000          0.994751E-04
      0.450000          0.966117E-04
      0.455000          0.937317E-04
      0.460000          0.908702E-04
      0.465000          0.880617E-04
      0.470000          0.853387E-04
      0.475000          0.827308E-04
      0.480000          0.802643E-04
      0.485000          0.779611E-04
      0.490000          0.758389E-04
      0.495000          0.739107E-04
      0.500000          0.721852E-04
