 I_abs(s)[cm^-1]/c[mg/ml]
       0.00000          0.146748E-01
      0.500000E-02      0.146322E-01
      0.100000E-01      0.145052E-01
      0.150000E-01      0.142961E-01
      0.200000E-01      0.140084E-01
      0.250000E-01      0.136471E-01
      0.300000E-01      0.132182E-01
      0.350000E-01      0.127290E-01
      0.400000E-01      0.121872E-01
      0.450000E-01      0.116015E-01
      0.500000E-01      0.109807E-01
      0.550000E-01      0.103340E-01
      0.600000E-01      0.967039E-02
      0.650000E-01      0.899862E-02
      0.700000E-01      0.832707E-02
      0.750000E-01      0.766350E-02
      0.800000E-01      0.701490E-02
      0.850000E-01      0.638746E-02
      0.900000E-01      0.578643E-02
      0.950000E-01      0.521610E-02
      0.100000          0.467979E-02
      0.105000          0.417987E-02
      0.110000          0.371779E-02
      0.115000          0.329414E-02
      0.120000          0.290878E-02
      0.125000          0.256088E-02
      0.130000          0.224904E-02
      0.135000          0.197142E-02
      0.140000          0.172584E-02
      0.145000          0.150987E-02
      0.150000          0.132094E-02
      0.155000          0.115643E-02
      0.160000          0.101375E-02
      0.165000          0.890379E-03
      0.170000          0.783940E-03
      0.175000          0.692229E-03
      0.180000          0.613234E-03
      0.185000          0.545154E-03
      0.190000          0.486400E-03
      0.195000          0.435586E-03
      0.200000          0.391523E-03
      0.205000          0.353200E-03
      0.210000          0.319764E-03
      0.215000          0.290503E-03
      0.220000          0.264824E-03
      0.225000          0.242232E-03
      0.230000          0.222315E-03
      0.235000          0.204728E-03
      0.240000          0.189178E-03
      0.245000          0.175419E-03
      0.250000          0.163236E-03
      0.255000          0.152446E-03
      0.260000          0.142889E-03
      0.265000          0.134430E-03
      0.270000          0.126950E-03
      0.275000          0.120350E-03
      0.280000          0.114547E-03
      0.285000          0.109473E-03
      0.290000          0.105071E-03
      0.295000          0.101298E-03
      0.300000          0.981179E-04
      0.305000          0.955004E-04
      0.310000          0.934193E-04
      0.315000          0.918488E-04
      0.320000          0.907619E-04
      0.325000          0.901279E-04
      0.330000          0.899112E-04
      0.335000          0.900703E-04
      0.340000          0.905577E-04
      0.345000          0.913196E-04
      0.350000          0.922976E-04
      0.355000          0.934297E-04
      0.360000          0.946521E-04
      0.365000          0.959015E-04
      0.370000          0.971170E-04
      0.375000          0.982424E-04
      0.380000          0.992280E-04
      0.385000          0.100033E-03
      0.390000          0.100624E-03
      0.395000          0.100981E-03
      0.400000          0.101091E-03
      0.405000          0.100955E-03
      0.410000          0.100580E-03
      0.415000          0.999827E-04
      0.420000          0.991873E-04
      0.425000          0.982223E-04
      0.430000          0.971199E-04
      0.435000          0.959135E-04
      0.440000          0.946364E-04
      0.445000          0.933201E-04
      0.450000          0.919926E-04
      0.455000          0.906780E-04
      0.460000          0.893951E-04
      0.465000          0.881579E-04
      0.470000          0.869747E-04
      0.475000          0.858490E-04
      0.480000          0.847800E-04
      0.485000          0.837631E-04
      0.490000          0.827910E-04
      0.495000          0.818549E-04
      0.500000          0.809449E-04
