 I_abs(s)[cm^-1]/c[mg/ml]
       0.00000          0.146270E-01
      0.500000E-02      0.145841E-01
      0.100000E-01      0.144561E-01
      0.150000E-01      0.142455E-01
      0.200000E-01      0.139561E-01
      0.250000E-01      0.135932E-01
      0.300000E-01      0.131632E-01
      0.350000E-01      0.126736E-01
      0.400000E-01      0.121328E-01
      0.450000E-01      0.115495E-01
      0.500000E-01      0.109330E-01
      0.550000E-01      0.102923E-01
      0.600000E-01      0.963673E-02
      0.650000E-01      0.897482E-02
      0.700000E-01      0.831474E-02
      0.750000E-01      0.766392E-02
      0.800000E-01      0.702892E-02
      0.850000E-01      0.641543E-02
      0.900000E-01      0.582815E-02
      0.950000E-01      0.527082E-02
      0.100000          0.474623E-02
      0.105000          0.425626E-02
      0.110000          0.380195E-02
      0.115000          0.338361E-02
      0.120000          0.300091E-02
      0.125000          0.265296E-02
      0.130000          0.233843E-02
      0.135000          0.205568E-02
      0.140000          0.180283E-02
      0.145000          0.157782E-02
      0.150000          0.137854E-02
      0.155000          0.120285E-02
      0.160000          0.104865E-02
      0.165000          0.913914E-03
      0.170000          0.796702E-03
      0.175000          0.695195E-03
      0.180000          0.607695E-03
      0.185000          0.532631E-03
      0.190000          0.468553E-03
      0.195000          0.414135E-03
      0.200000          0.368159E-03
      0.205000          0.329517E-03
      0.210000          0.297198E-03
      0.215000          0.270284E-03
      0.220000          0.247946E-03
      0.225000          0.229437E-03
      0.230000          0.214091E-03
      0.235000          0.201316E-03
      0.240000          0.190595E-03
      0.245000          0.181484E-03
      0.250000          0.173602E-03
      0.255000          0.166635E-03
      0.260000          0.160329E-03
      0.265000          0.154486E-03
      0.270000          0.148956E-03
      0.275000          0.143635E-03
      0.280000          0.138457E-03
      0.285000          0.133387E-03
      0.290000          0.128419E-03
      0.295000          0.123563E-03
      0.300000          0.118845E-03
      0.305000          0.114301E-03
      0.310000          0.109968E-03
      0.315000          0.105888E-03
      0.320000          0.102097E-03
      0.325000          0.986297E-04
      0.330000          0.955113E-04
      0.335000          0.927610E-04
      0.340000          0.903898E-04
      0.345000          0.884008E-04
      0.350000          0.867889E-04
      0.355000          0.855422E-04
      0.360000          0.846421E-04
      0.365000          0.840643E-04
      0.370000          0.837800E-04
      0.375000          0.837566E-04
      0.380000          0.839586E-04
      0.385000          0.843485E-04
      0.390000          0.848879E-04
      0.395000          0.855379E-04
      0.400000          0.862600E-04
      0.405000          0.870170E-04
      0.410000          0.877731E-04
      0.415000          0.884950E-04
      0.420000          0.891521E-04
      0.425000          0.897171E-04
      0.430000          0.901661E-04
      0.435000          0.904795E-04
      0.440000          0.906417E-04
      0.445000          0.906418E-04
      0.450000          0.904732E-04
      0.455000          0.901339E-04
      0.460000          0.896266E-04
      0.465000          0.889582E-04
      0.470000          0.881396E-04
      0.475000          0.871855E-04
      0.480000          0.861138E-04
      0.485000          0.849450E-04
      0.490000          0.837020E-04
      0.495000          0.824087E-04
      0.500000          0.810898E-04
