 I_abs(s)[cm^-1]/c[mg/ml]
       0.00000          0.146111E-01
      0.500000E-02      0.145651E-01
      0.100000E-01      0.144280E-01
      0.150000E-01      0.142028E-01
      0.200000E-01      0.138940E-01
      0.250000E-01      0.135080E-01
      0.300000E-01      0.130524E-01
      0.350000E-01      0.125361E-01
      0.400000E-01      0.119687E-01
      0.450000E-01      0.113604E-01
      0.500000E-01      0.107214E-01
      0.550000E-01      0.100621E-01
      0.600000E-01      0.939237E-02
      0.650000E-01      0.872131E-02
      0.700000E-01      0.805736E-02
      0.750000E-01      0.740790E-02
      0.800000E-01      0.677924E-02
      0.850000E-01      0.617653E-02
      0.900000E-01      0.560379E-02
      0.950000E-01      0.506395E-02
      0.100000          0.455892E-02
      0.105000          0.408966E-02
      0.110000          0.365638E-02
      0.115000          0.325859E-02
      0.120000          0.289528E-02
      0.125000          0.256506E-02
      0.130000          0.226623E-02
      0.135000          0.199692E-02
      0.140000          0.175518E-02
      0.145000          0.153902E-02
      0.150000          0.134648E-02
      0.155000          0.117568E-02
      0.160000          0.102480E-02
      0.165000          0.892127E-03
      0.170000          0.776040E-03
      0.175000          0.675013E-03
      0.180000          0.587603E-03
      0.185000          0.512449E-03
      0.190000          0.448263E-03
      0.195000          0.393828E-03
      0.200000          0.347995E-03
      0.205000          0.309687E-03
      0.210000          0.277897E-03
      0.215000          0.251695E-03
      0.220000          0.230231E-03
      0.225000          0.212739E-03
      0.230000          0.198536E-03
      0.235000          0.187030E-03
      0.240000          0.177709E-03
      0.245000          0.170144E-03
      0.250000          0.163981E-03
      0.255000          0.158935E-03
      0.260000          0.154779E-03
      0.265000          0.151338E-03
      0.270000          0.148478E-03
      0.275000          0.146096E-03
      0.280000          0.144116E-03
      0.285000          0.142475E-03
      0.290000          0.141123E-03
      0.295000          0.140018E-03
      0.300000          0.139119E-03
      0.305000          0.138387E-03
      0.310000          0.137783E-03
      0.315000          0.137266E-03
      0.320000          0.136800E-03
      0.325000          0.136344E-03
      0.330000          0.135863E-03
      0.335000          0.135321E-03
      0.340000          0.134689E-03
      0.345000          0.133938E-03
      0.350000          0.133046E-03
      0.355000          0.131994E-03
      0.360000          0.130768E-03
      0.365000          0.129358E-03
      0.370000          0.127760E-03
      0.375000          0.125973E-03
      0.380000          0.124002E-03
      0.385000          0.121855E-03
      0.390000          0.119544E-03
      0.395000          0.117084E-03
      0.400000          0.114495E-03
      0.405000          0.111798E-03
      0.410000          0.109017E-03
      0.415000          0.106180E-03
      0.420000          0.103313E-03
      0.425000          0.100444E-03
      0.430000          0.976000E-04
      0.435000          0.948093E-04
      0.440000          0.920966E-04
      0.445000          0.894855E-04
      0.450000          0.869969E-04
      0.455000          0.846487E-04
      0.460000          0.824559E-04
      0.465000          0.804301E-04
      0.470000          0.785795E-04
      0.475000          0.769094E-04
      0.480000          0.754217E-04
      0.485000          0.741154E-04
      0.490000          0.729870E-04
      0.495000          0.720302E-04
      0.500000          0.712370E-04
