 I_abs(s)[cm^-1]/c[mg/ml]
       0.00000          0.145476E-01
      0.500000E-02      0.145036E-01
      0.100000E-01      0.143723E-01
      0.150000E-01      0.141563E-01
      0.200000E-01      0.138593E-01
      0.250000E-01      0.134866E-01
      0.300000E-01      0.130449E-01
      0.350000E-01      0.125415E-01
      0.400000E-01      0.119851E-01
      0.450000E-01      0.113845E-01
      0.500000E-01      0.107493E-01
      0.550000E-01      0.100889E-01
      0.600000E-01      0.941272E-02
      0.650000E-01      0.872996E-02
      0.700000E-01      0.804920E-02
      0.750000E-01      0.737839E-02
      0.800000E-01      0.672468E-02
      0.850000E-01      0.609429E-02
      0.900000E-01      0.549250E-02
      0.950000E-01      0.492358E-02
      0.100000          0.439079E-02
      0.105000          0.389641E-02
      0.110000          0.344182E-02
      0.115000          0.302752E-02
      0.120000          0.265324E-02
      0.125000          0.231805E-02
      0.130000          0.202046E-02
      0.135000          0.175850E-02
      0.140000          0.152985E-02
      0.145000          0.133191E-02
      0.150000          0.116195E-02
      0.155000          0.101711E-02
      0.160000          0.894564E-03
      0.165000          0.791504E-03
      0.170000          0.705248E-03
      0.175000          0.633262E-03
      0.180000          0.573196E-03
      0.185000          0.522913E-03
      0.190000          0.480502E-03
      0.195000          0.444290E-03
      0.200000          0.412845E-03
      0.205000          0.384970E-03
      0.210000          0.359699E-03
      0.215000          0.336280E-03
      0.220000          0.314159E-03
      0.225000          0.292963E-03
      0.230000          0.272474E-03
      0.235000          0.252607E-03
      0.240000          0.233382E-03
      0.245000          0.214901E-03
      0.250000          0.197322E-03
      0.255000          0.180836E-03
      0.260000          0.165643E-03
      0.265000          0.151933E-03
      0.270000          0.139870E-03
      0.275000          0.129580E-03
      0.280000          0.121140E-03
      0.285000          0.114572E-03
      0.290000          0.109841E-03
      0.295000          0.106858E-03
      0.300000          0.105483E-03
      0.305000          0.105532E-03
      0.310000          0.106785E-03
      0.315000          0.108999E-03
      0.320000          0.111914E-03
      0.325000          0.115271E-03
      0.330000          0.118815E-03
      0.335000          0.122310E-03
      0.340000          0.125544E-03
      0.345000          0.128337E-03
      0.350000          0.130546E-03
      0.355000          0.132063E-03
      0.360000          0.132823E-03
      0.365000          0.132797E-03
      0.370000          0.131993E-03
      0.375000          0.130451E-03
      0.380000          0.128236E-03
      0.385000          0.125437E-03
      0.390000          0.122159E-03
      0.395000          0.118515E-03
      0.400000          0.114624E-03
      0.405000          0.110606E-03
      0.410000          0.106571E-03
      0.415000          0.102626E-03
      0.420000          0.988610E-04
      0.425000          0.953541E-04
      0.430000          0.921667E-04
      0.435000          0.893437E-04
      0.440000          0.869132E-04
      0.445000          0.848871E-04
      0.450000          0.832624E-04
      0.455000          0.820226E-04
      0.460000          0.811392E-04
      0.465000          0.805743E-04
      0.470000          0.802824E-04
      0.475000          0.802127E-04
      0.480000          0.803115E-04
      0.485000          0.805239E-04
      0.490000          0.807965E-04
      0.495000          0.810783E-04
      0.500000          0.813232E-04
