 I_abs(s)[cm^-1]/c[mg/ml]
       0.00000          0.145000E-01
      0.500000E-02      0.144566E-01
      0.100000E-01      0.143273E-01
      0.150000E-01      0.141145E-01
      0.200000E-01      0.138225E-01
      0.250000E-01      0.134566E-01
      0.300000E-01      0.130239E-01
      0.350000E-01      0.125320E-01
      0.400000E-01      0.119898E-01
      0.450000E-01      0.114063E-01
      0.500000E-01      0.107912E-01
      0.550000E-01      0.101538E-01
      0.600000E-01      0.950355E-02
      0.650000E-01      0.884907E-02
      0.700000E-01      0.819852E-02
      0.750000E-01      0.755923E-02
      0.800000E-01      0.693755E-02
      0.850000E-01      0.633885E-02
      0.900000E-01      0.576748E-02
      0.950000E-01      0.522674E-02
      0.100000          0.471894E-02
      0.105000          0.424550E-02
      0.110000          0.380700E-02
      0.115000          0.340332E-02
      0.120000          0.303374E-02
      0.125000          0.269707E-02
      0.130000          0.239178E-02
      0.135000          0.211608E-02
      0.140000          0.186804E-02
      0.145000          0.164566E-02
      0.150000          0.144695E-02
      0.155000          0.126999E-02
      0.160000          0.111292E-02
      0.165000          0.974009E-03
      0.170000          0.851653E-03
      0.175000          0.744355E-03
      0.180000          0.650739E-03
      0.185000          0.569527E-03
      0.190000          0.499533E-03
      0.195000          0.439644E-03
      0.200000          0.388813E-03
      0.205000          0.346046E-03
      0.210000          0.310398E-03
      0.215000          0.280969E-03
      0.220000          0.256908E-03
      0.225000          0.237411E-03
      0.230000          0.221729E-03
      0.235000          0.209172E-03
      0.240000          0.199116E-03
      0.245000          0.191004E-03
      0.250000          0.184355E-03
      0.255000          0.178758E-03
      0.260000          0.173878E-03
      0.265000          0.169450E-03
      0.270000          0.165273E-03
      0.275000          0.161205E-03
      0.280000          0.157158E-03
      0.285000          0.153081E-03
      0.290000          0.148960E-03
      0.295000          0.144805E-03
      0.300000          0.140641E-03
      0.305000          0.136504E-03
      0.310000          0.132433E-03
      0.315000          0.128465E-03
      0.320000          0.124636E-03
      0.325000          0.120971E-03
      0.330000          0.117491E-03
      0.335000          0.114210E-03
      0.340000          0.111133E-03
      0.345000          0.108263E-03
      0.350000          0.105597E-03
      0.355000          0.103130E-03
      0.360000          0.100855E-03
      0.365000          0.987668E-04
      0.370000          0.968574E-04
      0.375000          0.951210E-04
      0.380000          0.935516E-04
      0.385000          0.921433E-04
      0.390000          0.908900E-04
      0.395000          0.897845E-04
      0.400000          0.888181E-04
      0.405000          0.879804E-04
      0.410000          0.872584E-04
      0.415000          0.866370E-04
      0.420000          0.860987E-04
      0.425000          0.856239E-04
      0.430000          0.851918E-04
      0.435000          0.847803E-04
      0.440000          0.843675E-04
      0.445000          0.839319E-04
      0.450000          0.834536E-04
      0.455000          0.829151E-04
      0.460000          0.823016E-04
      0.465000          0.816016E-04
      0.470000          0.808078E-04
      0.475000          0.799166E-04
      0.480000          0.789287E-04
      0.485000          0.778484E-04
      0.490000          0.766842E-04
      0.495000          0.754473E-04
      0.500000          0.741521E-04
