 I_abs(s)[cm^-1]/c[mg/ml]
       0.00000          0.141302E-01
      0.500000E-02      0.140007E-01
      0.100000E-01      0.136214E-01
      0.150000E-01      0.130188E-01
      0.200000E-01      0.122337E-01
      0.250000E-01      0.113163E-01
      0.300000E-01      0.103213E-01
      0.350000E-01      0.930155E-02
      0.400000E-01      0.830405E-02
      0.450000E-01      0.736573E-02
      0.500000E-01      0.651177E-02
      0.550000E-01      0.575527E-02
      0.600000E-01      0.509853E-02
      0.650000E-01      0.453541E-02
      0.700000E-01      0.405423E-02
      0.750000E-01      0.364086E-02
      0.800000E-01      0.328125E-02
      0.850000E-01      0.296334E-02
      0.900000E-01      0.267811E-02
      0.950000E-01      0.241978E-02
      0.100000          0.218536E-02
      0.105000          0.197385E-02
      0.110000          0.178519E-02
      0.115000          0.161942E-02
      0.120000          0.147600E-02
      0.125000          0.135351E-02
      0.130000          0.124964E-02
      0.135000          0.116135E-02
      0.140000          0.108531E-02
      0.145000          0.101823E-02
      0.150000          0.957207E-03
      0.155000          0.899941E-03
      0.160000          0.844842E-03
      0.165000          0.791006E-03
      0.170000          0.738112E-03
      0.175000          0.686281E-03
      0.180000          0.635917E-03
      0.185000          0.587564E-03
      0.190000          0.541787E-03
      0.195000          0.499084E-03
      0.200000          0.459828E-03
      0.205000          0.424238E-03
      0.210000          0.392363E-03
      0.215000          0.364100E-03
      0.220000          0.339213E-03
      0.225000          0.317377E-03
      0.230000          0.298225E-03
      0.235000          0.281399E-03
      0.240000          0.266585E-03
      0.245000          0.253545E-03
      0.250000          0.242115E-03
      0.255000          0.232199E-03
      0.260000          0.223733E-03
      0.265000          0.216651E-03
      0.270000          0.210848E-03
      0.275000          0.206158E-03
      0.280000          0.202342E-03
      0.285000          0.199102E-03
      0.290000          0.196111E-03
      0.295000          0.193044E-03
      0.300000          0.189628E-03
      0.305000          0.185670E-03
      0.310000          0.181084E-03
      0.315000          0.175895E-03
      0.320000          0.170235E-03
      0.325000          0.164316E-03
      0.330000          0.158401E-03
      0.335000          0.152764E-03
      0.340000          0.147659E-03
      0.345000          0.143282E-03
      0.350000          0.139752E-03
      0.355000          0.137101E-03
      0.360000          0.135268E-03
      0.365000          0.134110E-03
      0.370000          0.133424E-03
      0.375000          0.132975E-03
      0.380000          0.132519E-03
      0.385000          0.131841E-03
      0.390000          0.130776E-03
      0.395000          0.129226E-03
      0.400000          0.127169E-03
      0.405000          0.124651E-03
      0.410000          0.121773E-03
      0.415000          0.118673E-03
      0.420000          0.115494E-03
      0.425000          0.112373E-03
      0.430000          0.109414E-03
      0.435000          0.106687E-03
      0.440000          0.104223E-03
      0.445000          0.102022E-03
      0.450000          0.100064E-03
      0.455000          0.983191E-04
      0.460000          0.967569E-04
      0.465000          0.953525E-04
      0.470000          0.940859E-04
      0.475000          0.929394E-04
      0.480000          0.918921E-04
      0.485000          0.909163E-04
      0.490000          0.899758E-04
      0.495000          0.890273E-04
      0.500000          0.880264E-04
