 I_abs(s)[cm^-1]/c[mg/ml]
       0.00000          0.146111E-01
      0.500000E-02      0.145651E-01
      0.100000E-01      0.144279E-01
      0.150000E-01      0.142025E-01
      0.200000E-01      0.138933E-01
      0.250000E-01      0.135066E-01
      0.300000E-01      0.130498E-01
      0.350000E-01      0.125318E-01
      0.400000E-01      0.119621E-01
      0.450000E-01      0.113507E-01
      0.500000E-01      0.107079E-01
      0.550000E-01      0.100440E-01
      0.600000E-01      0.936900E-02
      0.650000E-01      0.869211E-02
      0.700000E-01      0.802189E-02
      0.750000E-01      0.736593E-02
      0.800000E-01      0.673073E-02
      0.850000E-01      0.612170E-02
      0.900000E-01      0.554306E-02
      0.950000E-01      0.499797E-02
      0.100000          0.448850E-02
      0.105000          0.401579E-02
      0.110000          0.358012E-02
      0.115000          0.318105E-02
      0.120000          0.281757E-02
      0.125000          0.248821E-02
      0.130000          0.219118E-02
      0.135000          0.192446E-02
      0.140000          0.168593E-02
      0.145000          0.147342E-02
      0.150000          0.128480E-02
      0.155000          0.111799E-02
      0.160000          0.971023E-03
      0.165000          0.842068E-03
      0.170000          0.729406E-03
      0.175000          0.631453E-03
      0.180000          0.546743E-03
      0.185000          0.473926E-03
      0.190000          0.411753E-03
      0.195000          0.359068E-03
      0.200000          0.314795E-03
      0.205000          0.277938E-03
      0.210000          0.247569E-03
      0.215000          0.222830E-03
      0.220000          0.202929E-03
      0.225000          0.187141E-03
      0.230000          0.174806E-03
      0.235000          0.165331E-03
      0.240000          0.158191E-03
      0.245000          0.152922E-03
      0.250000          0.149126E-03
      0.255000          0.146462E-03
      0.260000          0.144645E-03
      0.265000          0.143440E-03
      0.270000          0.142656E-03
      0.275000          0.142140E-03
      0.280000          0.141773E-03
      0.285000          0.141464E-03
      0.290000          0.141142E-03
      0.295000          0.140756E-03
      0.300000          0.140269E-03
      0.305000          0.139656E-03
      0.310000          0.138898E-03
      0.315000          0.137988E-03
      0.320000          0.136920E-03
      0.325000          0.135698E-03
      0.330000          0.134328E-03
      0.335000          0.132819E-03
      0.340000          0.131186E-03
      0.345000          0.129444E-03
      0.350000          0.127614E-03
      0.355000          0.125714E-03
      0.360000          0.123766E-03
      0.365000          0.121789E-03
      0.370000          0.119805E-03
      0.375000          0.117829E-03
      0.380000          0.115878E-03
      0.385000          0.113963E-03
      0.390000          0.112093E-03
      0.395000          0.110275E-03
      0.400000          0.108511E-03
      0.405000          0.106801E-03
      0.410000          0.105142E-03
      0.415000          0.103531E-03
      0.420000          0.101961E-03
      0.425000          0.100429E-03
      0.430000          0.989291E-04
      0.435000          0.974582E-04
      0.440000          0.960142E-04
      0.445000          0.945969E-04
      0.450000          0.932085E-04
      0.455000          0.918526E-04
      0.460000          0.905350E-04
      0.465000          0.892625E-04
      0.470000          0.880430E-04
      0.475000          0.868845E-04
      0.480000          0.857945E-04
      0.485000          0.847794E-04
      0.490000          0.838441E-04
      0.495000          0.829913E-04
      0.500000          0.822211E-04
