 I_abs(s)[cm^-1]/c[mg/ml]
       0.00000          0.145555E-01
      0.500000E-02      0.145062E-01
      0.100000E-01      0.143595E-01
      0.150000E-01      0.141180E-01
      0.200000E-01      0.137867E-01
      0.250000E-01      0.133719E-01
      0.300000E-01      0.128815E-01
      0.350000E-01      0.123248E-01
      0.400000E-01      0.117118E-01
      0.450000E-01      0.110534E-01
      0.500000E-01      0.103609E-01
      0.550000E-01      0.964566E-02
      0.600000E-01      0.891879E-02
      0.650000E-01      0.819099E-02
      0.700000E-01      0.747220E-02
      0.750000E-01      0.677147E-02
      0.800000E-01      0.609674E-02
      0.850000E-01      0.545473E-02
      0.900000E-01      0.485090E-02
      0.950000E-01      0.428936E-02
      0.100000          0.377293E-02
      0.105000          0.330321E-02
      0.110000          0.288059E-02
      0.115000          0.250444E-02
      0.120000          0.217324E-02
      0.125000          0.188468E-02
      0.130000          0.163588E-02
      0.135000          0.142351E-02
      0.140000          0.124398E-02
      0.145000          0.109352E-02
      0.150000          0.968383E-03
      0.155000          0.864921E-03
      0.160000          0.779671E-03
      0.165000          0.709435E-03
      0.170000          0.651331E-03
      0.175000          0.602824E-03
      0.180000          0.561737E-03
      0.185000          0.526251E-03
      0.190000          0.494890E-03
      0.195000          0.466498E-03
      0.200000          0.440202E-03
      0.205000          0.415381E-03
      0.210000          0.391622E-03
      0.215000          0.368686E-03
      0.220000          0.346466E-03
      0.225000          0.324953E-03
      0.230000          0.304208E-03
      0.235000          0.284334E-03
      0.240000          0.265450E-03
      0.245000          0.247681E-03
      0.250000          0.231141E-03
      0.255000          0.215921E-03
      0.260000          0.202091E-03
      0.265000          0.189690E-03
      0.270000          0.178727E-03
      0.275000          0.169186E-03
      0.280000          0.161023E-03
      0.285000          0.154173E-03
      0.290000          0.148551E-03
      0.295000          0.144058E-03
      0.300000          0.140583E-03
      0.305000          0.138010E-03
      0.310000          0.136218E-03
      0.315000          0.135085E-03
      0.320000          0.134493E-03
      0.325000          0.134329E-03
      0.330000          0.134487E-03
      0.335000          0.134869E-03
      0.340000          0.135390E-03
      0.345000          0.135972E-03
      0.350000          0.136552E-03
      0.355000          0.137076E-03
      0.360000          0.137503E-03
      0.365000          0.137800E-03
      0.370000          0.137944E-03
      0.375000          0.137921E-03
      0.380000          0.137721E-03
      0.385000          0.137342E-03
      0.390000          0.136782E-03
      0.395000          0.136043E-03
      0.400000          0.135129E-03
      0.405000          0.134044E-03
      0.410000          0.132790E-03
      0.415000          0.131370E-03
      0.420000          0.129787E-03
      0.425000          0.128041E-03
      0.430000          0.126134E-03
      0.435000          0.124070E-03
      0.440000          0.121853E-03
      0.445000          0.119489E-03
      0.450000          0.116987E-03
      0.455000          0.114361E-03
      0.460000          0.111628E-03
      0.465000          0.108809E-03
      0.470000          0.105929E-03
      0.475000          0.103018E-03
      0.480000          0.100107E-03
      0.485000          0.972295E-04
      0.490000          0.944214E-04
      0.495000          0.917176E-04
      0.500000          0.891518E-04
