 I_abs(s)[cm^-1]/c[mg/ml]
       0.00000          0.146748E-01
      0.500000E-02      0.146177E-01
      0.100000E-01      0.144480E-01
      0.150000E-01      0.141696E-01
      0.200000E-01      0.137893E-01
      0.250000E-01      0.133161E-01
      0.300000E-01      0.127608E-01
      0.350000E-01      0.121359E-01
      0.400000E-01      0.114550E-01
      0.450000E-01      0.107323E-01
      0.500000E-01      0.998216E-02
      0.550000E-01      0.921860E-02
      0.600000E-01      0.845491E-02
      0.650000E-01      0.770326E-02
      0.700000E-01      0.697443E-02
      0.750000E-01      0.627759E-02
      0.800000E-01      0.562012E-02
      0.850000E-01      0.500762E-02
      0.900000E-01      0.444384E-02
      0.950000E-01      0.393087E-02
      0.100000          0.346921E-02
      0.105000          0.305799E-02
      0.110000          0.269518E-02
      0.115000          0.237785E-02
      0.120000          0.210238E-02
      0.125000          0.186473E-02
      0.130000          0.166063E-02
      0.135000          0.148580E-02
      0.140000          0.133606E-02
      0.145000          0.120752E-02
      0.150000          0.109664E-02
      0.155000          0.100029E-02
      0.160000          0.915778E-03
      0.165000          0.840872E-03
      0.170000          0.773763E-03
      0.175000          0.713039E-03
      0.180000          0.657640E-03
      0.185000          0.606798E-03
      0.190000          0.559990E-03
      0.195000          0.516877E-03
      0.200000          0.477254E-03
      0.205000          0.441004E-03
      0.210000          0.408062E-03
      0.215000          0.378374E-03
      0.220000          0.351882E-03
      0.225000          0.328501E-03
      0.230000          0.308107E-03
      0.235000          0.290537E-03
      0.240000          0.275584E-03
      0.245000          0.263001E-03
      0.250000          0.252513E-03
      0.255000          0.243821E-03
      0.260000          0.236614E-03
      0.265000          0.230581E-03
      0.270000          0.225420E-03
      0.275000          0.220852E-03
      0.280000          0.216626E-03
      0.285000          0.212526E-03
      0.290000          0.208378E-03
      0.295000          0.204054E-03
      0.300000          0.199469E-03
      0.305000          0.194580E-03
      0.310000          0.189386E-03
      0.315000          0.183918E-03
      0.320000          0.178237E-03
      0.325000          0.172423E-03
      0.330000          0.166568E-03
      0.335000          0.160773E-03
      0.340000          0.155134E-03
      0.345000          0.149742E-03
      0.350000          0.144673E-03
      0.355000          0.139990E-03
      0.360000          0.135736E-03
      0.365000          0.131935E-03
      0.370000          0.128593E-03
      0.375000          0.125699E-03
      0.380000          0.123225E-03
      0.385000          0.121132E-03
      0.390000          0.119372E-03
      0.395000          0.117891E-03
      0.400000          0.116629E-03
      0.405000          0.115528E-03
      0.410000          0.114531E-03
      0.415000          0.113584E-03
      0.420000          0.112639E-03
      0.425000          0.111653E-03
      0.430000          0.110588E-03
      0.435000          0.109417E-03
      0.440000          0.108115E-03
      0.445000          0.106668E-03
      0.450000          0.105066E-03
      0.455000          0.103308E-03
      0.460000          0.101397E-03
      0.465000          0.993446E-04
      0.470000          0.971652E-04
      0.475000          0.948803E-04
      0.480000          0.925151E-04
      0.485000          0.900989E-04
      0.490000          0.876636E-04
      0.495000          0.852428E-04
      0.500000          0.828710E-04
