 I_abs(s)[cm^-1]/c[mg/ml]
       0.00000          0.146668E-01
      0.500000E-02      0.146290E-01
      0.100000E-01      0.145163E-01
      0.150000E-01      0.143303E-01
      0.200000E-01      0.140737E-01
      0.250000E-01      0.137503E-01
      0.300000E-01      0.133646E-01
      0.350000E-01      0.129223E-01
      0.400000E-01      0.124295E-01
      0.450000E-01      0.118928E-01
      0.500000E-01      0.113193E-01
      0.550000E-01      0.107166E-01
      0.600000E-01      0.100921E-01
      0.650000E-01      0.945316E-02
      0.700000E-01      0.880718E-02
      0.750000E-01      0.816111E-02
      0.800000E-01      0.752150E-02
      0.850000E-01      0.689437E-02
      0.900000E-01      0.628515E-02
      0.950000E-01      0.569858E-02
      0.100000          0.513869E-02
      0.105000          0.460875E-02
      0.110000          0.411133E-02
      0.115000          0.364821E-02
      0.120000          0.322051E-02
      0.125000          0.282868E-02
      0.130000          0.247256E-02
      0.135000          0.215145E-02
      0.140000          0.186419E-02
      0.145000          0.160924E-02
      0.150000          0.138473E-02
      0.155000          0.118857E-02
      0.160000          0.101851E-02
      0.165000          0.872203E-03
      0.170000          0.747271E-03
      0.175000          0.641372E-03
      0.180000          0.552233E-03
      0.185000          0.477695E-03
      0.190000          0.415741E-03
      0.195000          0.364521E-03
      0.200000          0.322357E-03
      0.205000          0.287759E-03
      0.210000          0.259417E-03
      0.215000          0.236201E-03
      0.220000          0.217145E-03
      0.225000          0.201441E-03
      0.230000          0.188420E-03
      0.235000          0.177534E-03
      0.240000          0.168344E-03
      0.245000          0.160500E-03
      0.250000          0.153725E-03
      0.255000          0.147804E-03
      0.260000          0.142568E-03
      0.265000          0.137888E-03
      0.270000          0.133661E-03
      0.275000          0.129806E-03
      0.280000          0.126260E-03
      0.285000          0.122969E-03
      0.290000          0.119893E-03
      0.295000          0.116995E-03
      0.300000          0.114250E-03
      0.305000          0.111637E-03
      0.310000          0.109141E-03
      0.315000          0.106754E-03
      0.320000          0.104473E-03
      0.325000          0.102301E-03
      0.330000          0.100246E-03
      0.335000          0.983165E-04
      0.340000          0.965273E-04
      0.345000          0.948926E-04
      0.350000          0.934266E-04
      0.355000          0.921423E-04
      0.360000          0.910500E-04
      0.365000          0.901561E-04
      0.370000          0.894625E-04
      0.375000          0.889658E-04
      0.380000          0.886572E-04
      0.385000          0.885223E-04
      0.390000          0.885415E-04
      0.395000          0.886908E-04
      0.400000          0.889425E-04
      0.405000          0.892662E-04
      0.410000          0.896303E-04
      0.415000          0.900026E-04
      0.420000          0.903520E-04
      0.425000          0.906497E-04
      0.430000          0.908697E-04
      0.435000          0.909901E-04
      0.440000          0.909935E-04
      0.445000          0.908676E-04
      0.450000          0.906049E-04
      0.455000          0.902031E-04
      0.460000          0.896648E-04
      0.465000          0.889967E-04
      0.470000          0.882091E-04
      0.475000          0.873156E-04
      0.480000          0.863316E-04
      0.485000          0.852742E-04
      0.490000          0.841608E-04
      0.495000          0.830091E-04
      0.500000          0.818356E-04
