 I_abs(s)[cm^-1]/c[mg/ml]
       0.00000          0.146668E-01
      0.500000E-02      0.146200E-01
      0.100000E-01      0.144806E-01
      0.150000E-01      0.142513E-01
      0.200000E-01      0.139367E-01
      0.250000E-01      0.135427E-01
      0.300000E-01      0.130769E-01
      0.350000E-01      0.125479E-01
      0.400000E-01      0.119652E-01
      0.450000E-01      0.113390E-01
      0.500000E-01      0.106797E-01
      0.550000E-01      0.999791E-02
      0.600000E-01      0.930376E-02
      0.650000E-01      0.860705E-02
      0.700000E-01      0.791684E-02
      0.750000E-01      0.724126E-02
      0.800000E-01      0.658745E-02
      0.850000E-01      0.596141E-02
      0.900000E-01      0.536797E-02
      0.950000E-01      0.481080E-02
      0.100000          0.429242E-02
      0.105000          0.381430E-02
      0.110000          0.337693E-02
      0.115000          0.297993E-02
      0.120000          0.262222E-02
      0.125000          0.230213E-02
      0.130000          0.201752E-02
      0.135000          0.176596E-02
      0.140000          0.154479E-02
      0.145000          0.135130E-02
      0.150000          0.118274E-02
      0.155000          0.103649E-02
      0.160000          0.910004E-03
      0.165000          0.800952E-03
      0.170000          0.707181E-03
      0.175000          0.626753E-03
      0.180000          0.557932E-03
      0.185000          0.499187E-03
      0.190000          0.449166E-03
      0.195000          0.406687E-03
      0.200000          0.370713E-03
      0.205000          0.340333E-03
      0.210000          0.314747E-03
      0.215000          0.293247E-03
      0.220000          0.275202E-03
      0.225000          0.260052E-03
      0.230000          0.247296E-03
      0.235000          0.236490E-03
      0.240000          0.227239E-03
      0.245000          0.219198E-03
      0.250000          0.212068E-03
      0.255000          0.205595E-03
      0.260000          0.199571E-03
      0.265000          0.193827E-03
      0.270000          0.188237E-03
      0.275000          0.182710E-03
      0.280000          0.177186E-03
      0.285000          0.171637E-03
      0.290000          0.166056E-03
      0.295000          0.160460E-03
      0.300000          0.154878E-03
      0.305000          0.149349E-03
      0.310000          0.143922E-03
      0.315000          0.138647E-03
      0.320000          0.133574E-03
      0.325000          0.128751E-03
      0.330000          0.124222E-03
      0.335000          0.120022E-03
      0.340000          0.116184E-03
      0.345000          0.112727E-03
      0.350000          0.109667E-03
      0.355000          0.107007E-03
      0.360000          0.104747E-03
      0.365000          0.102875E-03
      0.370000          0.101373E-03
      0.375000          0.100216E-03
      0.380000          0.993747E-04
      0.385000          0.988126E-04
      0.390000          0.984904E-04
      0.395000          0.983655E-04
      0.400000          0.983936E-04
      0.405000          0.985297E-04
      0.410000          0.987294E-04
      0.415000          0.989503E-04
      0.420000          0.991527E-04
      0.425000          0.993013E-04
      0.430000          0.993653E-04
      0.435000          0.993197E-04
      0.440000          0.991456E-04
      0.445000          0.988305E-04
      0.450000          0.983683E-04
      0.455000          0.977588E-04
      0.460000          0.970078E-04
      0.465000          0.961261E-04
      0.470000          0.951283E-04
      0.475000          0.940326E-04
      0.480000          0.928592E-04
      0.485000          0.916295E-04
      0.490000          0.903648E-04
      0.495000          0.890858E-04
      0.500000          0.878114E-04
