 I_abs(s)[cm^-1]/c[mg/ml]
       0.00000          0.148505E-01
      0.500000E-02      0.148105E-01
      0.100000E-01      0.146910E-01
      0.150000E-01      0.144940E-01
      0.200000E-01      0.142225E-01
      0.250000E-01      0.138809E-01
      0.300000E-01      0.134742E-01
      0.350000E-01      0.130087E-01
      0.400000E-01      0.124913E-01
      0.450000E-01      0.119294E-01
      0.500000E-01      0.113309E-01
      0.550000E-01      0.107037E-01
      0.600000E-01      0.100561E-01
      0.650000E-01      0.939602E-02
      0.700000E-01      0.873110E-02
      0.750000E-01      0.806863E-02
      0.800000E-01      0.741535E-02
      0.850000E-01      0.677731E-02
      0.900000E-01      0.615987E-02
      0.950000E-01      0.556760E-02
      0.100000          0.500429E-02
      0.105000          0.447291E-02
      0.110000          0.397565E-02
      0.115000          0.351394E-02
      0.120000          0.308854E-02
      0.125000          0.269953E-02
      0.130000          0.234647E-02
      0.135000          0.202842E-02
      0.140000          0.174404E-02
      0.145000          0.149167E-02
      0.150000          0.126940E-02
      0.155000          0.107518E-02
      0.160000          0.906826E-03
      0.165000          0.762124E-03
      0.170000          0.638866E-03
      0.175000          0.534889E-03
      0.180000          0.448111E-03
      0.185000          0.376551E-03
      0.190000          0.318349E-03
      0.195000          0.271774E-03
      0.200000          0.235230E-03
      0.205000          0.207256E-03
      0.210000          0.186524E-03
      0.215000          0.171831E-03
      0.220000          0.162096E-03
      0.225000          0.156352E-03
      0.230000          0.153738E-03
      0.235000          0.153494E-03
      0.240000          0.154952E-03
      0.245000          0.157532E-03
      0.250000          0.160737E-03
      0.255000          0.164149E-03
      0.260000          0.167422E-03
      0.265000          0.170282E-03
      0.270000          0.172518E-03
      0.275000          0.173982E-03
      0.280000          0.174580E-03
      0.285000          0.174270E-03
      0.290000          0.173055E-03
      0.295000          0.170974E-03
      0.300000          0.168102E-03
      0.305000          0.164534E-03
      0.310000          0.160388E-03
      0.315000          0.155790E-03
      0.320000          0.150872E-03
      0.325000          0.145764E-03
      0.330000          0.140590E-03
      0.335000          0.135463E-03
      0.340000          0.130484E-03
      0.345000          0.125734E-03
      0.350000          0.121277E-03
      0.355000          0.117159E-03
      0.360000          0.113406E-03
      0.365000          0.110027E-03
      0.370000          0.107016E-03
      0.375000          0.104354E-03
      0.380000          0.102008E-03
      0.385000          0.999406E-04
      0.390000          0.981071E-04
      0.395000          0.964605E-04
      0.400000          0.949540E-04
      0.405000          0.935424E-04
      0.410000          0.921848E-04
      0.415000          0.908453E-04
      0.420000          0.894945E-04
      0.425000          0.881096E-04
      0.430000          0.866750E-04
      0.435000          0.851817E-04
      0.440000          0.836275E-04
      0.445000          0.820154E-04
      0.450000          0.803536E-04
      0.455000          0.786541E-04
      0.460000          0.769317E-04
      0.465000          0.752034E-04
      0.470000          0.734872E-04
      0.475000          0.718015E-04
      0.480000          0.701641E-04
      0.485000          0.685922E-04
      0.490000          0.671017E-04
      0.495000          0.657068E-04
      0.500000          0.644202E-04
