 I_abs(s)[cm^-1]/c[mg/ml]
       0.00000          0.146190E-01
      0.500000E-02      0.145742E-01
      0.100000E-01      0.144405E-01
      0.150000E-01      0.142204E-01
      0.200000E-01      0.139179E-01
      0.250000E-01      0.135387E-01
      0.300000E-01      0.130895E-01
      0.350000E-01      0.125781E-01
      0.400000E-01      0.120135E-01
      0.450000E-01      0.114049E-01
      0.500000E-01      0.107620E-01
      0.550000E-01      0.100949E-01
      0.600000E-01      0.941306E-02
      0.650000E-01      0.872600E-02
      0.700000E-01      0.804249E-02
      0.750000E-01      0.737058E-02
      0.800000E-01      0.671744E-02
      0.850000E-01      0.608928E-02
      0.900000E-01      0.549124E-02
      0.950000E-01      0.492740E-02
      0.100000          0.440076E-02
      0.105000          0.391330E-02
      0.110000          0.346603E-02
      0.115000          0.305910E-02
      0.120000          0.269186E-02
      0.125000          0.236303E-02
      0.130000          0.207079E-02
      0.135000          0.181292E-02
      0.140000          0.158687E-02
      0.145000          0.138995E-02
      0.150000          0.121936E-02
      0.155000          0.107231E-02
      0.160000          0.946056E-03
      0.165000          0.838021E-03
      0.170000          0.745777E-03
      0.175000          0.667102E-03
      0.180000          0.599993E-03
      0.185000          0.542670E-03
      0.190000          0.493575E-03
      0.195000          0.451363E-03
      0.200000          0.414890E-03
      0.205000          0.383188E-03
      0.210000          0.355457E-03
      0.215000          0.331031E-03
      0.220000          0.309372E-03
      0.225000          0.290038E-03
      0.230000          0.272678E-03
      0.235000          0.257008E-03
      0.240000          0.242799E-03
      0.245000          0.229869E-03
      0.250000          0.218071E-03
      0.255000          0.207284E-03
      0.260000          0.197410E-03
      0.265000          0.188366E-03
      0.270000          0.180079E-03
      0.275000          0.172488E-03
      0.280000          0.165535E-03
      0.285000          0.159168E-03
      0.290000          0.153338E-03
      0.295000          0.148000E-03
      0.300000          0.143108E-03
      0.305000          0.138621E-03
      0.310000          0.134499E-03
      0.315000          0.130705E-03
      0.320000          0.127204E-03
      0.325000          0.123965E-03
      0.330000          0.120960E-03
      0.335000          0.118167E-03
      0.340000          0.115563E-03
      0.345000          0.113134E-03
      0.350000          0.110866E-03
      0.355000          0.108749E-03
      0.360000          0.106774E-03
      0.365000          0.104933E-03
      0.370000          0.103222E-03
      0.375000          0.101631E-03
      0.380000          0.100153E-03
      0.385000          0.987783E-04
      0.390000          0.974942E-04
      0.395000          0.962866E-04
      0.400000          0.951391E-04
      0.405000          0.940335E-04
      0.410000          0.929507E-04
      0.415000          0.918712E-04
      0.420000          0.907760E-04
      0.425000          0.896479E-04
      0.430000          0.884723E-04
      0.435000          0.872381E-04
      0.440000          0.859384E-04
      0.445000          0.845712E-04
      0.450000          0.831395E-04
      0.455000          0.816513E-04
      0.460000          0.801196E-04
      0.465000          0.785615E-04
      0.470000          0.769974E-04
      0.475000          0.754503E-04
      0.480000          0.739443E-04
      0.485000          0.725038E-04
      0.490000          0.711516E-04
      0.495000          0.699087E-04
      0.500000          0.687923E-04
