 I_abs(s)[cm^-1]/c[mg/ml]
       0.00000          0.146827E-01
      0.500000E-02      0.146414E-01
      0.100000E-01      0.145180E-01
      0.150000E-01      0.143148E-01
      0.200000E-01      0.140354E-01
      0.250000E-01      0.136845E-01
      0.300000E-01      0.132681E-01
      0.350000E-01      0.127931E-01
      0.400000E-01      0.122672E-01
      0.450000E-01      0.116986E-01
      0.500000E-01      0.110958E-01
      0.550000E-01      0.104677E-01
      0.600000E-01      0.982270E-02
      0.650000E-01      0.916921E-02
      0.700000E-01      0.851506E-02
      0.750000E-01      0.786749E-02
      0.800000E-01      0.723303E-02
      0.850000E-01      0.661738E-02
      0.900000E-01      0.602535E-02
      0.950000E-01      0.546088E-02
      0.100000          0.492701E-02
      0.105000          0.442592E-02
      0.110000          0.395898E-02
      0.115000          0.352682E-02
      0.120000          0.312943E-02
      0.125000          0.276625E-02
      0.130000          0.243624E-02
      0.135000          0.213801E-02
      0.140000          0.186991E-02
      0.145000          0.163010E-02
      0.150000          0.141663E-02
      0.155000          0.122751E-02
      0.160000          0.106075E-02
      0.165000          0.914425E-03
      0.170000          0.786684E-03
      0.175000          0.675775E-03
      0.180000          0.580058E-03
      0.185000          0.498007E-03
      0.190000          0.428208E-03
      0.195000          0.369353E-03
      0.200000          0.320233E-03
      0.205000          0.279728E-03
      0.210000          0.246800E-03
      0.215000          0.220482E-03
      0.220000          0.199877E-03
      0.225000          0.184148E-03
      0.230000          0.172520E-03
      0.235000          0.164277E-03
      0.240000          0.158761E-03
      0.245000          0.155377E-03
      0.250000          0.153588E-03
      0.255000          0.152921E-03
      0.260000          0.152969E-03
      0.265000          0.153384E-03
      0.270000          0.153882E-03
      0.275000          0.154238E-03
      0.280000          0.154284E-03
      0.285000          0.153901E-03
      0.290000          0.153019E-03
      0.295000          0.151606E-03
      0.300000          0.149663E-03
      0.305000          0.147220E-03
      0.310000          0.144324E-03
      0.315000          0.141039E-03
      0.320000          0.137436E-03
      0.325000          0.133590E-03
      0.330000          0.129575E-03
      0.335000          0.125463E-03
      0.340000          0.121317E-03
      0.345000          0.117194E-03
      0.350000          0.113142E-03
      0.355000          0.109198E-03
      0.360000          0.105392E-03
      0.365000          0.101745E-03
      0.370000          0.982693E-04
      0.375000          0.949710E-04
      0.380000          0.918509E-04
      0.385000          0.889053E-04
      0.390000          0.861269E-04
      0.395000          0.835064E-04
      0.400000          0.810329E-04
      0.405000          0.786952E-04
      0.410000          0.764821E-04
      0.415000          0.743831E-04
      0.420000          0.723888E-04
      0.425000          0.704913E-04
      0.430000          0.686843E-04
      0.435000          0.669634E-04
      0.440000          0.653258E-04
      0.445000          0.637704E-04
      0.450000          0.622980E-04
      0.455000          0.609104E-04
      0.460000          0.596110E-04
      0.465000          0.584038E-04
      0.470000          0.572936E-04
      0.475000          0.562854E-04
      0.480000          0.553843E-04
      0.485000          0.545951E-04
      0.490000          0.539218E-04
      0.495000          0.533679E-04
      0.500000          0.529355E-04
