 I_abs(s)[cm^-1]/c[mg/ml]
       0.00000          0.146827E-01
      0.500000E-02      0.146430E-01
      0.100000E-01      0.145243E-01
      0.150000E-01      0.143286E-01
      0.200000E-01      0.140587E-01
      0.250000E-01      0.137185E-01
      0.300000E-01      0.133132E-01
      0.350000E-01      0.128486E-01
      0.400000E-01      0.123311E-01
      0.450000E-01      0.117682E-01
      0.500000E-01      0.111672E-01
      0.550000E-01      0.105362E-01
      0.600000E-01      0.988322E-02
      0.650000E-01      0.921613E-02
      0.700000E-01      0.854275E-02
      0.750000E-01      0.787052E-02
      0.800000E-01      0.720644E-02
      0.850000E-01      0.655693E-02
      0.900000E-01      0.592775E-02
      0.950000E-01      0.532397E-02
      0.100000          0.474986E-02
      0.105000          0.420891E-02
      0.110000          0.370383E-02
      0.115000          0.323650E-02
      0.120000          0.280809E-02
      0.125000          0.241902E-02
      0.130000          0.206910E-02
      0.135000          0.175750E-02
      0.140000          0.148293E-02
      0.145000          0.124364E-02
      0.150000          0.103754E-02
      0.155000          0.862259E-03
      0.160000          0.715246E-03
      0.165000          0.593827E-03
      0.170000          0.495279E-03
      0.175000          0.416891E-03
      0.180000          0.356014E-03
      0.185000          0.310110E-03
      0.190000          0.276787E-03
      0.195000          0.253824E-03
      0.200000          0.239196E-03
      0.205000          0.231084E-03
      0.210000          0.227882E-03
      0.215000          0.228193E-03
      0.220000          0.230833E-03
      0.225000          0.234811E-03
      0.230000          0.239324E-03
      0.235000          0.243741E-03
      0.240000          0.247582E-03
      0.245000          0.250507E-03
      0.250000          0.252291E-03
      0.255000          0.252814E-03
      0.260000          0.252037E-03
      0.265000          0.249988E-03
      0.270000          0.246748E-03
      0.275000          0.242439E-03
      0.280000          0.237205E-03
      0.285000          0.231210E-03
      0.290000          0.224622E-03
      0.295000          0.217609E-03
      0.300000          0.210333E-03
      0.305000          0.202943E-03
      0.310000          0.195573E-03
      0.315000          0.188339E-03
      0.320000          0.181337E-03
      0.325000          0.174646E-03
      0.330000          0.168324E-03
      0.335000          0.162409E-03
      0.340000          0.156925E-03
      0.345000          0.151878E-03
      0.350000          0.147262E-03
      0.355000          0.143058E-03
      0.360000          0.139240E-03
      0.365000          0.135775E-03
      0.370000          0.132623E-03
      0.375000          0.129745E-03
      0.380000          0.127098E-03
      0.385000          0.124642E-03
      0.390000          0.122338E-03
      0.395000          0.120149E-03
      0.400000          0.118044E-03
      0.405000          0.115996E-03
      0.410000          0.113981E-03
      0.415000          0.111983E-03
      0.420000          0.109988E-03
      0.425000          0.107987E-03
      0.430000          0.105976E-03
      0.435000          0.103953E-03
      0.440000          0.101921E-03
      0.445000          0.998825E-04
      0.450000          0.978448E-04
      0.455000          0.958145E-04
      0.460000          0.937994E-04
      0.465000          0.918073E-04
      0.470000          0.898461E-04
      0.475000          0.879229E-04
      0.480000          0.860442E-04
      0.485000          0.842156E-04
      0.490000          0.824414E-04
      0.495000          0.807253E-04
      0.500000          0.790697E-04
