 I_abs(s)[cm^-1]/c[mg/ml]
       0.00000          0.147146E-01
      0.500000E-02      0.146773E-01
      0.100000E-01      0.145660E-01
      0.150000E-01      0.143823E-01
      0.200000E-01      0.141288E-01
      0.250000E-01      0.138091E-01
      0.300000E-01      0.134278E-01
      0.350000E-01      0.129901E-01
      0.400000E-01      0.125021E-01
      0.450000E-01      0.119703E-01
      0.500000E-01      0.114016E-01
      0.550000E-01      0.108033E-01
      0.600000E-01      0.101826E-01
      0.650000E-01      0.954694E-02
      0.700000E-01      0.890344E-02
      0.750000E-01      0.825900E-02
      0.800000E-01      0.762011E-02
      0.850000E-01      0.699276E-02
      0.900000E-01      0.638238E-02
      0.950000E-01      0.579375E-02
      0.100000          0.523096E-02
      0.105000          0.469739E-02
      0.110000          0.419570E-02
      0.115000          0.372782E-02
      0.120000          0.329499E-02
      0.125000          0.289782E-02
      0.130000          0.253628E-02
      0.135000          0.220982E-02
      0.140000          0.191740E-02
      0.145000          0.165760E-02
      0.150000          0.142863E-02
      0.155000          0.122846E-02
      0.160000          0.105490E-02
      0.165000          0.905601E-03
      0.170000          0.778194E-03
      0.175000          0.670301E-03
      0.180000          0.579602E-03
      0.185000          0.503872E-03
      0.190000          0.441016E-03
      0.195000          0.389094E-03
      0.200000          0.346341E-03
      0.205000          0.311174E-03
      0.210000          0.282199E-03
      0.215000          0.258208E-03
      0.220000          0.238172E-03
      0.225000          0.221234E-03
      0.230000          0.206690E-03
      0.235000          0.193978E-03
      0.240000          0.182661E-03
      0.245000          0.172407E-03
      0.250000          0.162975E-03
      0.255000          0.154200E-03
      0.260000          0.145971E-03
      0.265000          0.138228E-03
      0.270000          0.130938E-03
      0.275000          0.124096E-03
      0.280000          0.117708E-03
      0.285000          0.111790E-03
      0.290000          0.106358E-03
      0.295000          0.101429E-03
      0.300000          0.970125E-04
      0.305000          0.931145E-04
      0.310000          0.897335E-04
      0.315000          0.868613E-04
      0.320000          0.844833E-04
      0.325000          0.825791E-04
      0.330000          0.811232E-04
      0.335000          0.800861E-04
      0.340000          0.794352E-04
      0.345000          0.791355E-04
      0.350000          0.791506E-04
      0.355000          0.794431E-04
      0.360000          0.799752E-04
      0.365000          0.807093E-04
      0.370000          0.816081E-04
      0.375000          0.826353E-04
      0.380000          0.837552E-04
      0.385000          0.849335E-04
      0.390000          0.861371E-04
      0.395000          0.873346E-04
      0.400000          0.884962E-04
      0.405000          0.895939E-04
      0.410000          0.906023E-04
      0.415000          0.914979E-04
      0.420000          0.922600E-04
      0.425000          0.928710E-04
      0.430000          0.933157E-04
      0.435000          0.935827E-04
      0.440000          0.936634E-04
      0.445000          0.935528E-04
      0.450000          0.932492E-04
      0.455000          0.927543E-04
      0.460000          0.920727E-04
      0.465000          0.912123E-04
      0.470000          0.901836E-04
      0.475000          0.889997E-04
      0.480000          0.876758E-04
      0.485000          0.862290E-04
      0.490000          0.846776E-04
      0.495000          0.830412E-04
      0.500000          0.813398E-04
