 I_abs(s)[cm^-1]/c[mg/ml]
       0.00000          0.140833E-01
      0.500000E-02      0.140107E-01
      0.100000E-01      0.137952E-01
      0.150000E-01      0.134440E-01
      0.200000E-01      0.129687E-01
      0.250000E-01      0.123845E-01
      0.300000E-01      0.117097E-01
      0.350000E-01      0.109645E-01
      0.400000E-01      0.101705E-01
      0.450000E-01      0.934914E-02
      0.500000E-01      0.852099E-02
      0.550000E-01      0.770503E-02
      0.600000E-01      0.691783E-02
      0.650000E-01      0.617306E-02
      0.700000E-01      0.548119E-02
      0.750000E-01      0.484940E-02
      0.800000E-01      0.428163E-02
      0.850000E-01      0.377887E-02
      0.900000E-01      0.333952E-02
      0.950000E-01      0.295990E-02
      0.100000          0.263474E-02
      0.105000          0.235777E-02
      0.110000          0.212225E-02
      0.115000          0.192138E-02
      0.120000          0.174873E-02
      0.125000          0.159854E-02
      0.130000          0.146587E-02
      0.135000          0.134674E-02
      0.140000          0.123808E-02
      0.145000          0.113775E-02
      0.150000          0.104436E-02
      0.155000          0.957121E-03
      0.160000          0.875738E-03
      0.165000          0.800195E-03
      0.170000          0.730635E-03
      0.175000          0.667239E-03
      0.180000          0.610132E-03
      0.185000          0.559330E-03
      0.190000          0.514707E-03
      0.195000          0.475997E-03
      0.200000          0.442805E-03
      0.205000          0.414635E-03
      0.210000          0.390927E-03
      0.215000          0.371087E-03
      0.220000          0.354522E-03
      0.225000          0.340662E-03
      0.230000          0.328980E-03
      0.235000          0.319000E-03
      0.240000          0.310305E-03
      0.245000          0.302535E-03
      0.250000          0.295386E-03
      0.255000          0.288605E-03
      0.260000          0.281989E-03
      0.265000          0.275382E-03
      0.270000          0.268670E-03
      0.275000          0.261785E-03
      0.280000          0.254704E-03
      0.285000          0.247442E-03
      0.290000          0.240051E-03
      0.295000          0.232617E-03
      0.300000          0.225247E-03
      0.305000          0.218061E-03
      0.310000          0.211181E-03
      0.315000          0.204717E-03
      0.320000          0.198757E-03
      0.325000          0.193356E-03
      0.330000          0.188533E-03
      0.335000          0.184263E-03
      0.340000          0.180484E-03
      0.345000          0.177099E-03
      0.350000          0.173985E-03
      0.355000          0.171010E-03
      0.360000          0.168037E-03
      0.365000          0.164947E-03
      0.370000          0.161644E-03
      0.375000          0.158066E-03
      0.380000          0.154192E-03
      0.385000          0.150041E-03
      0.390000          0.145672E-03
      0.395000          0.141176E-03
      0.400000          0.136667E-03
      0.405000          0.132269E-03
      0.410000          0.128105E-03
      0.415000          0.124286E-03
      0.420000          0.120899E-03
      0.425000          0.118000E-03
      0.430000          0.115607E-03
      0.435000          0.113705E-03
      0.440000          0.112242E-03
      0.445000          0.111142E-03
      0.450000          0.110306E-03
      0.455000          0.109627E-03
      0.460000          0.108996E-03
      0.465000          0.108315E-03
      0.470000          0.107504E-03
      0.475000          0.106506E-03
      0.480000          0.105290E-03
      0.485000          0.103855E-03
      0.490000          0.102220E-03
      0.495000          0.100430E-03
      0.500000          0.985404E-04
