 I_abs(s)[cm^-1]/c[mg/ml]
       0.00000          0.147146E-01
      0.500000E-02      0.146730E-01
      0.100000E-01      0.145490E-01
      0.150000E-01      0.143448E-01
      0.200000E-01      0.140637E-01
      0.250000E-01      0.137106E-01
      0.300000E-01      0.132913E-01
      0.350000E-01      0.128128E-01
      0.400000E-01      0.122827E-01
      0.450000E-01      0.117092E-01
      0.500000E-01      0.111008E-01
      0.550000E-01      0.104664E-01
      0.600000E-01      0.981455E-02
      0.650000E-01      0.915384E-02
      0.700000E-01      0.849227E-02
      0.750000E-01      0.783730E-02
      0.800000E-01      0.719572E-02
      0.850000E-01      0.657348E-02
      0.900000E-01      0.597571E-02
      0.950000E-01      0.540660E-02
      0.100000          0.486945E-02
      0.105000          0.436665E-02
      0.110000          0.389974E-02
      0.115000          0.346947E-02
      0.120000          0.307587E-02
      0.125000          0.271833E-02
      0.130000          0.239573E-02
      0.135000          0.210650E-02
      0.140000          0.184872E-02
      0.145000          0.162026E-02
      0.150000          0.141881E-02
      0.155000          0.124200E-02
      0.160000          0.108744E-02
      0.165000          0.952798E-03
      0.170000          0.835842E-03
      0.175000          0.734470E-03
      0.180000          0.646740E-03
      0.185000          0.570884E-03
      0.190000          0.505313E-03
      0.195000          0.448621E-03
      0.200000          0.399575E-03
      0.205000          0.357108E-03
      0.210000          0.320305E-03
      0.215000          0.288388E-03
      0.220000          0.260696E-03
      0.225000          0.236676E-03
      0.230000          0.215861E-03
      0.235000          0.197859E-03
      0.240000          0.182338E-03
      0.245000          0.169013E-03
      0.250000          0.157640E-03
      0.255000          0.148004E-03
      0.260000          0.139914E-03
      0.265000          0.133196E-03
      0.270000          0.127690E-03
      0.275000          0.123249E-03
      0.280000          0.119734E-03
      0.285000          0.117013E-03
      0.290000          0.114962E-03
      0.295000          0.113466E-03
      0.300000          0.112416E-03
      0.305000          0.111709E-03
      0.310000          0.111253E-03
      0.315000          0.110965E-03
      0.320000          0.110768E-03
      0.325000          0.110598E-03
      0.330000          0.110397E-03
      0.335000          0.110122E-03
      0.340000          0.109733E-03
      0.345000          0.109205E-03
      0.350000          0.108519E-03
      0.355000          0.107663E-03
      0.360000          0.106637E-03
      0.365000          0.105443E-03
      0.370000          0.104091E-03
      0.375000          0.102596E-03
      0.380000          0.100977E-03
      0.385000          0.992550E-04
      0.390000          0.974537E-04
      0.395000          0.955981E-04
      0.400000          0.937137E-04
      0.405000          0.918252E-04
      0.410000          0.899567E-04
      0.415000          0.881305E-04
      0.420000          0.863668E-04
      0.425000          0.846833E-04
      0.430000          0.830951E-04
      0.435000          0.816142E-04
      0.440000          0.802496E-04
      0.445000          0.790073E-04
      0.450000          0.778905E-04
      0.455000          0.768994E-04
      0.460000          0.760318E-04
      0.465000          0.752834E-04
      0.470000          0.746476E-04
      0.475000          0.741167E-04
      0.480000          0.736814E-04
      0.485000          0.733317E-04
      0.490000          0.730568E-04
      0.495000          0.728460E-04
      0.500000          0.726881E-04
