 I_abs(s)[cm^-1]/c[mg/ml]
       0.00000          0.147465E-01
      0.500000E-02      0.147060E-01
      0.100000E-01      0.145849E-01
      0.150000E-01      0.143852E-01
      0.200000E-01      0.141100E-01
      0.250000E-01      0.137634E-01
      0.300000E-01      0.133507E-01
      0.350000E-01      0.128780E-01
      0.400000E-01      0.123522E-01
      0.450000E-01      0.117809E-01
      0.500000E-01      0.111719E-01
      0.550000E-01      0.105334E-01
      0.600000E-01      0.987378E-02
      0.650000E-01      0.920114E-02
      0.700000E-01      0.852345E-02
      0.750000E-01      0.784830E-02
      0.800000E-01      0.718273E-02
      0.850000E-01      0.653316E-02
      0.900000E-01      0.590532E-02
      0.950000E-01      0.530416E-02
      0.100000          0.473378E-02
      0.105000          0.419749E-02
      0.110000          0.369774E-02
      0.115000          0.323618E-02
      0.120000          0.281369E-02
      0.125000          0.243045E-02
      0.130000          0.208597E-02
      0.135000          0.177922E-02
      0.140000          0.150870E-02
      0.145000          0.127247E-02
      0.150000          0.106833E-02
      0.155000          0.893831E-03
      0.160000          0.746391E-03
      0.165000          0.623353E-03
      0.170000          0.522058E-03
      0.175000          0.439896E-03
      0.180000          0.374360E-03
      0.185000          0.323076E-03
      0.190000          0.283838E-03
      0.195000          0.254622E-03
      0.200000          0.233603E-03
      0.205000          0.219155E-03
      0.210000          0.209851E-03
      0.215000          0.204458E-03
      0.220000          0.201925E-03
      0.225000          0.201370E-03
      0.230000          0.202065E-03
      0.235000          0.203423E-03
      0.240000          0.204976E-03
      0.245000          0.206366E-03
      0.250000          0.207327E-03
      0.255000          0.207670E-03
      0.260000          0.207273E-03
      0.265000          0.206071E-03
      0.270000          0.204043E-03
      0.275000          0.201205E-03
      0.280000          0.197605E-03
      0.285000          0.193312E-03
      0.290000          0.188415E-03
      0.295000          0.183017E-03
      0.300000          0.177228E-03
      0.305000          0.171166E-03
      0.310000          0.164946E-03
      0.315000          0.158687E-03
      0.320000          0.152497E-03
      0.325000          0.146481E-03
      0.330000          0.140732E-03
      0.335000          0.135329E-03
      0.340000          0.130340E-03
      0.345000          0.125816E-03
      0.350000          0.121794E-03
      0.355000          0.118291E-03
      0.360000          0.115313E-03
      0.365000          0.112847E-03
      0.370000          0.110869E-03
      0.375000          0.109342E-03
      0.380000          0.108220E-03
      0.385000          0.107446E-03
      0.390000          0.106962E-03
      0.395000          0.106705E-03
      0.400000          0.106611E-03
      0.405000          0.106618E-03
      0.410000          0.106669E-03
      0.415000          0.106711E-03
      0.420000          0.106697E-03
      0.425000          0.106590E-03
      0.430000          0.106359E-03
      0.435000          0.105983E-03
      0.440000          0.105447E-03
      0.445000          0.104747E-03
      0.450000          0.103884E-03
      0.455000          0.102865E-03
      0.460000          0.101702E-03
      0.465000          0.100414E-03
      0.470000          0.990176E-04
      0.475000          0.975354E-04
      0.480000          0.959886E-04
      0.485000          0.943988E-04
      0.490000          0.927863E-04
      0.495000          0.911699E-04
      0.500000          0.895667E-04
