 I_abs(s)[cm^-1]/c[mg/ml]
       0.00000          0.147306E-01
      0.500000E-02      0.146923E-01
      0.100000E-01      0.145782E-01
      0.150000E-01      0.143898E-01
      0.200000E-01      0.141301E-01
      0.250000E-01      0.138030E-01
      0.300000E-01      0.134134E-01
      0.350000E-01      0.129668E-01
      0.400000E-01      0.124697E-01
      0.450000E-01      0.119290E-01
      0.500000E-01      0.113520E-01
      0.550000E-01      0.107463E-01
      0.600000E-01      0.101196E-01
      0.650000E-01      0.947931E-02
      0.700000E-01      0.883287E-02
      0.750000E-01      0.818721E-02
      0.800000E-01      0.754883E-02
      0.850000E-01      0.692365E-02
      0.900000E-01      0.631694E-02
      0.950000E-01      0.573326E-02
      0.100000          0.517643E-02
      0.105000          0.464950E-02
      0.110000          0.415481E-02
      0.115000          0.369394E-02
      0.120000          0.326779E-02
      0.125000          0.287666E-02
      0.130000          0.252025E-02
      0.135000          0.219778E-02
      0.140000          0.190808E-02
      0.145000          0.164959E-02
      0.150000          0.142054E-02
      0.155000          0.121893E-02
      0.160000          0.104267E-02
      0.165000          0.889610E-03
      0.170000          0.757577E-03
      0.175000          0.644459E-03
      0.180000          0.548219E-03
      0.185000          0.466928E-03
      0.190000          0.398786E-03
      0.195000          0.342132E-03
      0.200000          0.295455E-03
      0.205000          0.257387E-03
      0.210000          0.226707E-03
      0.215000          0.202327E-03
      0.220000          0.183287E-03
      0.225000          0.168738E-03
      0.230000          0.157935E-03
      0.235000          0.150224E-03
      0.240000          0.145029E-03
      0.245000          0.141843E-03
      0.250000          0.140223E-03
      0.255000          0.139775E-03
      0.260000          0.140156E-03
      0.265000          0.141066E-03
      0.270000          0.142246E-03
      0.275000          0.143472E-03
      0.280000          0.144561E-03
      0.285000          0.145360E-03
      0.290000          0.145752E-03
      0.295000          0.145652E-03
      0.300000          0.145005E-03
      0.305000          0.143783E-03
      0.310000          0.141987E-03
      0.315000          0.139638E-03
      0.320000          0.136781E-03
      0.325000          0.133472E-03
      0.330000          0.129784E-03
      0.335000          0.125797E-03
      0.340000          0.121596E-03
      0.345000          0.117267E-03
      0.350000          0.112895E-03
      0.355000          0.108558E-03
      0.360000          0.104328E-03
      0.365000          0.100268E-03
      0.370000          0.964293E-04
      0.375000          0.928517E-04
      0.380000          0.895636E-04
      0.385000          0.865819E-04
      0.390000          0.839127E-04
      0.395000          0.815522E-04
      0.400000          0.794885E-04
      0.405000          0.777027E-04
      0.410000          0.761707E-04
      0.415000          0.748646E-04
      0.420000          0.737546E-04
      0.425000          0.728104E-04
      0.430000          0.720019E-04
      0.435000          0.713013E-04
      0.440000          0.706828E-04
      0.445000          0.701240E-04
      0.450000          0.696061E-04
      0.455000          0.691136E-04
      0.460000          0.686351E-04
      0.465000          0.681623E-04
      0.470000          0.676902E-04
      0.475000          0.672165E-04
      0.480000          0.667412E-04
      0.485000          0.662659E-04
      0.490000          0.657937E-04
      0.495000          0.653286E-04
      0.500000          0.648748E-04
