 I_abs(s)[cm^-1]/c[mg/ml]
       0.00000          0.145476E-01
      0.500000E-02      0.145020E-01
      0.100000E-01      0.143661E-01
      0.150000E-01      0.141426E-01
      0.200000E-01      0.138359E-01
      0.250000E-01      0.134518E-01
      0.300000E-01      0.129978E-01
      0.350000E-01      0.124822E-01
      0.400000E-01      0.119143E-01
      0.450000E-01      0.113042E-01
      0.500000E-01      0.106619E-01
      0.550000E-01      0.999770E-02
      0.600000E-01      0.932173E-02
      0.650000E-01      0.864345E-02
      0.700000E-01      0.797168E-02
      0.750000E-01      0.731436E-02
      0.800000E-01      0.667839E-02
      0.850000E-01      0.606955E-02
      0.900000E-01      0.549244E-02
      0.950000E-01      0.495052E-02
      0.100000          0.444606E-02
      0.105000          0.398032E-02
      0.110000          0.355356E-02
      0.115000          0.316520E-02
      0.120000          0.281396E-02
      0.125000          0.249802E-02
      0.130000          0.221513E-02
      0.135000          0.196278E-02
      0.140000          0.173832E-02
      0.145000          0.153907E-02
      0.150000          0.136243E-02
      0.155000          0.120594E-02
      0.160000          0.106736E-02
      0.165000          0.944640E-03
      0.170000          0.836025E-03
      0.175000          0.739980E-03
      0.180000          0.655208E-03
      0.185000          0.580614E-03
      0.190000          0.515277E-03
      0.195000          0.458413E-03
      0.200000          0.409334E-03
      0.205000          0.367422E-03
      0.210000          0.332093E-03
      0.215000          0.302778E-03
      0.220000          0.278902E-03
      0.225000          0.259878E-03
      0.230000          0.245104E-03
      0.235000          0.233960E-03
      0.240000          0.225827E-03
      0.245000          0.220088E-03
      0.250000          0.216147E-03
      0.255000          0.213446E-03
      0.260000          0.211472E-03
      0.265000          0.209777E-03
      0.270000          0.207982E-03
      0.275000          0.205787E-03
      0.280000          0.202972E-03
      0.285000          0.199396E-03
      0.290000          0.194994E-03
      0.295000          0.189769E-03
      0.300000          0.183780E-03
      0.305000          0.177136E-03
      0.310000          0.169977E-03
      0.315000          0.162465E-03
      0.320000          0.154772E-03
      0.325000          0.147068E-03
      0.330000          0.139509E-03
      0.335000          0.132234E-03
      0.340000          0.125357E-03
      0.345000          0.118964E-03
      0.350000          0.113112E-03
      0.355000          0.107829E-03
      0.360000          0.103119E-03
      0.365000          0.989613E-04
      0.370000          0.953186E-04
      0.375000          0.921403E-04
      0.380000          0.893678E-04
      0.385000          0.869389E-04
      0.390000          0.847928E-04
      0.395000          0.828727E-04
      0.400000          0.811291E-04
      0.405000          0.795214E-04
      0.410000          0.780185E-04
      0.415000          0.765993E-04
      0.420000          0.752516E-04
      0.425000          0.739709E-04
      0.430000          0.727587E-04
      0.435000          0.716209E-04
      0.440000          0.705653E-04
      0.445000          0.696000E-04
      0.450000          0.687317E-04
      0.455000          0.679643E-04
      0.460000          0.672981E-04
      0.465000          0.667292E-04
      0.470000          0.662495E-04
      0.475000          0.658469E-04
      0.480000          0.655062E-04
      0.485000          0.652096E-04
      0.490000          0.649387E-04
      0.495000          0.646746E-04
      0.500000          0.644000E-04
