 I_abs(s)[cm^-1]/c[mg/ml]
       0.00000          0.144604E-01
      0.500000E-02      0.144151E-01
      0.100000E-01      0.142801E-01
      0.150000E-01      0.140580E-01
      0.200000E-01      0.137531E-01
      0.250000E-01      0.133712E-01
      0.300000E-01      0.129194E-01
      0.350000E-01      0.124060E-01
      0.400000E-01      0.118402E-01
      0.450000E-01      0.112315E-01
      0.500000E-01      0.105902E-01
      0.550000E-01      0.992627E-02
      0.600000E-01      0.924959E-02
      0.650000E-01      0.856960E-02
      0.700000E-01      0.789506E-02
      0.750000E-01      0.723391E-02
      0.800000E-01      0.659311E-02
      0.850000E-01      0.597855E-02
      0.900000E-01      0.539503E-02
      0.950000E-01      0.484621E-02
      0.100000          0.433467E-02
      0.105000          0.386197E-02
      0.110000          0.342872E-02
      0.115000          0.303467E-02
      0.120000          0.267889E-02
      0.125000          0.235985E-02
      0.130000          0.207557E-02
      0.135000          0.182372E-02
      0.140000          0.160177E-02
      0.145000          0.140709E-02
      0.150000          0.123701E-02
      0.155000          0.108894E-02
      0.160000          0.960373E-03
      0.165000          0.848993E-03
      0.170000          0.752650E-03
      0.175000          0.669398E-03
      0.180000          0.597497E-03
      0.185000          0.535407E-03
      0.190000          0.481780E-03
      0.195000          0.435441E-03
      0.200000          0.395375E-03
      0.205000          0.360705E-03
      0.210000          0.330679E-03
      0.215000          0.304646E-03
      0.220000          0.282050E-03
      0.225000          0.262409E-03
      0.230000          0.245309E-03
      0.235000          0.230395E-03
      0.240000          0.217360E-03
      0.245000          0.205943E-03
      0.250000          0.195920E-03
      0.255000          0.187102E-03
      0.260000          0.179331E-03
      0.265000          0.172474E-03
      0.270000          0.166419E-03
      0.275000          0.161073E-03
      0.280000          0.156358E-03
      0.285000          0.152205E-03
      0.290000          0.148555E-03
      0.295000          0.145352E-03
      0.300000          0.142545E-03
      0.305000          0.140082E-03
      0.310000          0.137913E-03
      0.315000          0.135986E-03
      0.320000          0.134250E-03
      0.325000          0.132656E-03
      0.330000          0.131155E-03
      0.335000          0.129700E-03
      0.340000          0.128249E-03
      0.345000          0.126767E-03
      0.350000          0.125222E-03
      0.355000          0.123591E-03
      0.360000          0.121858E-03
      0.365000          0.120016E-03
      0.370000          0.118064E-03
      0.375000          0.116009E-03
      0.380000          0.113864E-03
      0.385000          0.111648E-03
      0.390000          0.109382E-03
      0.395000          0.107093E-03
      0.400000          0.104806E-03
      0.405000          0.102549E-03
      0.410000          0.100347E-03
      0.415000          0.982232E-04
      0.420000          0.961983E-04
      0.425000          0.942886E-04
      0.430000          0.925062E-04
      0.435000          0.908590E-04
      0.440000          0.893500E-04
      0.445000          0.879777E-04
      0.450000          0.867368E-04
      0.455000          0.856180E-04
      0.460000          0.846089E-04
      0.465000          0.836949E-04
      0.470000          0.828594E-04
      0.475000          0.820851E-04
      0.480000          0.813542E-04
      0.485000          0.806496E-04
      0.490000          0.799551E-04
      0.495000          0.792566E-04
      0.500000          0.785418E-04
