 I_abs(s)[cm^-1]/c[mg/ml]
       0.00000          0.144051E-01
      0.500000E-02      0.143537E-01
      0.100000E-01      0.142003E-01
      0.150000E-01      0.139486E-01
      0.200000E-01      0.136039E-01
      0.250000E-01      0.131737E-01
      0.300000E-01      0.126672E-01
      0.350000E-01      0.120947E-01
      0.400000E-01      0.114679E-01
      0.450000E-01      0.107986E-01
      0.500000E-01      0.100994E-01
      0.550000E-01      0.938237E-02
      0.600000E-01      0.865930E-02
      0.650000E-01      0.794113E-02
      0.700000E-01      0.723780E-02
      0.750000E-01      0.655800E-02
      0.800000E-01      0.590902E-02
      0.850000E-01      0.529671E-02
      0.900000E-01      0.472542E-02
      0.950000E-01      0.419808E-02
      0.100000          0.371625E-02
      0.105000          0.328024E-02
      0.110000          0.288932E-02
      0.115000          0.254183E-02
      0.120000          0.223540E-02
      0.125000          0.196714E-02
      0.130000          0.173381E-02
      0.135000          0.153197E-02
      0.140000          0.135814E-02
      0.145000          0.120893E-02
      0.150000          0.108109E-02
      0.155000          0.971634E-03
      0.160000          0.877844E-03
      0.165000          0.797315E-03
      0.170000          0.727949E-03
      0.175000          0.667949E-03
      0.180000          0.615801E-03
      0.185000          0.570240E-03
      0.190000          0.530220E-03
      0.195000          0.494883E-03
      0.200000          0.463527E-03
      0.205000          0.435573E-03
      0.210000          0.410543E-03
      0.215000          0.388041E-03
      0.220000          0.367730E-03
      0.225000          0.349325E-03
      0.230000          0.332580E-03
      0.235000          0.317284E-03
      0.240000          0.303253E-03
      0.245000          0.290328E-03
      0.250000          0.278370E-03
      0.255000          0.267262E-03
      0.260000          0.256899E-03
      0.265000          0.247193E-03
      0.270000          0.238068E-03
      0.275000          0.229453E-03
      0.280000          0.221289E-03
      0.285000          0.213521E-03
      0.290000          0.206098E-03
      0.295000          0.198975E-03
      0.300000          0.192112E-03
      0.305000          0.185472E-03
      0.310000          0.179026E-03
      0.315000          0.172750E-03
      0.320000          0.166631E-03
      0.325000          0.160659E-03
      0.330000          0.154838E-03
      0.335000          0.149176E-03
      0.340000          0.143690E-03
      0.345000          0.138403E-03
      0.350000          0.133340E-03
      0.355000          0.128529E-03
      0.360000          0.123998E-03
      0.365000          0.119772E-03
      0.370000          0.115869E-03
      0.375000          0.112303E-03
      0.380000          0.109079E-03
      0.385000          0.106193E-03
      0.390000          0.103632E-03
      0.395000          0.101376E-03
      0.400000          0.993964E-04
      0.405000          0.976599E-04
      0.410000          0.961279E-04
      0.415000          0.947602E-04
      0.420000          0.935159E-04
      0.425000          0.923559E-04
      0.430000          0.912440E-04
      0.435000          0.901484E-04
      0.440000          0.890431E-04
      0.445000          0.879081E-04
      0.450000          0.867298E-04
      0.455000          0.855012E-04
      0.460000          0.842216E-04
      0.465000          0.828959E-04
      0.470000          0.815339E-04
      0.475000          0.801498E-04
      0.480000          0.787611E-04
      0.485000          0.773876E-04
      0.490000          0.760507E-04
      0.495000          0.747724E-04
      0.500000          0.735747E-04
