 I_abs(s)[cm^-1]/c[mg/ml]
       0.00000          0.145396E-01
      0.500000E-02      0.144941E-01
      0.100000E-01      0.143585E-01
      0.150000E-01      0.141352E-01
      0.200000E-01      0.138286E-01
      0.250000E-01      0.134443E-01
      0.300000E-01      0.129894E-01
      0.350000E-01      0.124720E-01
      0.400000E-01      0.119012E-01
      0.450000E-01      0.112867E-01
      0.500000E-01      0.106385E-01
      0.550000E-01      0.996685E-02
      0.600000E-01      0.928165E-02
      0.650000E-01      0.859252E-02
      0.700000E-01      0.790845E-02
      0.750000E-01      0.723763E-02
      0.800000E-01      0.658730E-02
      0.850000E-01      0.596367E-02
      0.900000E-01      0.537184E-02
      0.950000E-01      0.481575E-02
      0.100000          0.429823E-02
      0.105000          0.382103E-02
      0.110000          0.338488E-02
      0.115000          0.298962E-02
      0.120000          0.263429E-02
      0.125000          0.231727E-02
      0.130000          0.203643E-02
      0.135000          0.178923E-02
      0.140000          0.157289E-02
      0.145000          0.138447E-02
      0.150000          0.122101E-02
      0.155000          0.107961E-02
      0.160000          0.957502E-03
      0.165000          0.852096E-03
      0.170000          0.761044E-03
      0.175000          0.682247E-03
      0.180000          0.613870E-03
      0.185000          0.554334E-03
      0.190000          0.502310E-03
      0.195000          0.456690E-03
      0.200000          0.416568E-03
      0.205000          0.381209E-03
      0.210000          0.350019E-03
      0.215000          0.322519E-03
      0.220000          0.298316E-03
      0.225000          0.277084E-03
      0.230000          0.258540E-03
      0.235000          0.242433E-03
      0.240000          0.228533E-03
      0.245000          0.216617E-03
      0.250000          0.206474E-03
      0.255000          0.197896E-03
      0.260000          0.190680E-03
      0.265000          0.184631E-03
      0.270000          0.179561E-03
      0.275000          0.175294E-03
      0.280000          0.171668E-03
      0.285000          0.168537E-03
      0.290000          0.165771E-03
      0.295000          0.163259E-03
      0.300000          0.160906E-03
      0.305000          0.158637E-03
      0.310000          0.156392E-03
      0.315000          0.154127E-03
      0.320000          0.151810E-03
      0.325000          0.149423E-03
      0.330000          0.146957E-03
      0.335000          0.144412E-03
      0.340000          0.141794E-03
      0.345000          0.139116E-03
      0.350000          0.136392E-03
      0.355000          0.133643E-03
      0.360000          0.130888E-03
      0.365000          0.128150E-03
      0.370000          0.125450E-03
      0.375000          0.122810E-03
      0.380000          0.120250E-03
      0.385000          0.117786E-03
      0.390000          0.115434E-03
      0.395000          0.113204E-03
      0.400000          0.111105E-03
      0.405000          0.109138E-03
      0.410000          0.107303E-03
      0.415000          0.105594E-03
      0.420000          0.104000E-03
      0.425000          0.102507E-03
      0.430000          0.101098E-03
      0.435000          0.997518E-04
      0.440000          0.984465E-04
      0.445000          0.971593E-04
      0.450000          0.958674E-04
      0.455000          0.945493E-04
      0.460000          0.931858E-04
      0.465000          0.917607E-04
      0.470000          0.902620E-04
      0.475000          0.886819E-04
      0.480000          0.870176E-04
      0.485000          0.852716E-04
      0.490000          0.834512E-04
      0.495000          0.815683E-04
      0.500000          0.796392E-04
