 I_abs(s)[cm^-1]/c[mg/ml]
       0.00000          0.147625E-01
      0.500000E-02      0.147260E-01
      0.100000E-01      0.146169E-01
      0.150000E-01      0.144369E-01
      0.200000E-01      0.141884E-01
      0.250000E-01      0.138749E-01
      0.300000E-01      0.135008E-01
      0.350000E-01      0.130711E-01
      0.400000E-01      0.125918E-01
      0.450000E-01      0.120689E-01
      0.500000E-01      0.115093E-01
      0.550000E-01      0.109199E-01
      0.600000E-01      0.103079E-01
      0.650000E-01      0.968023E-02
      0.700000E-01      0.904396E-02
      0.750000E-01      0.840579E-02
      0.800000E-01      0.777204E-02
      0.850000E-01      0.714861E-02
      0.900000E-01      0.654082E-02
      0.950000E-01      0.595343E-02
      0.100000          0.539049E-02
      0.105000          0.485542E-02
      0.110000          0.435091E-02
      0.115000          0.387900E-02
      0.120000          0.344102E-02
      0.125000          0.303769E-02
      0.130000          0.266915E-02
      0.135000          0.233498E-02
      0.140000          0.203432E-02
      0.145000          0.176588E-02
      0.150000          0.152805E-02
      0.155000          0.131895E-02
      0.160000          0.113651E-02
      0.165000          0.978530E-03
      0.170000          0.842731E-03
      0.175000          0.726835E-03
      0.180000          0.628593E-03
      0.185000          0.545839E-03
      0.190000          0.476514E-03
      0.195000          0.418700E-03
      0.200000          0.370637E-03
      0.205000          0.330732E-03
      0.210000          0.297571E-03
      0.215000          0.269916E-03
      0.220000          0.246700E-03
      0.225000          0.227022E-03
      0.230000          0.210132E-03
      0.235000          0.195422E-03
      0.240000          0.182406E-03
      0.245000          0.170708E-03
      0.250000          0.160047E-03
      0.255000          0.150218E-03
      0.260000          0.141082E-03
      0.265000          0.132547E-03
      0.270000          0.124565E-03
      0.275000          0.117111E-03
      0.280000          0.110182E-03
      0.285000          0.103786E-03
      0.290000          0.979388E-04
      0.295000          0.926555E-04
      0.300000          0.879501E-04
      0.305000          0.838324E-04
      0.310000          0.803059E-04
      0.315000          0.773675E-04
      0.320000          0.750068E-04
      0.325000          0.732065E-04
      0.330000          0.719424E-04
      0.335000          0.711845E-04
      0.340000          0.708972E-04
      0.345000          0.710406E-04
      0.350000          0.715707E-04
      0.355000          0.724409E-04
      0.360000          0.736022E-04
      0.365000          0.750045E-04
      0.370000          0.765970E-04
      0.375000          0.783291E-04
      0.380000          0.801511E-04
      0.385000          0.820149E-04
      0.390000          0.838744E-04
      0.395000          0.856867E-04
      0.400000          0.874121E-04
      0.405000          0.890148E-04
      0.410000          0.904636E-04
      0.415000          0.917317E-04
      0.420000          0.927977E-04
      0.425000          0.936451E-04
      0.430000          0.942626E-04
      0.435000          0.946444E-04
      0.440000          0.947894E-04
      0.445000          0.947013E-04
      0.450000          0.943882E-04
      0.455000          0.938620E-04
      0.460000          0.931379E-04
      0.465000          0.922339E-04
      0.470000          0.911698E-04
      0.475000          0.899671E-04
      0.480000          0.886478E-04
      0.485000          0.872343E-04
      0.490000          0.857483E-04
      0.495000          0.842107E-04
      0.500000          0.826409E-04
