 I_abs(s)[cm^-1]/c[mg/ml]
       0.00000          0.142634E-01
      0.500000E-02      0.142150E-01
      0.100000E-01      0.140707E-01
      0.150000E-01      0.138335E-01
      0.200000E-01      0.135080E-01
      0.250000E-01      0.131009E-01
      0.300000E-01      0.126199E-01
      0.350000E-01      0.120744E-01
      0.400000E-01      0.114744E-01
      0.450000E-01      0.108307E-01
      0.500000E-01      0.101547E-01
      0.550000E-01      0.945748E-02
      0.600000E-01      0.875009E-02
      0.650000E-01      0.804300E-02
      0.700000E-01      0.734595E-02
      0.750000E-01      0.666769E-02
      0.800000E-01      0.601586E-02
      0.850000E-01      0.539687E-02
      0.900000E-01      0.481583E-02
      0.950000E-01      0.427652E-02
      0.100000          0.378145E-02
      0.105000          0.333190E-02
      0.110000          0.292802E-02
      0.115000          0.256896E-02
      0.120000          0.225301E-02
      0.125000          0.197777E-02
      0.130000          0.174030E-02
      0.135000          0.153726E-02
      0.140000          0.136512E-02
      0.145000          0.122021E-02
      0.150000          0.109892E-02
      0.155000          0.997761E-03
      0.160000          0.913455E-03
      0.165000          0.842999E-03
      0.170000          0.783704E-03
      0.175000          0.733218E-03
      0.180000          0.689531E-03
      0.185000          0.650968E-03
      0.190000          0.616175E-03
      0.195000          0.584083E-03
      0.200000          0.553886E-03
      0.205000          0.525000E-03
      0.210000          0.497029E-03
      0.215000          0.469729E-03
      0.220000          0.442979E-03
      0.225000          0.416748E-03
      0.230000          0.391071E-03
      0.235000          0.366027E-03
      0.240000          0.341724E-03
      0.245000          0.318280E-03
      0.250000          0.295817E-03
      0.255000          0.274450E-03
      0.260000          0.254281E-03
      0.265000          0.235398E-03
      0.270000          0.217871E-03
      0.275000          0.201747E-03
      0.280000          0.187054E-03
      0.285000          0.173799E-03
      0.290000          0.161965E-03
      0.295000          0.151519E-03
      0.300000          0.142405E-03
      0.305000          0.134552E-03
      0.310000          0.127872E-03
      0.315000          0.122264E-03
      0.320000          0.117618E-03
      0.325000          0.113816E-03
      0.330000          0.110738E-03
      0.335000          0.108261E-03
      0.340000          0.106269E-03
      0.345000          0.104650E-03
      0.350000          0.103303E-03
      0.355000          0.102137E-03
      0.360000          0.101077E-03
      0.365000          0.100060E-03
      0.370000          0.990419E-04
      0.375000          0.979896E-04
      0.380000          0.968863E-04
      0.385000          0.957272E-04
      0.390000          0.945184E-04
      0.395000          0.932744E-04
      0.400000          0.920160E-04
      0.405000          0.907676E-04
      0.410000          0.895551E-04
      0.415000          0.884036E-04
      0.420000          0.873355E-04
      0.425000          0.863692E-04
      0.430000          0.855180E-04
      0.435000          0.847890E-04
      0.440000          0.841838E-04
      0.445000          0.836977E-04
      0.450000          0.833208E-04
      0.455000          0.830386E-04
      0.460000          0.828332E-04
      0.465000          0.826842E-04
      0.470000          0.825698E-04
      0.475000          0.824684E-04
      0.480000          0.823593E-04
      0.485000          0.822240E-04
      0.490000          0.820467E-04
      0.495000          0.818151E-04
      0.500000          0.815207E-04
