 I_abs(s)[cm^-1]/c[mg/ml]
       0.00000          0.146987E-01
      0.500000E-02      0.146431E-01
      0.100000E-01      0.144779E-01
      0.150000E-01      0.142068E-01
      0.200000E-01      0.138362E-01
      0.250000E-01      0.133748E-01
      0.300000E-01      0.128328E-01
      0.350000E-01      0.122222E-01
      0.400000E-01      0.115558E-01
      0.450000E-01      0.108471E-01
      0.500000E-01      0.101097E-01
      0.550000E-01      0.935682E-02
      0.600000E-01      0.860105E-02
      0.650000E-01      0.785391E-02
      0.700000E-01      0.712563E-02
      0.750000E-01      0.642498E-02
      0.800000E-01      0.575913E-02
      0.850000E-01      0.513362E-02
      0.900000E-01      0.455242E-02
      0.950000E-01      0.401796E-02
      0.100000          0.353131E-02
      0.105000          0.309233E-02
      0.110000          0.269986E-02
      0.115000          0.235191E-02
      0.120000          0.204587E-02
      0.125000          0.177867E-02
      0.130000          0.154698E-02
      0.135000          0.134732E-02
      0.140000          0.117621E-02
      0.145000          0.103027E-02
      0.150000          0.906276E-03
      0.155000          0.801215E-03
      0.160000          0.712342E-03
      0.165000          0.637182E-03
      0.170000          0.573541E-03
      0.175000          0.519502E-03
      0.180000          0.473418E-03
      0.185000          0.433894E-03
      0.190000          0.399767E-03
      0.195000          0.370088E-03
      0.200000          0.344092E-03
      0.205000          0.321183E-03
      0.210000          0.300902E-03
      0.215000          0.282905E-03
      0.220000          0.266943E-03
      0.225000          0.252834E-03
      0.230000          0.240449E-03
      0.235000          0.229688E-03
      0.240000          0.220469E-03
      0.245000          0.212716E-03
      0.250000          0.206346E-03
      0.255000          0.201264E-03
      0.260000          0.197361E-03
      0.265000          0.194514E-03
      0.270000          0.192583E-03
      0.275000          0.191419E-03
      0.280000          0.190865E-03
      0.285000          0.190761E-03
      0.290000          0.190949E-03
      0.295000          0.191279E-03
      0.300000          0.191608E-03
      0.305000          0.191811E-03
      0.310000          0.191773E-03
      0.315000          0.191401E-03
      0.320000          0.190614E-03
      0.325000          0.189355E-03
      0.330000          0.187579E-03
      0.335000          0.185262E-03
      0.340000          0.182396E-03
      0.345000          0.178987E-03
      0.350000          0.175059E-03
      0.355000          0.170648E-03
      0.360000          0.165804E-03
      0.365000          0.160590E-03
      0.370000          0.155079E-03
      0.375000          0.149355E-03
      0.380000          0.143506E-03
      0.385000          0.137626E-03
      0.390000          0.131812E-03
      0.395000          0.126159E-03
      0.400000          0.120759E-03
      0.405000          0.115697E-03
      0.410000          0.111049E-03
      0.415000          0.106878E-03
      0.420000          0.103235E-03
      0.425000          0.100154E-03
      0.430000          0.976535E-04
      0.435000          0.957351E-04
      0.440000          0.943841E-04
      0.445000          0.935700E-04
      0.450000          0.932488E-04
      0.455000          0.933641E-04
      0.460000          0.938501E-04
      0.465000          0.946335E-04
      0.470000          0.956370E-04
      0.475000          0.967815E-04
      0.480000          0.979890E-04
      0.485000          0.991851E-04
      0.490000          0.100301E-03
      0.495000          0.101276E-03
      0.500000          0.102058E-03
