 I_abs(s)[cm^-1]/c[mg/ml]
       0.00000          0.144130E-01
      0.500000E-02      0.143574E-01
      0.100000E-01      0.141918E-01
      0.150000E-01      0.139202E-01
      0.200000E-01      0.135488E-01
      0.250000E-01      0.130862E-01
      0.300000E-01      0.125429E-01
      0.350000E-01      0.119306E-01
      0.400000E-01      0.112626E-01
      0.450000E-01      0.105525E-01
      0.500000E-01      0.981420E-02
      0.550000E-01      0.906146E-02
      0.600000E-01      0.830734E-02
      0.650000E-01      0.756395E-02
      0.700000E-01      0.684208E-02
      0.750000E-01      0.615103E-02
      0.800000E-01      0.549842E-02
      0.850000E-01      0.489012E-02
      0.900000E-01      0.433021E-02
      0.950000E-01      0.382109E-02
      0.100000          0.336357E-02
      0.105000          0.295704E-02
      0.110000          0.259966E-02
      0.115000          0.228862E-02
      0.120000          0.202035E-02
      0.125000          0.179078E-02
      0.130000          0.159552E-02
      0.135000          0.143012E-02
      0.140000          0.129023E-02
      0.145000          0.117173E-02
      0.150000          0.107082E-02
      0.155000          0.984170E-03
      0.160000          0.908875E-03
      0.165000          0.842529E-03
      0.170000          0.783185E-03
      0.175000          0.729330E-03
      0.180000          0.679840E-03
      0.185000          0.633917E-03
      0.190000          0.591034E-03
      0.195000          0.550873E-03
      0.200000          0.513267E-03
      0.205000          0.478147E-03
      0.210000          0.445506E-03
      0.215000          0.415355E-03
      0.220000          0.387707E-03
      0.225000          0.362552E-03
      0.230000          0.339854E-03
      0.235000          0.319542E-03
      0.240000          0.301513E-03
      0.245000          0.285636E-03
      0.250000          0.271756E-03
      0.255000          0.259703E-03
      0.260000          0.249297E-03
      0.265000          0.240351E-03
      0.270000          0.232682E-03
      0.275000          0.226108E-03
      0.280000          0.220453E-03
      0.285000          0.215550E-03
      0.290000          0.211243E-03
      0.295000          0.207382E-03
      0.300000          0.203831E-03
      0.305000          0.200464E-03
      0.310000          0.197170E-03
      0.315000          0.193851E-03
      0.320000          0.190424E-03
      0.325000          0.186826E-03
      0.330000          0.183008E-03
      0.335000          0.178944E-03
      0.340000          0.174626E-03
      0.345000          0.170062E-03
      0.350000          0.165281E-03
      0.355000          0.160325E-03
      0.360000          0.155248E-03
      0.365000          0.150115E-03
      0.370000          0.144995E-03
      0.375000          0.139956E-03
      0.380000          0.135066E-03
      0.385000          0.130386E-03
      0.390000          0.125965E-03
      0.395000          0.121845E-03
      0.400000          0.118049E-03
      0.405000          0.114589E-03
      0.410000          0.111464E-03
      0.415000          0.108658E-03
      0.420000          0.106145E-03
      0.425000          0.103891E-03
      0.430000          0.101855E-03
      0.435000          0.999949E-04
      0.440000          0.982684E-04
      0.445000          0.966355E-04
      0.450000          0.950621E-04
      0.455000          0.935211E-04
      0.460000          0.919936E-04
      0.465000          0.904696E-04
      0.470000          0.889480E-04
      0.475000          0.874355E-04
      0.480000          0.859459E-04
      0.485000          0.844979E-04
      0.490000          0.831134E-04
      0.495000          0.818156E-04
      0.500000          0.806267E-04
