 I_abs(s)[cm^-1]/c[mg/ml]
       0.00000          0.144604E-01
      0.500000E-02      0.144094E-01
      0.100000E-01      0.142574E-01
      0.150000E-01      0.140077E-01
      0.200000E-01      0.136659E-01
      0.250000E-01      0.132390E-01
      0.300000E-01      0.127362E-01
      0.350000E-01      0.121675E-01
      0.400000E-01      0.115443E-01
      0.450000E-01      0.108783E-01
      0.500000E-01      0.101816E-01
      0.550000E-01      0.946615E-02
      0.600000E-01      0.874338E-02
      0.650000E-01      0.802403E-02
      0.700000E-01      0.731786E-02
      0.750000E-01      0.663344E-02
      0.800000E-01      0.597802E-02
      0.850000E-01      0.535751E-02
      0.900000E-01      0.477641E-02
      0.950000E-01      0.423786E-02
      0.100000          0.374376E-02
      0.105000          0.329480E-02
      0.110000          0.289069E-02
      0.115000          0.253025E-02
      0.120000          0.221158E-02
      0.125000          0.193225E-02
      0.130000          0.168942E-02
      0.135000          0.147998E-02
      0.140000          0.130069E-02
      0.145000          0.114829E-02
      0.150000          0.101955E-02
      0.155000          0.911384E-03
      0.160000          0.820874E-03
      0.165000          0.745310E-03
      0.170000          0.682224E-03
      0.175000          0.629395E-03
      0.180000          0.584860E-03
      0.185000          0.546912E-03
      0.190000          0.514091E-03
      0.195000          0.485175E-03
      0.200000          0.459169E-03
      0.205000          0.435287E-03
      0.210000          0.412931E-03
      0.215000          0.391675E-03
      0.220000          0.371240E-03
      0.225000          0.351471E-03
      0.230000          0.332316E-03
      0.235000          0.313798E-03
      0.240000          0.295994E-03
      0.245000          0.279013E-03
      0.250000          0.262975E-03
      0.255000          0.247998E-03
      0.260000          0.234180E-03
      0.265000          0.221589E-03
      0.270000          0.210262E-03
      0.275000          0.200197E-03
      0.280000          0.191355E-03
      0.285000          0.183666E-03
      0.290000          0.177034E-03
      0.295000          0.171342E-03
      0.300000          0.166460E-03
      0.305000          0.162258E-03
      0.310000          0.158606E-03
      0.315000          0.155384E-03
      0.320000          0.152484E-03
      0.325000          0.149817E-03
      0.330000          0.147309E-03
      0.335000          0.144904E-03
      0.340000          0.142559E-03
      0.345000          0.140246E-03
      0.350000          0.137947E-03
      0.355000          0.135650E-03
      0.360000          0.133347E-03
      0.365000          0.131031E-03
      0.370000          0.128697E-03
      0.375000          0.126339E-03
      0.380000          0.123949E-03
      0.385000          0.121520E-03
      0.390000          0.119044E-03
      0.395000          0.116514E-03
      0.400000          0.113929E-03
      0.405000          0.111290E-03
      0.410000          0.108601E-03
      0.415000          0.105874E-03
      0.420000          0.103125E-03
      0.425000          0.100374E-03
      0.430000          0.976455E-04
      0.435000          0.949664E-04
      0.440000          0.923642E-04
      0.445000          0.898659E-04
      0.450000          0.874964E-04
      0.455000          0.852770E-04
      0.460000          0.832244E-04
      0.465000          0.813499E-04
      0.470000          0.796590E-04
      0.475000          0.781516E-04
      0.480000          0.768219E-04
      0.485000          0.756593E-04
      0.490000          0.746496E-04
      0.495000          0.737753E-04
      0.500000          0.730177E-04
