 I_abs(s)[cm^-1]/c[mg/ml]
       0.00000          0.144842E-01
      0.500000E-02      0.144426E-01
      0.100000E-01      0.143185E-01
      0.150000E-01      0.141142E-01
      0.200000E-01      0.138333E-01
      0.250000E-01      0.134808E-01
      0.300000E-01      0.130626E-01
      0.350000E-01      0.125860E-01
      0.400000E-01      0.120587E-01
      0.450000E-01      0.114892E-01
      0.500000E-01      0.108860E-01
      0.550000E-01      0.102582E-01
      0.600000E-01      0.961425E-02
      0.650000E-01      0.896270E-02
      0.700000E-01      0.831144E-02
      0.750000E-01      0.766772E-02
      0.800000E-01      0.703807E-02
      0.850000E-01      0.642818E-02
      0.900000E-01      0.584283E-02
      0.950000E-01      0.528592E-02
      0.100000          0.476041E-02
      0.105000          0.426842E-02
      0.110000          0.381125E-02
      0.115000          0.338947E-02
      0.120000          0.300300E-02
      0.125000          0.265119E-02
      0.130000          0.233294E-02
      0.135000          0.204678E-02
      0.140000          0.179098E-02
      0.145000          0.156359E-02
      0.150000          0.136256E-02
      0.155000          0.118579E-02
      0.160000          0.103117E-02
      0.165000          0.896631E-03
      0.170000          0.780191E-03
      0.175000          0.679952E-03
      0.180000          0.594132E-03
      0.185000          0.521072E-03
      0.190000          0.459238E-03
      0.195000          0.407221E-03
      0.200000          0.363734E-03
      0.205000          0.327609E-03
      0.210000          0.297792E-03
      0.215000          0.273334E-03
      0.220000          0.253387E-03
      0.225000          0.237201E-03
      0.230000          0.224112E-03
      0.235000          0.213541E-03
      0.240000          0.204988E-03
      0.245000          0.198025E-03
      0.250000          0.192292E-03
      0.255000          0.187487E-03
      0.260000          0.183367E-03
      0.265000          0.179735E-03
      0.270000          0.176437E-03
      0.275000          0.173354E-03
      0.280000          0.170401E-03
      0.285000          0.167514E-03
      0.290000          0.164649E-03
      0.295000          0.161779E-03
      0.300000          0.158887E-03
      0.305000          0.155962E-03
      0.310000          0.153001E-03
      0.315000          0.150003E-03
      0.320000          0.146971E-03
      0.325000          0.143908E-03
      0.330000          0.140817E-03
      0.335000          0.137706E-03
      0.340000          0.134580E-03
      0.345000          0.131447E-03
      0.350000          0.128317E-03
      0.355000          0.125199E-03
      0.360000          0.122107E-03
      0.365000          0.119052E-03
      0.370000          0.116047E-03
      0.375000          0.113105E-03
      0.380000          0.110240E-03
      0.385000          0.107461E-03
      0.390000          0.104779E-03
      0.395000          0.102202E-03
      0.400000          0.997346E-04
      0.405000          0.973788E-04
      0.410000          0.951344E-04
      0.415000          0.929984E-04
      0.420000          0.909653E-04
      0.425000          0.890278E-04
      0.430000          0.871770E-04
      0.435000          0.854033E-04
      0.440000          0.836966E-04
      0.445000          0.820475E-04
      0.450000          0.804474E-04
      0.455000          0.788893E-04
      0.460000          0.773680E-04
      0.465000          0.758805E-04
      0.470000          0.744264E-04
      0.475000          0.730073E-04
      0.480000          0.716273E-04
      0.485000          0.702923E-04
      0.490000          0.690101E-04
      0.495000          0.677897E-04
      0.500000          0.666406E-04
