 I_abs(s)[cm^-1]/c[mg/ml]
       0.00000          0.147146E-01
      0.500000E-02      0.146725E-01
      0.100000E-01      0.145471E-01
      0.150000E-01      0.143404E-01
      0.200000E-01      0.140560E-01
      0.250000E-01      0.136987E-01
      0.300000E-01      0.132746E-01
      0.350000E-01      0.127906E-01
      0.400000E-01      0.122544E-01
      0.450000E-01      0.116744E-01
      0.500000E-01      0.110594E-01
      0.550000E-01      0.104182E-01
      0.600000E-01      0.975961E-02
      0.650000E-01      0.909233E-02
      0.700000E-01      0.842449E-02
      0.750000E-01      0.776365E-02
      0.800000E-01      0.711669E-02
      0.850000E-01      0.648963E-02
      0.900000E-01      0.588763E-02
      0.950000E-01      0.531490E-02
      0.100000          0.477472E-02
      0.105000          0.426945E-02
      0.110000          0.380056E-02
      0.115000          0.336874E-02
      0.120000          0.297391E-02
      0.125000          0.261539E-02
      0.130000          0.229198E-02
      0.135000          0.200203E-02
      0.140000          0.174358E-02
      0.145000          0.151447E-02
      0.150000          0.131239E-02
      0.155000          0.113500E-02
      0.160000          0.979973E-03
      0.165000          0.845078E-03
      0.170000          0.728190E-03
      0.175000          0.627340E-03
      0.180000          0.540725E-03
      0.185000          0.466717E-03
      0.190000          0.403859E-03
      0.195000          0.350855E-03
      0.200000          0.306556E-03
      0.205000          0.269942E-03
      0.210000          0.240104E-03
      0.215000          0.216223E-03
      0.220000          0.197552E-03
      0.225000          0.183404E-03
      0.230000          0.173140E-03
      0.235000          0.166156E-03
      0.240000          0.161883E-03
      0.245000          0.159781E-03
      0.250000          0.159341E-03
      0.255000          0.160090E-03
      0.260000          0.161590E-03
      0.265000          0.163449E-03
      0.270000          0.165319E-03
      0.275000          0.166908E-03
      0.280000          0.167974E-03
      0.285000          0.168338E-03
      0.290000          0.167871E-03
      0.295000          0.166506E-03
      0.300000          0.164223E-03
      0.305000          0.161050E-03
      0.310000          0.157056E-03
      0.315000          0.152343E-03
      0.320000          0.147038E-03
      0.325000          0.141282E-03
      0.330000          0.135229E-03
      0.335000          0.129031E-03
      0.340000          0.122836E-03
      0.345000          0.116778E-03
      0.350000          0.110978E-03
      0.355000          0.105535E-03
      0.360000          0.100529E-03
      0.365000          0.960135E-04
      0.370000          0.920245E-04
      0.375000          0.885748E-04
      0.380000          0.856595E-04
      0.385000          0.832577E-04
      0.390000          0.813359E-04
      0.395000          0.798510E-04
      0.400000          0.787539E-04
      0.405000          0.779923E-04
      0.410000          0.775138E-04
      0.415000          0.772678E-04
      0.420000          0.772078E-04
      0.425000          0.772926E-04
      0.430000          0.774870E-04
      0.435000          0.777626E-04
      0.440000          0.780974E-04
      0.445000          0.784753E-04
      0.450000          0.788859E-04
      0.455000          0.793228E-04
      0.460000          0.797832E-04
      0.465000          0.802664E-04
      0.470000          0.807728E-04
      0.475000          0.813030E-04
      0.480000          0.818568E-04
      0.485000          0.824325E-04
      0.490000          0.830264E-04
      0.495000          0.836326E-04
      0.500000          0.842426E-04
