 I_abs(s)[cm^-1]/c[mg/ml]
       0.00000          0.149228E-01
      0.500000E-02      0.148826E-01
      0.100000E-01      0.147626E-01
      0.150000E-01      0.145648E-01
      0.200000E-01      0.142922E-01
      0.250000E-01      0.139490E-01
      0.300000E-01      0.135405E-01
      0.350000E-01      0.130727E-01
      0.400000E-01      0.125526E-01
      0.450000E-01      0.119874E-01
      0.500000E-01      0.113852E-01
      0.550000E-01      0.107540E-01
      0.600000E-01      0.101018E-01
      0.650000E-01      0.943672E-02
      0.700000E-01      0.876650E-02
      0.750000E-01      0.809846E-02
      0.800000E-01      0.743939E-02
      0.850000E-01      0.679548E-02
      0.900000E-01      0.617218E-02
      0.950000E-01      0.557416E-02
      0.100000          0.500534E-02
      0.105000          0.446879E-02
      0.110000          0.396680E-02
      0.115000          0.350091E-02
      0.120000          0.307192E-02
      0.125000          0.267999E-02
      0.130000          0.232471E-02
      0.135000          0.200513E-02
      0.140000          0.171991E-02
      0.145000          0.146734E-02
      0.150000          0.124546E-02
      0.155000          0.105211E-02
      0.160000          0.885018E-03
      0.165000          0.741864E-03
      0.170000          0.620321E-03
      0.175000          0.518110E-03
      0.180000          0.433035E-03
      0.185000          0.363017E-03
      0.190000          0.306109E-03
      0.195000          0.260515E-03
      0.200000          0.224595E-03
      0.205000          0.196868E-03
      0.210000          0.176012E-03
      0.215000          0.160853E-03
      0.220000          0.150361E-03
      0.225000          0.143641E-03
      0.230000          0.139917E-03
      0.235000          0.138525E-03
      0.240000          0.138898E-03
      0.245000          0.140559E-03
      0.250000          0.143108E-03
      0.255000          0.146210E-03
      0.260000          0.149591E-03
      0.265000          0.153030E-03
      0.270000          0.156347E-03
      0.275000          0.159403E-03
      0.280000          0.162091E-03
      0.285000          0.164333E-03
      0.290000          0.166075E-03
      0.295000          0.167285E-03
      0.300000          0.167949E-03
      0.305000          0.168067E-03
      0.310000          0.167652E-03
      0.315000          0.166728E-03
      0.320000          0.165326E-03
      0.325000          0.163486E-03
      0.330000          0.161250E-03
      0.335000          0.158665E-03
      0.340000          0.155777E-03
      0.345000          0.152636E-03
      0.350000          0.149288E-03
      0.355000          0.145781E-03
      0.360000          0.142157E-03
      0.365000          0.138458E-03
      0.370000          0.134720E-03
      0.375000          0.130976E-03
      0.380000          0.127254E-03
      0.385000          0.123581E-03
      0.390000          0.119976E-03
      0.395000          0.116457E-03
      0.400000          0.113035E-03
      0.405000          0.109722E-03
      0.410000          0.106525E-03
      0.415000          0.103448E-03
      0.420000          0.100496E-03
      0.425000          0.976689E-04
      0.430000          0.949693E-04
      0.435000          0.923975E-04
      0.440000          0.899542E-04
      0.445000          0.876400E-04
      0.450000          0.854559E-04
      0.455000          0.834029E-04
      0.460000          0.814821E-04
      0.465000          0.796949E-04
      0.470000          0.780420E-04
      0.475000          0.765241E-04
      0.480000          0.751409E-04
      0.485000          0.738911E-04
      0.490000          0.727723E-04
      0.495000          0.717807E-04
      0.500000          0.709111E-04
