 I_abs(s)[cm^-1]/c[mg/ml]
       0.00000          0.144921E-01
      0.500000E-02      0.144462E-01
      0.100000E-01      0.143094E-01
      0.150000E-01      0.140840E-01
      0.200000E-01      0.137743E-01
      0.250000E-01      0.133856E-01
      0.300000E-01      0.129249E-01
      0.350000E-01      0.124001E-01
      0.400000E-01      0.118200E-01
      0.450000E-01      0.111943E-01
      0.500000E-01      0.105329E-01
      0.550000E-01      0.984604E-02
      0.600000E-01      0.914383E-02
      0.650000E-01      0.843614E-02
      0.700000E-01      0.773232E-02
      0.750000E-01      0.704105E-02
      0.800000E-01      0.637012E-02
      0.850000E-01      0.572640E-02
      0.900000E-01      0.511565E-02
      0.950000E-01      0.454253E-02
      0.100000          0.401053E-02
      0.105000          0.352206E-02
      0.110000          0.307838E-02
      0.115000          0.267980E-02
      0.120000          0.232567E-02
      0.125000          0.201454E-02
      0.130000          0.174430E-02
      0.135000          0.151227E-02
      0.140000          0.131535E-02
      0.145000          0.115018E-02
      0.150000          0.101323E-02
      0.155000          0.900906E-03
      0.160000          0.809704E-03
      0.165000          0.736244E-03
      0.170000          0.677368E-03
      0.175000          0.630186E-03
      0.180000          0.592116E-03
      0.185000          0.560904E-03
      0.190000          0.534636E-03
      0.195000          0.511731E-03
      0.200000          0.490927E-03
      0.205000          0.471257E-03
      0.210000          0.452020E-03
      0.215000          0.432750E-03
      0.220000          0.413175E-03
      0.225000          0.393187E-03
      0.230000          0.372801E-03
      0.235000          0.352128E-03
      0.240000          0.331339E-03
      0.245000          0.310646E-03
      0.250000          0.290275E-03
      0.255000          0.270449E-03
      0.260000          0.251379E-03
      0.265000          0.233246E-03
      0.270000          0.216204E-03
      0.275000          0.200371E-03
      0.280000          0.185829E-03
      0.285000          0.172627E-03
      0.290000          0.160781E-03
      0.295000          0.150279E-03
      0.300000          0.141086E-03
      0.305000          0.133148E-03
      0.310000          0.126393E-03
      0.315000          0.120739E-03
      0.320000          0.116096E-03
      0.325000          0.112370E-03
      0.330000          0.109463E-03
      0.335000          0.107279E-03
      0.340000          0.105722E-03
      0.345000          0.104701E-03
      0.350000          0.104127E-03
      0.355000          0.103917E-03
      0.360000          0.103992E-03
      0.365000          0.104280E-03
      0.370000          0.104714E-03
      0.375000          0.105233E-03
      0.380000          0.105781E-03
      0.385000          0.106309E-03
      0.390000          0.106774E-03
      0.395000          0.107139E-03
      0.400000          0.107374E-03
      0.405000          0.107454E-03
      0.410000          0.107362E-03
      0.415000          0.107084E-03
      0.420000          0.106615E-03
      0.425000          0.105953E-03
      0.430000          0.105102E-03
      0.435000          0.104072E-03
      0.440000          0.102876E-03
      0.445000          0.101531E-03
      0.450000          0.100056E-03
      0.455000          0.984735E-04
      0.460000          0.968075E-04
      0.465000          0.950825E-04
      0.470000          0.933235E-04
      0.475000          0.915548E-04
      0.480000          0.897996E-04
      0.485000          0.880794E-04
      0.490000          0.864135E-04
      0.495000          0.848187E-04
      0.500000          0.833086E-04
