 I_abs(s)[cm^-1]/c[mg/ml]
       0.00000          0.146350E-01
      0.500000E-02      0.145877E-01
      0.100000E-01      0.144469E-01
      0.150000E-01      0.142153E-01
      0.200000E-01      0.138973E-01
      0.250000E-01      0.134991E-01
      0.300000E-01      0.130282E-01
      0.350000E-01      0.124931E-01
      0.400000E-01      0.119037E-01
      0.450000E-01      0.112700E-01
      0.500000E-01      0.106028E-01
      0.550000E-01      0.991272E-02
      0.600000E-01      0.921027E-02
      0.650000E-01      0.850548E-02
      0.700000E-01      0.780772E-02
      0.750000E-01      0.712547E-02
      0.800000E-01      0.646619E-02
      0.850000E-01      0.583621E-02
      0.900000E-01      0.524066E-02
      0.950000E-01      0.468344E-02
      0.100000          0.416726E-02
      0.105000          0.369371E-02
      0.110000          0.326329E-02
      0.115000          0.287556E-02
      0.120000          0.252927E-02
      0.125000          0.222251E-02
      0.130000          0.195280E-02
      0.135000          0.171730E-02
      0.140000          0.151292E-02
      0.145000          0.133643E-02
      0.150000          0.118462E-02
      0.155000          0.105434E-02
      0.160000          0.942612E-03
      0.165000          0.846683E-03
      0.170000          0.764066E-03
      0.175000          0.692559E-03
      0.180000          0.630260E-03
      0.185000          0.575563E-03
      0.190000          0.527140E-03
      0.195000          0.483922E-03
      0.200000          0.445068E-03
      0.205000          0.409935E-03
      0.210000          0.378047E-03
      0.215000          0.349056E-03
      0.220000          0.322720E-03
      0.225000          0.298866E-03
      0.230000          0.277371E-03
      0.235000          0.258138E-03
      0.240000          0.241084E-03
      0.245000          0.226120E-03
      0.250000          0.213151E-03
      0.255000          0.202064E-03
      0.260000          0.192727E-03
      0.265000          0.184990E-03
      0.270000          0.178689E-03
      0.275000          0.173644E-03
      0.280000          0.169668E-03
      0.285000          0.166570E-03
      0.290000          0.164161E-03
      0.295000          0.162258E-03
      0.300000          0.160690E-03
      0.305000          0.159299E-03
      0.310000          0.157947E-03
      0.315000          0.156516E-03
      0.320000          0.154913E-03
      0.325000          0.153064E-03
      0.330000          0.150923E-03
      0.335000          0.148462E-03
      0.340000          0.145677E-03
      0.345000          0.142582E-03
      0.350000          0.139206E-03
      0.355000          0.135592E-03
      0.360000          0.131793E-03
      0.365000          0.127868E-03
      0.370000          0.123881E-03
      0.375000          0.119894E-03
      0.380000          0.115968E-03
      0.385000          0.112160E-03
      0.390000          0.108519E-03
      0.395000          0.105086E-03
      0.400000          0.101895E-03
      0.405000          0.989691E-04
      0.410000          0.963212E-04
      0.415000          0.939568E-04
      0.420000          0.918725E-04
      0.425000          0.900580E-04
      0.430000          0.884972E-04
      0.435000          0.871697E-04
      0.440000          0.860515E-04
      0.445000          0.851175E-04
      0.450000          0.843413E-04
      0.455000          0.836974E-04
      0.460000          0.831613E-04
      0.465000          0.827102E-04
      0.470000          0.823236E-04
      0.475000          0.819833E-04
      0.480000          0.816734E-04
      0.485000          0.813801E-04
      0.490000          0.810918E-04
      0.495000          0.807985E-04
      0.500000          0.804917E-04
