 I_abs(s)[cm^-1]/c[mg/ml]
       0.00000          0.147146E-01
      0.500000E-02      0.146695E-01
      0.100000E-01      0.145351E-01
      0.150000E-01      0.143137E-01
      0.200000E-01      0.140092E-01
      0.250000E-01      0.136269E-01
      0.300000E-01      0.131734E-01
      0.350000E-01      0.126564E-01
      0.400000E-01      0.120845E-01
      0.450000E-01      0.114667E-01
      0.500000E-01      0.108129E-01
      0.550000E-01      0.101328E-01
      0.600000E-01      0.943629E-02
      0.650000E-01      0.873286E-02
      0.700000E-01      0.803160E-02
      0.750000E-01      0.734096E-02
      0.800000E-01      0.666858E-02
      0.850000E-01      0.602117E-02
      0.900000E-01      0.540443E-02
      0.950000E-01      0.482300E-02
      0.100000          0.428043E-02
      0.105000          0.377920E-02
      0.110000          0.332075E-02
      0.115000          0.290554E-02
      0.120000          0.253319E-02
      0.125000          0.220250E-02
      0.130000          0.191165E-02
      0.135000          0.165827E-02
      0.140000          0.143959E-02
      0.145000          0.125255E-02
      0.150000          0.109393E-02
      0.155000          0.960461E-03
      0.160000          0.848902E-03
      0.165000          0.756140E-03
      0.170000          0.679244E-03
      0.175000          0.615522E-03
      0.180000          0.562557E-03
      0.185000          0.518222E-03
      0.190000          0.480691E-03
      0.195000          0.448436E-03
      0.200000          0.420210E-03
      0.205000          0.395028E-03
      0.210000          0.372137E-03
      0.215000          0.350989E-03
      0.220000          0.331205E-03
      0.225000          0.312546E-03
      0.230000          0.294877E-03
      0.235000          0.278143E-03
      0.240000          0.262342E-03
      0.245000          0.247501E-03
      0.250000          0.233660E-03
      0.255000          0.220858E-03
      0.260000          0.209123E-03
      0.265000          0.198463E-03
      0.270000          0.188868E-03
      0.275000          0.180304E-03
      0.280000          0.172715E-03
      0.285000          0.166030E-03
      0.290000          0.160160E-03
      0.295000          0.155008E-03
      0.300000          0.150470E-03
      0.305000          0.146443E-03
      0.310000          0.142824E-03
      0.315000          0.139517E-03
      0.320000          0.136434E-03
      0.325000          0.133501E-03
      0.330000          0.130652E-03
      0.335000          0.127836E-03
      0.340000          0.125016E-03
      0.345000          0.122166E-03
      0.350000          0.119273E-03
      0.355000          0.116335E-03
      0.360000          0.113357E-03
      0.365000          0.110356E-03
      0.370000          0.107353E-03
      0.375000          0.104373E-03
      0.380000          0.101447E-03
      0.385000          0.986056E-04
      0.390000          0.958801E-04
      0.395000          0.933010E-04
      0.400000          0.908965E-04
      0.405000          0.886917E-04
      0.410000          0.867078E-04
      0.415000          0.849614E-04
      0.420000          0.834641E-04
      0.425000          0.822220E-04
      0.430000          0.812360E-04
      0.435000          0.805016E-04
      0.440000          0.800093E-04
      0.445000          0.797447E-04
      0.450000          0.796894E-04
      0.455000          0.798211E-04
      0.460000          0.801146E-04
      0.465000          0.805427E-04
      0.470000          0.810763E-04
      0.475000          0.816856E-04
      0.480000          0.823410E-04
      0.485000          0.830131E-04
      0.490000          0.836739E-04
      0.495000          0.842971E-04
      0.500000          0.848586E-04
