 I_abs(s)[cm^-1]/c[mg/ml]
       0.00000          0.148987E-01
      0.500000E-02      0.148560E-01
      0.100000E-01      0.147287E-01
      0.150000E-01      0.145189E-01
      0.200000E-01      0.142302E-01
      0.250000E-01      0.138672E-01
      0.300000E-01      0.134360E-01
      0.350000E-01      0.129434E-01
      0.400000E-01      0.123971E-01
      0.450000E-01      0.118055E-01
      0.500000E-01      0.111771E-01
      0.550000E-01      0.105210E-01
      0.600000E-01      0.984586E-02
      0.650000E-01      0.916048E-02
      0.700000E-01      0.847310E-02
      0.750000E-01      0.779144E-02
      0.800000E-01      0.712258E-02
      0.850000E-01      0.647280E-02
      0.900000E-01      0.584757E-02
      0.950000E-01      0.525144E-02
      0.100000          0.468808E-02
      0.105000          0.416027E-02
      0.110000          0.366991E-02
      0.115000          0.321811E-02
      0.120000          0.280525E-02
      0.125000          0.243104E-02
      0.130000          0.209464E-02
      0.135000          0.179472E-02
      0.140000          0.152957E-02
      0.145000          0.129718E-02
      0.150000          0.109535E-02
      0.155000          0.921729E-03
      0.160000          0.773890E-03
      0.165000          0.649405E-03
      0.170000          0.545880E-03
      0.175000          0.460990E-03
      0.180000          0.392513E-03
      0.185000          0.338347E-03
      0.190000          0.296525E-03
      0.195000          0.265222E-03
      0.200000          0.242760E-03
      0.205000          0.227603E-03
      0.210000          0.218362E-03
      0.215000          0.213784E-03
      0.220000          0.212753E-03
      0.225000          0.214279E-03
      0.230000          0.217497E-03
      0.235000          0.221662E-03
      0.240000          0.226139E-03
      0.245000          0.230403E-03
      0.250000          0.234031E-03
      0.255000          0.236695E-03
      0.260000          0.238159E-03
      0.265000          0.238268E-03
      0.270000          0.236943E-03
      0.275000          0.234173E-03
      0.280000          0.230003E-03
      0.285000          0.224529E-03
      0.290000          0.217886E-03
      0.295000          0.210237E-03
      0.300000          0.201768E-03
      0.305000          0.192675E-03
      0.310000          0.183159E-03
      0.315000          0.173416E-03
      0.320000          0.163634E-03
      0.325000          0.153984E-03
      0.330000          0.144618E-03
      0.335000          0.135669E-03
      0.340000          0.127244E-03
      0.345000          0.119428E-03
      0.350000          0.112281E-03
      0.355000          0.105842E-03
      0.360000          0.100128E-03
      0.365000          0.951391E-04
      0.370000          0.908572E-04
      0.375000          0.872520E-04
      0.380000          0.842819E-04
      0.385000          0.818967E-04
      0.390000          0.800403E-04
      0.395000          0.786530E-04
      0.400000          0.776729E-04
      0.405000          0.770383E-04
      0.410000          0.766888E-04
      0.415000          0.765667E-04
      0.420000          0.766179E-04
      0.425000          0.767930E-04
      0.430000          0.770476E-04
      0.435000          0.773430E-04
      0.440000          0.776464E-04
      0.445000          0.779310E-04
      0.450000          0.781764E-04
      0.455000          0.783678E-04
      0.460000          0.784964E-04
      0.465000          0.785586E-04
      0.470000          0.785558E-04
      0.475000          0.784936E-04
      0.480000          0.783814E-04
      0.485000          0.782312E-04
      0.490000          0.780572E-04
      0.495000          0.778750E-04
      0.500000          0.777004E-04
