 I_abs(s)[cm^-1]/c[mg/ml]
       0.00000          0.146429E-01
      0.500000E-02      0.145953E-01
      0.100000E-01      0.144535E-01
      0.150000E-01      0.142205E-01
      0.200000E-01      0.139013E-01
      0.250000E-01      0.135026E-01
      0.300000E-01      0.130324E-01
      0.350000E-01      0.125000E-01
      0.400000E-01      0.119157E-01
      0.450000E-01      0.112902E-01
      0.500000E-01      0.106342E-01
      0.550000E-01      0.995868E-02
      0.600000E-01      0.927379E-02
      0.650000E-01      0.858918E-02
      0.700000E-01      0.791355E-02
      0.750000E-01      0.725455E-02
      0.800000E-01      0.661864E-02
      0.850000E-01      0.601109E-02
      0.900000E-01      0.543596E-02
      0.950000E-01      0.489612E-02
      0.100000          0.439339E-02
      0.105000          0.392858E-02
      0.110000          0.350169E-02
      0.115000          0.311200E-02
      0.120000          0.275823E-02
      0.125000          0.243868E-02
      0.130000          0.215133E-02
      0.135000          0.189401E-02
      0.140000          0.166444E-02
      0.145000          0.146032E-02
      0.150000          0.127942E-02
      0.155000          0.111958E-02
      0.160000          0.978796E-03
      0.165000          0.855174E-03
      0.170000          0.746985E-03
      0.175000          0.652645E-03
      0.180000          0.570715E-03
      0.185000          0.499888E-03
      0.190000          0.438978E-03
      0.195000          0.386912E-03
      0.200000          0.342714E-03
      0.205000          0.305496E-03
      0.210000          0.274447E-03
      0.215000          0.248824E-03
      0.220000          0.227947E-03
      0.225000          0.211187E-03
      0.230000          0.197969E-03
      0.235000          0.187762E-03
      0.240000          0.180080E-03
      0.245000          0.174478E-03
      0.250000          0.170554E-03
      0.255000          0.167944E-03
      0.260000          0.166326E-03
      0.265000          0.165418E-03
      0.270000          0.164978E-03
      0.275000          0.164802E-03
      0.280000          0.164724E-03
      0.285000          0.164615E-03
      0.290000          0.164377E-03
      0.295000          0.163943E-03
      0.300000          0.163271E-03
      0.305000          0.162343E-03
      0.310000          0.161155E-03
      0.315000          0.159717E-03
      0.320000          0.158049E-03
      0.325000          0.156174E-03
      0.330000          0.154115E-03
      0.335000          0.151899E-03
      0.340000          0.149544E-03
      0.345000          0.147069E-03
      0.350000          0.144487E-03
      0.355000          0.141807E-03
      0.360000          0.139035E-03
      0.365000          0.136177E-03
      0.370000          0.133236E-03
      0.375000          0.130216E-03
      0.380000          0.127121E-03
      0.385000          0.123959E-03
      0.390000          0.120738E-03
      0.395000          0.117471E-03
      0.400000          0.114174E-03
      0.405000          0.110862E-03
      0.410000          0.107555E-03
      0.415000          0.104275E-03
      0.420000          0.101043E-03
      0.425000          0.978825E-04
      0.430000          0.948147E-04
      0.435000          0.918620E-04
      0.440000          0.890450E-04
      0.445000          0.863832E-04
      0.450000          0.838938E-04
      0.455000          0.815919E-04
      0.460000          0.794901E-04
      0.465000          0.775977E-04
      0.470000          0.759210E-04
      0.475000          0.744624E-04
      0.480000          0.732206E-04
      0.485000          0.721905E-04
      0.490000          0.713629E-04
      0.495000          0.707247E-04
      0.500000          0.702594E-04
