 I_abs(s)[cm^-1]/c[mg/ml]
       0.00000          0.145793E-01
      0.500000E-02      0.145342E-01
      0.100000E-01      0.143997E-01
      0.150000E-01      0.141783E-01
      0.200000E-01      0.138742E-01
      0.250000E-01      0.134931E-01
      0.300000E-01      0.130420E-01
      0.350000E-01      0.125288E-01
      0.400000E-01      0.119626E-01
      0.450000E-01      0.113530E-01
      0.500000E-01      0.107100E-01
      0.550000E-01      0.100435E-01
      0.600000E-01      0.936366E-02
      0.650000E-01      0.867987E-02
      0.700000E-01      0.800111E-02
      0.750000E-01      0.733552E-02
      0.800000E-01      0.669032E-02
      0.850000E-01      0.607170E-02
      0.900000E-01      0.548471E-02
      0.950000E-01      0.493328E-02
      0.100000          0.442020E-02
      0.105000          0.394718E-02
      0.110000          0.351490E-02
      0.115000          0.312316E-02
      0.120000          0.277092E-02
      0.125000          0.245651E-02
      0.130000          0.217770E-02
      0.135000          0.193189E-02
      0.140000          0.171622E-02
      0.145000          0.152769E-02
      0.150000          0.136328E-02
      0.155000          0.122005E-02
      0.160000          0.109520E-02
      0.165000          0.986136E-03
      0.170000          0.890536E-03
      0.175000          0.806335E-03
      0.180000          0.731756E-03
      0.185000          0.665302E-03
      0.190000          0.605735E-03
      0.195000          0.552056E-03
      0.200000          0.503476E-03
      0.205000          0.459377E-03
      0.210000          0.419287E-03
      0.215000          0.382840E-03
      0.220000          0.349749E-03
      0.225000          0.319782E-03
      0.230000          0.292739E-03
      0.235000          0.268436E-03
      0.240000          0.246692E-03
      0.245000          0.227325E-03
      0.250000          0.210147E-03
      0.255000          0.194964E-03
      0.260000          0.181578E-03
      0.265000          0.169792E-03
      0.270000          0.159413E-03
      0.275000          0.150260E-03
      0.280000          0.142165E-03
      0.285000          0.134975E-03
      0.290000          0.128560E-03
      0.295000          0.122809E-03
      0.300000          0.117631E-03
      0.305000          0.112957E-03
      0.310000          0.108732E-03
      0.315000          0.104918E-03
      0.320000          0.101487E-03
      0.325000          0.984187E-04
      0.330000          0.957002E-04
      0.335000          0.933199E-04
      0.340000          0.912665E-04
      0.345000          0.895279E-04
      0.350000          0.880896E-04
      0.355000          0.869343E-04
      0.360000          0.860418E-04
      0.365000          0.853898E-04
      0.370000          0.849540E-04
      0.375000          0.847093E-04
      0.380000          0.846302E-04
      0.385000          0.846922E-04
      0.390000          0.848719E-04
      0.395000          0.851474E-04
      0.400000          0.854989E-04
      0.405000          0.859085E-04
      0.410000          0.863600E-04
      0.415000          0.868387E-04
      0.420000          0.873306E-04
      0.425000          0.878226E-04
      0.430000          0.883015E-04
      0.435000          0.887542E-04
      0.440000          0.891671E-04
      0.445000          0.895262E-04
      0.450000          0.898172E-04
      0.455000          0.900259E-04
      0.460000          0.901386E-04
      0.465000          0.901423E-04
      0.470000          0.900256E-04
      0.475000          0.897792E-04
      0.480000          0.893965E-04
      0.485000          0.888739E-04
      0.490000          0.882114E-04
      0.495000          0.874126E-04
      0.500000          0.864848E-04
