 I_abs(s)[cm^-1]/c[mg/ml]
       0.00000          0.145873E-01
      0.500000E-02      0.145417E-01
      0.100000E-01      0.144060E-01
      0.150000E-01      0.141827E-01
      0.200000E-01      0.138762E-01
      0.250000E-01      0.134924E-01
      0.300000E-01      0.130385E-01
      0.350000E-01      0.125228E-01
      0.400000E-01      0.119546E-01
      0.450000E-01      0.113436E-01
      0.500000E-01      0.106999E-01
      0.550000E-01      0.100335E-01
      0.600000E-01      0.935436E-02
      0.650000E-01      0.867176E-02
      0.700000E-01      0.799438E-02
      0.750000E-01      0.733006E-02
      0.800000E-01      0.668562E-02
      0.850000E-01      0.606684E-02
      0.900000E-01      0.547843E-02
      0.950000E-01      0.492398E-02
      0.100000          0.440603E-02
      0.105000          0.392614E-02
      0.110000          0.348496E-02
      0.115000          0.308237E-02
      0.120000          0.271756E-02
      0.125000          0.238919E-02
      0.130000          0.209547E-02
      0.135000          0.183432E-02
      0.140000          0.160345E-02
      0.145000          0.140044E-02
      0.150000          0.122286E-02
      0.155000          0.106828E-02
      0.160000          0.934357E-03
      0.165000          0.818871E-03
      0.170000          0.719731E-03
      0.175000          0.634998E-03
      0.180000          0.562892E-03
      0.185000          0.501792E-03
      0.190000          0.450230E-03
      0.195000          0.406885E-03
      0.200000          0.370572E-03
      0.205000          0.340236E-03
      0.210000          0.314937E-03
      0.215000          0.293848E-03
      0.220000          0.276241E-03
      0.225000          0.261479E-03
      0.230000          0.249015E-03
      0.235000          0.238378E-03
      0.240000          0.229169E-03
      0.245000          0.221056E-03
      0.250000          0.213768E-03
      0.255000          0.207086E-03
      0.260000          0.200838E-03
      0.265000          0.194894E-03
      0.270000          0.189157E-03
      0.275000          0.183561E-03
      0.280000          0.178062E-03
      0.285000          0.172636E-03
      0.290000          0.167272E-03
      0.295000          0.161971E-03
      0.300000          0.156740E-03
      0.305000          0.151592E-03
      0.310000          0.146543E-03
      0.315000          0.141611E-03
      0.320000          0.136813E-03
      0.325000          0.132167E-03
      0.330000          0.127692E-03
      0.335000          0.123405E-03
      0.340000          0.119321E-03
      0.345000          0.115457E-03
      0.350000          0.111826E-03
      0.355000          0.108441E-03
      0.360000          0.105313E-03
      0.365000          0.102450E-03
      0.370000          0.998585E-04
      0.375000          0.975415E-04
      0.380000          0.954984E-04
      0.385000          0.937249E-04
      0.390000          0.922125E-04
      0.395000          0.909486E-04
      0.400000          0.899166E-04
      0.405000          0.890955E-04
      0.410000          0.884611E-04
      0.415000          0.879861E-04
      0.420000          0.876406E-04
      0.425000          0.873936E-04
      0.430000          0.872134E-04
      0.435000          0.870688E-04
      0.440000          0.869301E-04
      0.445000          0.867702E-04
      0.450000          0.865652E-04
      0.455000          0.862954E-04
      0.460000          0.859457E-04
      0.465000          0.855059E-04
      0.470000          0.849711E-04
      0.475000          0.843410E-04
      0.480000          0.836202E-04
      0.485000          0.828173E-04
      0.490000          0.819441E-04
      0.495000          0.810150E-04
      0.500000          0.800461E-04
