 I_abs(s)[cm^-1]/c[mg/ml]
       0.00000          0.146190E-01
      0.500000E-02      0.145760E-01
      0.100000E-01      0.144478E-01
      0.150000E-01      0.142366E-01
      0.200000E-01      0.139461E-01
      0.250000E-01      0.135814E-01
      0.300000E-01      0.131487E-01
      0.350000E-01      0.126554E-01
      0.400000E-01      0.121096E-01
      0.450000E-01      0.115199E-01
      0.500000E-01      0.108954E-01
      0.550000E-01      0.102455E-01
      0.600000E-01      0.957926E-02
      0.650000E-01      0.890565E-02
      0.700000E-01      0.823313E-02
      0.750000E-01      0.756950E-02
      0.800000E-01      0.692182E-02
      0.850000E-01      0.629627E-02
      0.900000E-01      0.569804E-02
      0.950000E-01      0.513138E-02
      0.100000          0.459952E-02
      0.105000          0.410468E-02
      0.110000          0.364820E-02
      0.115000          0.323054E-02
      0.120000          0.285136E-02
      0.125000          0.250971E-02
      0.130000          0.220403E-02
      0.135000          0.193235E-02
      0.140000          0.169235E-02
      0.145000          0.148151E-02
      0.150000          0.129718E-02
      0.155000          0.113667E-02
      0.160000          0.997350E-03
      0.165000          0.876699E-03
      0.170000          0.772346E-03
      0.175000          0.682115E-03
      0.180000          0.604047E-03
      0.185000          0.536404E-03
      0.190000          0.477674E-03
      0.195000          0.426557E-03
      0.200000          0.381957E-03
      0.205000          0.342955E-03
      0.210000          0.308792E-03
      0.215000          0.278843E-03
      0.220000          0.252594E-03
      0.225000          0.229620E-03
      0.230000          0.209569E-03
      0.235000          0.192137E-03
      0.240000          0.177064E-03
      0.245000          0.164113E-03
      0.250000          0.153071E-03
      0.255000          0.143736E-03
      0.260000          0.135918E-03
      0.265000          0.129434E-03
      0.270000          0.124112E-03
      0.275000          0.119788E-03
      0.280000          0.116306E-03
      0.285000          0.113522E-03
      0.290000          0.111306E-03
      0.295000          0.109537E-03
      0.300000          0.108110E-03
      0.305000          0.106932E-03
      0.310000          0.105925E-03
      0.315000          0.105021E-03
      0.320000          0.104166E-03
      0.325000          0.103316E-03
      0.330000          0.102436E-03
      0.335000          0.101503E-03
      0.340000          0.100499E-03
      0.345000          0.994137E-04
      0.350000          0.982429E-04
      0.355000          0.969879E-04
      0.360000          0.956546E-04
      0.365000          0.942529E-04
      0.370000          0.927959E-04
      0.375000          0.912994E-04
      0.380000          0.897813E-04
      0.385000          0.882611E-04
      0.390000          0.867586E-04
      0.395000          0.852939E-04
      0.400000          0.838862E-04
      0.405000          0.825535E-04
      0.410000          0.813115E-04
      0.415000          0.801735E-04
      0.420000          0.791499E-04
      0.425000          0.782477E-04
      0.430000          0.774705E-04
      0.435000          0.768183E-04
      0.440000          0.762879E-04
      0.445000          0.758733E-04
      0.450000          0.755656E-04
      0.455000          0.753538E-04
      0.460000          0.752256E-04
      0.465000          0.751676E-04
      0.470000          0.751658E-04
      0.475000          0.752067E-04
      0.480000          0.752772E-04
      0.485000          0.753652E-04
      0.490000          0.754601E-04
      0.495000          0.755528E-04
      0.500000          0.756356E-04
