 I_abs(s)[cm^-1]/c[mg/ml]
       0.00000          0.144921E-01
      0.500000E-02      0.144490E-01
      0.100000E-01      0.143205E-01
      0.150000E-01      0.141090E-01
      0.200000E-01      0.138185E-01
      0.250000E-01      0.134542E-01
      0.300000E-01      0.130227E-01
      0.350000E-01      0.125315E-01
      0.400000E-01      0.119891E-01
      0.450000E-01      0.114044E-01
      0.500000E-01      0.107868E-01
      0.550000E-01      0.101457E-01
      0.600000E-01      0.949023E-02
      0.650000E-01      0.882933E-02
      0.700000E-01      0.817128E-02
      0.750000E-01      0.752365E-02
      0.800000E-01      0.689316E-02
      0.850000E-01      0.628557E-02
      0.900000E-01      0.570562E-02
      0.950000E-01      0.515706E-02
      0.100000          0.464261E-02
      0.105000          0.416405E-02
      0.110000          0.372225E-02
      0.115000          0.331730E-02
      0.120000          0.294862E-02
      0.125000          0.261503E-02
      0.130000          0.231491E-02
      0.135000          0.204629E-02
      0.140000          0.180700E-02
      0.145000          0.159470E-02
      0.150000          0.140705E-02
      0.155000          0.124170E-02
      0.160000          0.109641E-02
      0.165000          0.969072E-03
      0.170000          0.857709E-03
      0.175000          0.760533E-03
      0.180000          0.675926E-03
      0.185000          0.602440E-03
      0.190000          0.538784E-03
      0.195000          0.483814E-03
      0.200000          0.436507E-03
      0.205000          0.395953E-03
      0.210000          0.361329E-03
      0.215000          0.331891E-03
      0.220000          0.306956E-03
      0.225000          0.285897E-03
      0.230000          0.268136E-03
      0.235000          0.253139E-03
      0.240000          0.240419E-03
      0.245000          0.229530E-03
      0.250000          0.220075E-03
      0.255000          0.211707E-03
      0.260000          0.204128E-03
      0.265000          0.197093E-03
      0.270000          0.190409E-03
      0.275000          0.183932E-03
      0.280000          0.177568E-03
      0.285000          0.171265E-03
      0.290000          0.165010E-03
      0.295000          0.158820E-03
      0.300000          0.152737E-03
      0.305000          0.146818E-03
      0.310000          0.141130E-03
      0.315000          0.135742E-03
      0.320000          0.130717E-03
      0.325000          0.126111E-03
      0.330000          0.121963E-03
      0.335000          0.118297E-03
      0.340000          0.115120E-03
      0.345000          0.112417E-03
      0.350000          0.110161E-03
      0.355000          0.108305E-03
      0.360000          0.106792E-03
      0.365000          0.105557E-03
      0.370000          0.104527E-03
      0.375000          0.103627E-03
      0.380000          0.102788E-03
      0.385000          0.101941E-03
      0.390000          0.101029E-03
      0.395000          0.100002E-03
      0.400000          0.988233E-04
      0.405000          0.974689E-04
      0.410000          0.959266E-04
      0.415000          0.941966E-04
      0.420000          0.922902E-04
      0.425000          0.902288E-04
      0.430000          0.880413E-04
      0.435000          0.857630E-04
      0.440000          0.834330E-04
      0.445000          0.810922E-04
      0.450000          0.787817E-04
      0.455000          0.765408E-04
      0.460000          0.744058E-04
      0.465000          0.724086E-04
      0.470000          0.705761E-04
      0.475000          0.689297E-04
      0.480000          0.674849E-04
      0.485000          0.662516E-04
      0.490000          0.652345E-04
      0.495000          0.644329E-04
      0.500000          0.638423E-04
