 I_abs(s)[cm^-1]/c[mg/ml]
       0.00000          0.146190E-01
      0.500000E-02      0.145706E-01
      0.100000E-01      0.144262E-01
      0.150000E-01      0.141885E-01
      0.200000E-01      0.138618E-01
      0.250000E-01      0.134523E-01
      0.300000E-01      0.129672E-01
      0.350000E-01      0.124152E-01
      0.400000E-01      0.118059E-01
      0.450000E-01      0.111495E-01
      0.500000E-01      0.104569E-01
      0.550000E-01      0.973902E-02
      0.600000E-01      0.900665E-02
      0.650000E-01      0.827036E-02
      0.700000E-01      0.754008E-02
      0.750000E-01      0.682498E-02
      0.800000E-01      0.613328E-02
      0.850000E-01      0.547211E-02
      0.900000E-01      0.484741E-02
      0.950000E-01      0.426389E-02
      0.100000          0.372500E-02
      0.105000          0.323298E-02
      0.110000          0.278888E-02
      0.115000          0.239267E-02
      0.120000          0.204334E-02
      0.125000          0.173904E-02
      0.130000          0.147722E-02
      0.135000          0.125479E-02
      0.140000          0.106825E-02
      0.145000          0.913846E-03
      0.150000          0.787731E-03
      0.155000          0.686052E-03
      0.160000          0.605082E-03
      0.165000          0.541305E-03
      0.170000          0.491487E-03
      0.175000          0.452724E-03
      0.180000          0.422479E-03
      0.185000          0.398592E-03
      0.190000          0.379278E-03
      0.195000          0.363112E-03
      0.200000          0.349001E-03
      0.205000          0.336149E-03
      0.210000          0.324013E-03
      0.215000          0.312266E-03
      0.220000          0.300743E-03
      0.225000          0.289407E-03
      0.230000          0.278302E-03
      0.235000          0.267524E-03
      0.240000          0.257189E-03
      0.245000          0.247411E-03
      0.250000          0.238283E-03
      0.255000          0.229868E-03
      0.260000          0.222193E-03
      0.265000          0.215249E-03
      0.270000          0.208990E-03
      0.275000          0.203346E-03
      0.280000          0.198222E-03
      0.285000          0.193512E-03
      0.290000          0.189107E-03
      0.295000          0.184903E-03
      0.300000          0.180806E-03
      0.305000          0.176740E-03
      0.310000          0.172650E-03
      0.315000          0.168504E-03
      0.320000          0.164291E-03
      0.325000          0.160023E-03
      0.330000          0.155728E-03
      0.335000          0.151451E-03
      0.340000          0.147245E-03
      0.345000          0.143168E-03
      0.350000          0.139278E-03
      0.355000          0.135628E-03
      0.360000          0.132263E-03
      0.365000          0.129216E-03
      0.370000          0.126507E-03
      0.375000          0.124140E-03
      0.380000          0.122105E-03
      0.385000          0.120379E-03
      0.390000          0.118925E-03
      0.395000          0.117697E-03
      0.400000          0.116642E-03
      0.405000          0.115701E-03
      0.410000          0.114818E-03
      0.415000          0.113936E-03
      0.420000          0.113005E-03
      0.425000          0.111981E-03
      0.430000          0.110832E-03
      0.435000          0.109533E-03
      0.440000          0.108074E-03
      0.445000          0.106455E-03
      0.450000          0.104687E-03
      0.455000          0.102791E-03
      0.460000          0.100795E-03
      0.465000          0.987351E-04
      0.470000          0.966516E-04
      0.475000          0.945863E-04
      0.480000          0.925809E-04
      0.485000          0.906752E-04
      0.490000          0.889047E-04
      0.495000          0.872993E-04
      0.500000          0.858819E-04
