 I_abs(s)[cm^-1]/c[mg/ml]
       0.00000          0.146588E-01
      0.500000E-02      0.146108E-01
      0.100000E-01      0.144677E-01
      0.150000E-01      0.142324E-01
      0.200000E-01      0.139093E-01
      0.250000E-01      0.135046E-01
      0.300000E-01      0.130259E-01
      0.350000E-01      0.124822E-01
      0.400000E-01      0.118831E-01
      0.450000E-01      0.112391E-01
      0.500000E-01      0.105610E-01
      0.550000E-01      0.985988E-02
      0.600000E-01      0.914640E-02
      0.650000E-01      0.843087E-02
      0.700000E-01      0.772294E-02
      0.750000E-01      0.703132E-02
      0.800000E-01      0.636371E-02
      0.850000E-01      0.572665E-02
      0.900000E-01      0.512543E-02
      0.950000E-01      0.456407E-02
      0.100000          0.404536E-02
      0.105000          0.357088E-02
      0.110000          0.314109E-02
      0.115000          0.275548E-02
      0.120000          0.241265E-02
      0.125000          0.211050E-02
      0.130000          0.184636E-02
      0.135000          0.161718E-02
      0.140000          0.141961E-02
      0.145000          0.125024E-02
      0.150000          0.110563E-02
      0.155000          0.982454E-03
      0.160000          0.877602E-03
      0.165000          0.788213E-03
      0.170000          0.711730E-03
      0.175000          0.645925E-03
      0.180000          0.588902E-03
      0.185000          0.539086E-03
      0.190000          0.495206E-03
      0.195000          0.456256E-03
      0.200000          0.421466E-03
      0.205000          0.390256E-03
      0.210000          0.362199E-03
      0.215000          0.336980E-03
      0.220000          0.314362E-03
      0.225000          0.294158E-03
      0.230000          0.276203E-03
      0.235000          0.260340E-03
      0.240000          0.246408E-03
      0.245000          0.234229E-03
      0.250000          0.223618E-03
      0.255000          0.214373E-03
      0.260000          0.206289E-03
      0.265000          0.199160E-03
      0.270000          0.192788E-03
      0.275000          0.186988E-03
      0.280000          0.181599E-03
      0.285000          0.176484E-03
      0.290000          0.171535E-03
      0.295000          0.166673E-03
      0.300000          0.161851E-03
      0.305000          0.157047E-03
      0.310000          0.152263E-03
      0.315000          0.147519E-03
      0.320000          0.142848E-03
      0.325000          0.138292E-03
      0.330000          0.133894E-03
      0.335000          0.129694E-03
      0.340000          0.125728E-03
      0.345000          0.122022E-03
      0.350000          0.118591E-03
      0.355000          0.115438E-03
      0.360000          0.112555E-03
      0.365000          0.109926E-03
      0.370000          0.107525E-03
      0.375000          0.105321E-03
      0.380000          0.103281E-03
      0.385000          0.101369E-03
      0.390000          0.995552E-04
      0.395000          0.978115E-04
      0.400000          0.961168E-04
      0.405000          0.944568E-04
      0.410000          0.928251E-04
      0.415000          0.912228E-04
      0.420000          0.896581E-04
      0.425000          0.881450E-04
      0.430000          0.867018E-04
      0.435000          0.853501E-04
      0.440000          0.841123E-04
      0.445000          0.830103E-04
      0.450000          0.820635E-04
      0.455000          0.812882E-04
      0.460000          0.806957E-04
      0.465000          0.802917E-04
      0.470000          0.800764E-04
      0.475000          0.800438E-04
      0.480000          0.801826E-04
      0.485000          0.804760E-04
      0.490000          0.809033E-04
      0.495000          0.814404E-04
      0.500000          0.820609E-04
