 I_abs(s)[cm^-1]/c[mg/ml]
       0.00000          0.144684E-01
      0.500000E-02      0.144224E-01
      0.100000E-01      0.142855E-01
      0.150000E-01      0.140605E-01
      0.200000E-01      0.137519E-01
      0.250000E-01      0.133658E-01
      0.300000E-01      0.129099E-01
      0.350000E-01      0.123929E-01
      0.400000E-01      0.118243E-01
      0.450000E-01      0.112144E-01
      0.500000E-01      0.105737E-01
      0.550000E-01      0.991246E-02
      0.600000E-01      0.924092E-02
      0.650000E-01      0.856860E-02
      0.700000E-01      0.790425E-02
      0.750000E-01      0.725567E-02
      0.800000E-01      0.662953E-02
      0.850000E-01      0.603135E-02
      0.900000E-01      0.546539E-02
      0.950000E-01      0.493475E-02
      0.100000          0.444135E-02
      0.105000          0.398607E-02
      0.110000          0.356884E-02
      0.115000          0.318880E-02
      0.120000          0.284446E-02
      0.125000          0.253382E-02
      0.130000          0.225455E-02
      0.135000          0.200415E-02
      0.140000          0.178001E-02
      0.145000          0.157961E-02
      0.150000          0.140053E-02
      0.155000          0.124053E-02
      0.160000          0.109762E-02
      0.165000          0.970042E-03
      0.170000          0.856280E-03
      0.175000          0.755050E-03
      0.180000          0.665269E-03
      0.185000          0.586017E-03
      0.190000          0.516503E-03
      0.195000          0.456025E-03
      0.200000          0.403932E-03
      0.205000          0.359597E-03
      0.210000          0.322393E-03
      0.215000          0.291677E-03
      0.220000          0.266782E-03
      0.225000          0.247019E-03
      0.230000          0.231682E-03
      0.235000          0.220059E-03
      0.240000          0.211450E-03
      0.245000          0.205182E-03
      0.250000          0.200627E-03
      0.255000          0.197216E-03
      0.260000          0.194456E-03
      0.265000          0.191934E-03
      0.270000          0.189326E-03
      0.275000          0.186397E-03
      0.280000          0.182995E-03
      0.285000          0.179049E-03
      0.290000          0.174554E-03
      0.295000          0.169560E-03
      0.300000          0.164160E-03
      0.305000          0.158473E-03
      0.310000          0.152631E-03
      0.315000          0.146768E-03
      0.320000          0.141010E-03
      0.325000          0.135464E-03
      0.330000          0.130216E-03
      0.335000          0.125323E-03
      0.340000          0.120820E-03
      0.345000          0.116714E-03
      0.350000          0.112990E-03
      0.355000          0.109619E-03
      0.360000          0.106555E-03
      0.365000          0.103749E-03
      0.370000          0.101148E-03
      0.375000          0.987003E-04
      0.380000          0.963635E-04
      0.385000          0.941019E-04
      0.390000          0.918907E-04
      0.395000          0.897159E-04
      0.400000          0.875735E-04
      0.405000          0.854686E-04
      0.410000          0.834129E-04
      0.415000          0.814229E-04
      0.420000          0.795171E-04
      0.425000          0.777137E-04
      0.430000          0.760285E-04
      0.435000          0.744733E-04
      0.440000          0.730546E-04
      0.445000          0.717731E-04
      0.450000          0.706236E-04
      0.455000          0.695958E-04
      0.460000          0.686747E-04
      0.465000          0.678424E-04
      0.470000          0.670791E-04
      0.475000          0.663653E-04
      0.480000          0.656828E-04
      0.485000          0.650160E-04
      0.490000          0.643535E-04
      0.495000          0.636886E-04
      0.500000          0.630196E-04
