 I_abs(s)[cm^-1]/c[mg/ml]
       0.00000          0.144684E-01
      0.500000E-02      0.144172E-01
      0.100000E-01      0.142649E-01
      0.150000E-01      0.140146E-01
      0.200000E-01      0.136714E-01
      0.250000E-01      0.132423E-01
      0.300000E-01      0.127359E-01
      0.350000E-01      0.121621E-01
      0.400000E-01      0.115319E-01
      0.450000E-01      0.108570E-01
      0.500000E-01      0.101494E-01
      0.550000E-01      0.942115E-02
      0.600000E-01      0.868416E-02
      0.650000E-01      0.794961E-02
      0.700000E-01      0.722784E-02
      0.750000E-01      0.652813E-02
      0.800000E-01      0.585852E-02
      0.850000E-01      0.522565E-02
      0.900000E-01      0.463473E-02
      0.950000E-01      0.408950E-02
      0.100000          0.359229E-02
      0.105000          0.314407E-02
      0.110000          0.274458E-02
      0.115000          0.239249E-02
      0.120000          0.208555E-02
      0.125000          0.182077E-02
      0.130000          0.159464E-02
      0.135000          0.140326E-02
      0.140000          0.124258E-02
      0.145000          0.110851E-02
      0.150000          0.997056E-03
      0.155000          0.904478E-03
      0.160000          0.827333E-03
      0.165000          0.762556E-03
      0.170000          0.707491E-03
      0.175000          0.659909E-03
      0.180000          0.617992E-03
      0.185000          0.580318E-03
      0.190000          0.545815E-03
      0.195000          0.513719E-03
      0.200000          0.483522E-03
      0.205000          0.454918E-03
      0.210000          0.427748E-03
      0.215000          0.401960E-03
      0.220000          0.377558E-03
      0.225000          0.354577E-03
      0.230000          0.333049E-03
      0.235000          0.312991E-03
      0.240000          0.294390E-03
      0.245000          0.277200E-03
      0.250000          0.261344E-03
      0.255000          0.246719E-03
      0.260000          0.233204E-03
      0.265000          0.220667E-03
      0.270000          0.208981E-03
      0.275000          0.198023E-03
      0.280000          0.187691E-03
      0.285000          0.177900E-03
      0.290000          0.168593E-03
      0.295000          0.159734E-03
      0.300000          0.151312E-03
      0.305000          0.143333E-03
      0.310000          0.135819E-03
      0.315000          0.128800E-03
      0.320000          0.122310E-03
      0.325000          0.116380E-03
      0.330000          0.111035E-03
      0.335000          0.106291E-03
      0.340000          0.102149E-03
      0.345000          0.985981E-04
      0.350000          0.956137E-04
      0.355000          0.931587E-04
      0.360000          0.911863E-04
      0.365000          0.896425E-04
      0.370000          0.884693E-04
      0.375000          0.876084E-04
      0.380000          0.870036E-04
      0.385000          0.866039E-04
      0.390000          0.863650E-04
      0.395000          0.862512E-04
      0.400000          0.862353E-04
      0.405000          0.862989E-04
      0.410000          0.864311E-04
      0.415000          0.866274E-04
      0.420000          0.868879E-04
      0.425000          0.872152E-04
      0.430000          0.876126E-04
      0.435000          0.880822E-04
      0.440000          0.886235E-04
      0.445000          0.892321E-04
      0.450000          0.898991E-04
      0.455000          0.906110E-04
      0.460000          0.913498E-04
      0.465000          0.920940E-04
      0.470000          0.928196E-04
      0.475000          0.935013E-04
      0.480000          0.941141E-04
      0.485000          0.946348E-04
      0.490000          0.950436E-04
      0.495000          0.953248E-04
      0.500000          0.954683E-04
