 I_abs(s)[cm^-1]/c[mg/ml]
       0.00000          0.145873E-01
      0.500000E-02      0.145427E-01
      0.100000E-01      0.144099E-01
      0.150000E-01      0.141912E-01
      0.200000E-01      0.138904E-01
      0.250000E-01      0.135128E-01
      0.300000E-01      0.130648E-01
      0.350000E-01      0.125539E-01
      0.400000E-01      0.119887E-01
      0.450000E-01      0.113781E-01
      0.500000E-01      0.107318E-01
      0.550000E-01      0.100594E-01
      0.600000E-01      0.937063E-02
      0.650000E-01      0.867494E-02
      0.700000E-01      0.798131E-02
      0.750000E-01      0.729811E-02
      0.800000E-01      0.663290E-02
      0.850000E-01      0.599234E-02
      0.900000E-01      0.538208E-02
      0.950000E-01      0.480672E-02
      0.100000          0.426979E-02
      0.105000          0.377372E-02
      0.110000          0.331993E-02
      0.115000          0.290885E-02
      0.120000          0.254007E-02
      0.125000          0.221236E-02
      0.130000          0.192387E-02
      0.135000          0.167219E-02
      0.140000          0.145454E-02
      0.145000          0.126782E-02
      0.150000          0.110882E-02
      0.155000          0.974260E-03
      0.160000          0.860914E-03
      0.165000          0.765697E-03
      0.170000          0.685728E-03
      0.175000          0.618380E-03
      0.180000          0.561318E-03
      0.185000          0.512516E-03
      0.190000          0.470261E-03
      0.195000          0.433150E-03
      0.200000          0.400068E-03
      0.205000          0.370161E-03
      0.210000          0.342809E-03
      0.215000          0.317584E-03
      0.220000          0.294220E-03
      0.225000          0.272568E-03
      0.230000          0.252567E-03
      0.235000          0.234211E-03
      0.240000          0.217522E-03
      0.245000          0.202524E-03
      0.250000          0.189234E-03
      0.255000          0.177642E-03
      0.260000          0.167706E-03
      0.265000          0.159354E-03
      0.270000          0.152478E-03
      0.275000          0.146941E-03
      0.280000          0.142584E-03
      0.285000          0.139234E-03
      0.290000          0.136708E-03
      0.295000          0.134826E-03
      0.300000          0.133414E-03
      0.305000          0.132314E-03
      0.310000          0.131388E-03
      0.315000          0.130520E-03
      0.320000          0.129619E-03
      0.325000          0.128621E-03
      0.330000          0.127484E-03
      0.335000          0.126192E-03
      0.340000          0.124746E-03
      0.345000          0.123160E-03
      0.350000          0.121465E-03
      0.355000          0.119694E-03
      0.360000          0.117886E-03
      0.365000          0.116079E-03
      0.370000          0.114307E-03
      0.375000          0.112600E-03
      0.380000          0.110977E-03
      0.385000          0.109452E-03
      0.390000          0.108029E-03
      0.395000          0.106704E-03
      0.400000          0.105465E-03
      0.405000          0.104296E-03
      0.410000          0.103173E-03
      0.415000          0.102074E-03
      0.420000          0.100973E-03
      0.425000          0.998470E-04
      0.430000          0.986745E-04
      0.435000          0.974386E-04
      0.440000          0.961270E-04
      0.445000          0.947334E-04
      0.450000          0.932571E-04
      0.455000          0.917033E-04
      0.460000          0.900826E-04
      0.465000          0.884107E-04
      0.470000          0.867069E-04
      0.475000          0.849938E-04
      0.480000          0.832954E-04
      0.485000          0.816366E-04
      0.490000          0.800417E-04
      0.495000          0.785336E-04
      0.500000          0.771326E-04
