 I_abs(s)[cm^-1]/c[mg/ml]
       0.00000          0.147625E-01
      0.500000E-02      0.147167E-01
      0.100000E-01      0.145802E-01
      0.150000E-01      0.143553E-01
      0.200000E-01      0.140462E-01
      0.250000E-01      0.136582E-01
      0.300000E-01      0.131982E-01
      0.350000E-01      0.126739E-01
      0.400000E-01      0.120943E-01
      0.450000E-01      0.114687E-01
      0.500000E-01      0.108070E-01
      0.550000E-01      0.101193E-01
      0.600000E-01      0.941565E-02
      0.650000E-01      0.870573E-02
      0.700000E-01      0.799880E-02
      0.750000E-01      0.730340E-02
      0.800000E-01      0.662726E-02
      0.850000E-01      0.597713E-02
      0.900000E-01      0.535869E-02
      0.950000E-01      0.477655E-02
      0.100000          0.423417E-02
      0.105000          0.373392E-02
      0.110000          0.327709E-02
      0.115000          0.286402E-02
      0.120000          0.249412E-02
      0.125000          0.216605E-02
      0.130000          0.187781E-02
      0.135000          0.162689E-02
      0.140000          0.141037E-02
      0.145000          0.122510E-02
      0.150000          0.106777E-02
      0.155000          0.935060E-03
      0.160000          0.823720E-03
      0.165000          0.730648E-03
      0.170000          0.652964E-03
      0.175000          0.588050E-03
      0.180000          0.533588E-03
      0.185000          0.487566E-03
      0.190000          0.448290E-03
      0.195000          0.414365E-03
      0.200000          0.384679E-03
      0.205000          0.358370E-03
      0.210000          0.334801E-03
      0.215000          0.313514E-03
      0.220000          0.294203E-03
      0.225000          0.276671E-03
      0.230000          0.260799E-03
      0.235000          0.246521E-03
      0.240000          0.233791E-03
      0.245000          0.222571E-03
      0.250000          0.212810E-03
      0.255000          0.204438E-03
      0.260000          0.197362E-03
      0.265000          0.191459E-03
      0.270000          0.186584E-03
      0.275000          0.182572E-03
      0.280000          0.179247E-03
      0.285000          0.176424E-03
      0.290000          0.173925E-03
      0.295000          0.171580E-03
      0.300000          0.169234E-03
      0.305000          0.166759E-03
      0.310000          0.164050E-03
      0.315000          0.161032E-03
      0.320000          0.157661E-03
      0.325000          0.153921E-03
      0.330000          0.149825E-03
      0.335000          0.145410E-03
      0.340000          0.140730E-03
      0.345000          0.135860E-03
      0.350000          0.130883E-03
      0.355000          0.125886E-03
      0.360000          0.120960E-03
      0.365000          0.116192E-03
      0.370000          0.111660E-03
      0.375000          0.107433E-03
      0.380000          0.103567E-03
      0.385000          0.100105E-03
      0.390000          0.970729E-04
      0.395000          0.944828E-04
      0.400000          0.923323E-04
      0.405000          0.906056E-04
      0.410000          0.892754E-04
      0.415000          0.883048E-04
      0.420000          0.876496E-04
      0.425000          0.872602E-04
      0.430000          0.870842E-04
      0.435000          0.870684E-04
      0.440000          0.871607E-04
      0.445000          0.873119E-04
      0.450000          0.874773E-04
      0.455000          0.876173E-04
      0.460000          0.876988E-04
      0.465000          0.876950E-04
      0.470000          0.875865E-04
      0.475000          0.873602E-04
      0.480000          0.870097E-04
      0.485000          0.865346E-04
      0.490000          0.859396E-04
      0.495000          0.852341E-04
      0.500000          0.844311E-04
