 I_abs(s)[cm^-1]/c[mg/ml]
       0.00000          0.143815E-01
      0.500000E-02      0.143319E-01
      0.100000E-01      0.141841E-01
      0.150000E-01      0.139413E-01
      0.200000E-01      0.136083E-01
      0.250000E-01      0.131919E-01
      0.300000E-01      0.127005E-01
      0.350000E-01      0.121436E-01
      0.400000E-01      0.115318E-01
      0.450000E-01      0.108764E-01
      0.500000E-01      0.101891E-01
      0.550000E-01      0.948154E-02
      0.600000E-01      0.876518E-02
      0.650000E-01      0.805082E-02
      0.700000E-01      0.734848E-02
      0.750000E-01      0.666710E-02
      0.800000E-01      0.601443E-02
      0.850000E-01      0.539687E-02
      0.900000E-01      0.481943E-02
      0.950000E-01      0.428568E-02
      0.100000          0.379784E-02
      0.105000          0.335679E-02
      0.110000          0.296223E-02
      0.115000          0.261284E-02
      0.120000          0.230637E-02
      0.125000          0.203990E-02
      0.130000          0.180999E-02
      0.135000          0.161285E-02
      0.140000          0.144454E-02
      0.145000          0.130112E-02
      0.150000          0.117875E-02
      0.155000          0.107387E-02
      0.160000          0.983216E-03
      0.165000          0.903930E-03
      0.170000          0.833573E-03
      0.175000          0.770141E-03
      0.180000          0.712055E-03
      0.185000          0.658133E-03
      0.190000          0.607553E-03
      0.195000          0.559794E-03
      0.200000          0.514589E-03
      0.205000          0.471859E-03
      0.210000          0.431661E-03
      0.215000          0.394129E-03
      0.220000          0.359433E-03
      0.225000          0.327738E-03
      0.230000          0.299171E-03
      0.235000          0.273803E-03
      0.240000          0.251633E-03
      0.245000          0.232586E-03
      0.250000          0.216516E-03
      0.255000          0.203210E-03
      0.260000          0.192403E-03
      0.265000          0.183791E-03
      0.270000          0.177049E-03
      0.275000          0.171845E-03
      0.280000          0.167854E-03
      0.285000          0.164773E-03
      0.290000          0.162331E-03
      0.295000          0.160294E-03
      0.300000          0.158471E-03
      0.305000          0.156715E-03
      0.310000          0.154923E-03
      0.315000          0.153031E-03
      0.320000          0.151008E-03
      0.325000          0.148854E-03
      0.330000          0.146586E-03
      0.335000          0.144240E-03
      0.340000          0.141855E-03
      0.345000          0.139475E-03
      0.350000          0.137138E-03
      0.355000          0.134875E-03
      0.360000          0.132710E-03
      0.365000          0.130653E-03
      0.370000          0.128702E-03
      0.375000          0.126846E-03
      0.380000          0.125067E-03
      0.385000          0.123337E-03
      0.390000          0.121626E-03
      0.395000          0.119903E-03
      0.400000          0.118138E-03
      0.405000          0.116307E-03
      0.410000          0.114390E-03
      0.415000          0.112375E-03
      0.420000          0.110259E-03
      0.425000          0.108050E-03
      0.430000          0.105762E-03
      0.435000          0.103418E-03
      0.440000          0.101048E-03
      0.445000          0.986858E-04
      0.450000          0.963694E-04
      0.455000          0.941371E-04
      0.460000          0.920260E-04
      0.465000          0.900699E-04
      0.470000          0.882976E-04
      0.475000          0.867313E-04
      0.480000          0.853853E-04
      0.485000          0.842657E-04
      0.490000          0.833695E-04
      0.495000          0.826855E-04
      0.500000          0.821943E-04
