 I_abs(s)[cm^-1]/c[mg/ml]
       0.00000          0.145079E-01
      0.500000E-02      0.144620E-01
      0.100000E-01      0.143252E-01
      0.150000E-01      0.141003E-01
      0.200000E-01      0.137921E-01
      0.250000E-01      0.134067E-01
      0.300000E-01      0.129519E-01
      0.350000E-01      0.124364E-01
      0.400000E-01      0.118699E-01
      0.450000E-01      0.112626E-01
      0.500000E-01      0.106250E-01
      0.550000E-01      0.996732E-02
      0.600000E-01      0.929954E-02
      0.650000E-01      0.863100E-02
      0.700000E-01      0.797019E-02
      0.750000E-01      0.732461E-02
      0.800000E-01      0.670068E-02
      0.850000E-01      0.610361E-02
      0.900000E-01      0.553748E-02
      0.950000E-01      0.500520E-02
      0.100000          0.450862E-02
      0.105000          0.404862E-02
      0.110000          0.362524E-02
      0.115000          0.323781E-02
      0.120000          0.288510E-02
      0.125000          0.256546E-02
      0.130000          0.227694E-02
      0.135000          0.201742E-02
      0.140000          0.178473E-02
      0.145000          0.157666E-02
      0.150000          0.139111E-02
      0.155000          0.122609E-02
      0.160000          0.107971E-02
      0.165000          0.950264E-03
      0.170000          0.836181E-03
      0.175000          0.736021E-03
      0.180000          0.648470E-03
      0.185000          0.572317E-03
      0.190000          0.506441E-03
      0.195000          0.449795E-03
      0.200000          0.401391E-03
      0.205000          0.360297E-03
      0.210000          0.325632E-03
      0.215000          0.296562E-03
      0.220000          0.272306E-03
      0.225000          0.252138E-03
      0.230000          0.235392E-03
      0.235000          0.221468E-03
      0.240000          0.209833E-03
      0.245000          0.200026E-03
      0.250000          0.191656E-03
      0.255000          0.184402E-03
      0.260000          0.178006E-03
      0.265000          0.172269E-03
      0.270000          0.167047E-03
      0.275000          0.162234E-03
      0.280000          0.157762E-03
      0.285000          0.153587E-03
      0.290000          0.149685E-03
      0.295000          0.146040E-03
      0.300000          0.142646E-03
      0.305000          0.139494E-03
      0.310000          0.136574E-03
      0.315000          0.133873E-03
      0.320000          0.131375E-03
      0.325000          0.129057E-03
      0.330000          0.126898E-03
      0.335000          0.124872E-03
      0.340000          0.122954E-03
      0.345000          0.121121E-03
      0.350000          0.119352E-03
      0.355000          0.117631E-03
      0.360000          0.115944E-03
      0.365000          0.114282E-03
      0.370000          0.112639E-03
      0.375000          0.111012E-03
      0.380000          0.109399E-03
      0.385000          0.107803E-03
      0.390000          0.106222E-03
      0.395000          0.104658E-03
      0.400000          0.103111E-03
      0.405000          0.101579E-03
      0.410000          0.100061E-03
      0.415000          0.985549E-04
      0.420000          0.970568E-04
      0.425000          0.955640E-04
      0.430000          0.940744E-04
      0.435000          0.925869E-04
      0.440000          0.911021E-04
      0.445000          0.896225E-04
      0.450000          0.881527E-04
      0.455000          0.866993E-04
      0.460000          0.852707E-04
      0.465000          0.838766E-04
      0.470000          0.825276E-04
      0.475000          0.812341E-04
      0.480000          0.800061E-04
      0.485000          0.788522E-04
      0.490000          0.777789E-04
      0.495000          0.767900E-04
      0.500000          0.758865E-04
