 I_abs(s)[cm^-1]/c[mg/ml]
       0.00000          0.145555E-01
      0.500000E-02      0.145039E-01
      0.100000E-01      0.143504E-01
      0.150000E-01      0.140981E-01
      0.200000E-01      0.137526E-01
      0.250000E-01      0.133212E-01
      0.300000E-01      0.128128E-01
      0.350000E-01      0.122377E-01
      0.400000E-01      0.116073E-01
      0.450000E-01      0.109335E-01
      0.500000E-01      0.102285E-01
      0.550000E-01      0.950450E-02
      0.600000E-01      0.877320E-02
      0.650000E-01      0.804558E-02
      0.700000E-01      0.733166E-02
      0.750000E-01      0.664028E-02
      0.800000E-01      0.597894E-02
      0.850000E-01      0.535376E-02
      0.900000E-01      0.476940E-02
      0.950000E-01      0.422910E-02
      0.100000          0.373478E-02
      0.105000          0.328710E-02
      0.110000          0.288562E-02
      0.115000          0.252897E-02
      0.120000          0.221501E-02
      0.125000          0.194098E-02
      0.130000          0.170372E-02
      0.135000          0.149977E-02
      0.140000          0.132557E-02
      0.145000          0.117756E-02
      0.150000          0.105226E-02
      0.155000          0.946401E-03
      0.160000          0.856970E-03
      0.165000          0.781234E-03
      0.170000          0.716785E-03
      0.175000          0.661537E-03
      0.180000          0.613727E-03
      0.185000          0.571891E-03
      0.190000          0.534848E-03
      0.195000          0.501664E-03
      0.200000          0.471621E-03
      0.205000          0.444180E-03
      0.210000          0.418951E-03
      0.215000          0.395656E-03
      0.220000          0.374101E-03
      0.225000          0.354151E-03
      0.230000          0.335705E-03
      0.235000          0.318681E-03
      0.240000          0.303001E-03
      0.245000          0.288584E-03
      0.250000          0.275338E-03
      0.255000          0.263160E-03
      0.260000          0.251937E-03
      0.265000          0.241550E-03
      0.270000          0.231875E-03
      0.275000          0.222792E-03
      0.280000          0.214189E-03
      0.285000          0.205970E-03
      0.290000          0.198052E-03
      0.295000          0.190376E-03
      0.300000          0.182903E-03
      0.305000          0.175617E-03
      0.310000          0.168520E-03
      0.315000          0.161634E-03
      0.320000          0.154994E-03
      0.325000          0.148643E-03
      0.330000          0.142629E-03
      0.335000          0.137000E-03
      0.340000          0.131799E-03
      0.345000          0.127061E-03
      0.350000          0.122809E-03
      0.355000          0.119054E-03
      0.360000          0.115793E-03
      0.365000          0.113007E-03
      0.370000          0.110666E-03
      0.375000          0.108731E-03
      0.380000          0.107152E-03
      0.385000          0.105875E-03
      0.390000          0.104841E-03
      0.395000          0.103995E-03
      0.400000          0.103281E-03
      0.405000          0.102650E-03
      0.410000          0.102061E-03
      0.415000          0.101477E-03
      0.420000          0.100873E-03
      0.425000          0.100232E-03
      0.430000          0.995424E-04
      0.435000          0.988032E-04
      0.440000          0.980174E-04
      0.445000          0.971932E-04
      0.450000          0.963420E-04
      0.455000          0.954766E-04
      0.460000          0.946101E-04
      0.465000          0.937546E-04
      0.470000          0.929201E-04
      0.475000          0.921136E-04
      0.480000          0.913391E-04
      0.485000          0.905967E-04
      0.490000          0.898836E-04
      0.495000          0.891933E-04
      0.500000          0.885172E-04
