 I_abs(s)[cm^-1]/c[mg/ml]
       0.00000          0.147625E-01
      0.500000E-02      0.147226E-01
      0.100000E-01      0.146034E-01
      0.150000E-01      0.144068E-01
      0.200000E-01      0.141356E-01
      0.250000E-01      0.137939E-01
      0.300000E-01      0.133865E-01
      0.350000E-01      0.129194E-01
      0.400000E-01      0.123990E-01
      0.450000E-01      0.118326E-01
      0.500000E-01      0.112279E-01
      0.550000E-01      0.105926E-01
      0.600000E-01      0.993496E-02
      0.650000E-01      0.926286E-02
      0.700000E-01      0.858418E-02
      0.750000E-01      0.790644E-02
      0.800000E-01      0.723670E-02
      0.850000E-01      0.658150E-02
      0.900000E-01      0.594670E-02
      0.950000E-01      0.533746E-02
      0.100000          0.475817E-02
      0.105000          0.421241E-02
      0.110000          0.370296E-02
      0.115000          0.323180E-02
      0.120000          0.280013E-02
      0.125000          0.240843E-02
      0.130000          0.205651E-02
      0.135000          0.174355E-02
      0.140000          0.146822E-02
      0.145000          0.122875E-02
      0.150000          0.102296E-02
      0.155000          0.848437E-03
      0.160000          0.702535E-03
      0.165000          0.582495E-03
      0.170000          0.485506E-03
      0.175000          0.408768E-03
      0.180000          0.349553E-03
      0.185000          0.305250E-03
      0.190000          0.273407E-03
      0.195000          0.251756E-03
      0.200000          0.238239E-03
      0.205000          0.231018E-03
      0.210000          0.228481E-03
      0.215000          0.229244E-03
      0.220000          0.232137E-03
      0.225000          0.236200E-03
      0.230000          0.240665E-03
      0.235000          0.244936E-03
      0.240000          0.248574E-03
      0.245000          0.251274E-03
      0.250000          0.252844E-03
      0.255000          0.253189E-03
      0.260000          0.252290E-03
      0.265000          0.250186E-03
      0.270000          0.246961E-03
      0.275000          0.242728E-03
      0.280000          0.237621E-03
      0.285000          0.231780E-03
      0.290000          0.225351E-03
      0.295000          0.218471E-03
      0.300000          0.211272E-03
      0.305000          0.203873E-03
      0.310000          0.196380E-03
      0.315000          0.188883E-03
      0.320000          0.181461E-03
      0.325000          0.174177E-03
      0.330000          0.167082E-03
      0.335000          0.160215E-03
      0.340000          0.153605E-03
      0.345000          0.147274E-03
      0.350000          0.141235E-03
      0.355000          0.135495E-03
      0.360000          0.130058E-03
      0.365000          0.124922E-03
      0.370000          0.120084E-03
      0.375000          0.115539E-03
      0.380000          0.111280E-03
      0.385000          0.107299E-03
      0.390000          0.103588E-03
      0.395000          0.100138E-03
      0.400000          0.969391E-04
      0.405000          0.939830E-04
      0.410000          0.912597E-04
      0.415000          0.887593E-04
      0.420000          0.864720E-04
      0.425000          0.843872E-04
      0.430000          0.824942E-04
      0.435000          0.807819E-04
      0.440000          0.792390E-04
      0.445000          0.778537E-04
      0.450000          0.766139E-04
      0.455000          0.755075E-04
      0.460000          0.745222E-04
      0.465000          0.736458E-04
      0.470000          0.728661E-04
      0.475000          0.721715E-04
      0.480000          0.715505E-04
      0.485000          0.709926E-04
      0.490000          0.704877E-04
      0.495000          0.700269E-04
      0.500000          0.696021E-04
