 I_abs(s)[cm^-1]/c[mg/ml]
       0.00000          0.145793E-01
      0.500000E-02      0.145364E-01
      0.100000E-01      0.144083E-01
      0.150000E-01      0.141974E-01
      0.200000E-01      0.139073E-01
      0.250000E-01      0.135431E-01
      0.300000E-01      0.131110E-01
      0.350000E-01      0.126182E-01
      0.400000E-01      0.120729E-01
      0.450000E-01      0.114837E-01
      0.500000E-01      0.108596E-01
      0.550000E-01      0.102100E-01
      0.600000E-01      0.954404E-02
      0.650000E-01      0.887061E-02
      0.700000E-01      0.819821E-02
      0.750000E-01      0.753467E-02
      0.800000E-01      0.688710E-02
      0.850000E-01      0.626174E-02
      0.900000E-01      0.566386E-02
      0.950000E-01      0.509779E-02
      0.100000          0.456683E-02
      0.105000          0.407331E-02
      0.110000          0.361864E-02
      0.115000          0.320335E-02
      0.120000          0.282719E-02
      0.125000          0.248921E-02
      0.130000          0.218790E-02
      0.135000          0.192127E-02
      0.140000          0.168697E-02
      0.145000          0.148239E-02
      0.150000          0.130481E-02
      0.155000          0.115140E-02
      0.160000          0.101940E-02
      0.165000          0.906115E-03
      0.170000          0.809002E-03
      0.175000          0.725713E-03
      0.180000          0.654113E-03
      0.185000          0.592304E-03
      0.190000          0.538632E-03
      0.195000          0.491680E-03
      0.200000          0.450263E-03
      0.205000          0.413411E-03
      0.210000          0.380345E-03
      0.215000          0.350460E-03
      0.220000          0.323292E-03
      0.225000          0.298501E-03
      0.230000          0.275843E-03
      0.235000          0.255148E-03
      0.240000          0.236296E-03
      0.245000          0.219206E-03
      0.250000          0.203813E-03
      0.255000          0.190064E-03
      0.260000          0.177901E-03
      0.265000          0.167258E-03
      0.270000          0.158059E-03
      0.275000          0.150212E-03
      0.280000          0.143612E-03
      0.285000          0.138138E-03
      0.290000          0.133663E-03
      0.295000          0.130052E-03
      0.300000          0.127164E-03
      0.305000          0.124864E-03
      0.310000          0.123019E-03
      0.315000          0.121504E-03
      0.320000          0.120208E-03
      0.325000          0.119032E-03
      0.330000          0.117895E-03
      0.335000          0.116733E-03
      0.340000          0.115497E-03
      0.345000          0.114159E-03
      0.350000          0.112704E-03
      0.355000          0.111134E-03
      0.360000          0.109462E-03
      0.365000          0.107712E-03
      0.370000          0.105916E-03
      0.375000          0.104109E-03
      0.380000          0.102332E-03
      0.385000          0.100622E-03
      0.390000          0.990143E-04
      0.395000          0.975415E-04
      0.400000          0.962284E-04
      0.405000          0.950927E-04
      0.410000          0.941442E-04
      0.415000          0.933845E-04
      0.420000          0.928070E-04
      0.425000          0.923973E-04
      0.430000          0.921349E-04
      0.435000          0.919934E-04
      0.440000          0.919426E-04
      0.445000          0.919499E-04
      0.450000          0.919816E-04
      0.455000          0.920048E-04
      0.460000          0.919884E-04
      0.465000          0.919047E-04
      0.470000          0.917304E-04
      0.475000          0.914472E-04
      0.480000          0.910421E-04
      0.485000          0.905081E-04
      0.490000          0.898438E-04
      0.495000          0.890532E-04
      0.500000          0.881447E-04
