 I_abs(s)[cm^-1]/c[mg/ml]
       0.00000          0.143421E-01
      0.500000E-02      0.142911E-01
      0.100000E-01      0.141392E-01
      0.150000E-01      0.138899E-01
      0.200000E-01      0.135490E-01
      0.250000E-01      0.131239E-01
      0.300000E-01      0.126240E-01
      0.350000E-01      0.120600E-01
      0.400000E-01      0.114436E-01
      0.450000E-01      0.107869E-01
      0.500000E-01      0.101024E-01
      0.550000E-01      0.940248E-02
      0.600000E-01      0.869867E-02
      0.650000E-01      0.800184E-02
      0.700000E-01      0.732168E-02
      0.750000E-01      0.666651E-02
      0.800000E-01      0.604321E-02
      0.850000E-01      0.545709E-02
      0.900000E-01      0.491192E-02
      0.950000E-01      0.441000E-02
      0.100000          0.395220E-02
      0.105000          0.353822E-02
      0.110000          0.316666E-02
      0.115000          0.283532E-02
      0.120000          0.254132E-02
      0.125000          0.228139E-02
      0.130000          0.205202E-02
      0.135000          0.184962E-02
      0.140000          0.167072E-02
      0.145000          0.151205E-02
      0.150000          0.137066E-02
      0.155000          0.124394E-02
      0.160000          0.112968E-02
      0.165000          0.102606E-02
      0.170000          0.931643E-03
      0.175000          0.845308E-03
      0.180000          0.766235E-03
      0.185000          0.693836E-03
      0.190000          0.627697E-03
      0.195000          0.567526E-03
      0.200000          0.513101E-03
      0.205000          0.464228E-03
      0.210000          0.420708E-03
      0.215000          0.382311E-03
      0.220000          0.348764E-03
      0.225000          0.319743E-03
      0.230000          0.294876E-03
      0.235000          0.273749E-03
      0.240000          0.255922E-03
      0.245000          0.240940E-03
      0.250000          0.228350E-03
      0.255000          0.217713E-03
      0.260000          0.208626E-03
      0.265000          0.200722E-03
      0.270000          0.193686E-03
      0.275000          0.187258E-03
      0.280000          0.181232E-03
      0.285000          0.175456E-03
      0.290000          0.169832E-03
      0.295000          0.164304E-03
      0.300000          0.158853E-03
      0.305000          0.153491E-03
      0.310000          0.148248E-03
      0.315000          0.143171E-03
      0.320000          0.138310E-03
      0.325000          0.133713E-03
      0.330000          0.129423E-03
      0.335000          0.125474E-03
      0.340000          0.121887E-03
      0.345000          0.118669E-03
      0.350000          0.115813E-03
      0.355000          0.113300E-03
      0.360000          0.111101E-03
      0.365000          0.109176E-03
      0.370000          0.107482E-03
      0.375000          0.105972E-03
      0.380000          0.104596E-03
      0.385000          0.103309E-03
      0.390000          0.102070E-03
      0.395000          0.100844E-03
      0.400000          0.996018E-04
      0.405000          0.983248E-04
      0.410000          0.970018E-04
      0.415000          0.956298E-04
      0.420000          0.942137E-04
      0.425000          0.927650E-04
      0.430000          0.913006E-04
      0.435000          0.898410E-04
      0.440000          0.884090E-04
      0.445000          0.870278E-04
      0.450000          0.857198E-04
      0.455000          0.845045E-04
      0.460000          0.833980E-04
      0.465000          0.824114E-04
      0.470000          0.815507E-04
      0.475000          0.808159E-04
      0.480000          0.802015E-04
      0.485000          0.796965E-04
      0.490000          0.792851E-04
      0.495000          0.789477E-04
      0.500000          0.786617E-04
