 I_abs(s)[cm^-1]/c[mg/ml]
       0.00000          0.146111E-01
      0.500000E-02      0.145704E-01
      0.100000E-01      0.144489E-01
      0.150000E-01      0.142487E-01
      0.200000E-01      0.139730E-01
      0.250000E-01      0.136266E-01
      0.300000E-01      0.132148E-01
      0.350000E-01      0.127444E-01
      0.400000E-01      0.122226E-01
      0.450000E-01      0.116572E-01
      0.500000E-01      0.110566E-01
      0.550000E-01      0.104292E-01
      0.600000E-01      0.978338E-02
      0.650000E-01      0.912740E-02
      0.700000E-01      0.846911E-02
      0.750000E-01      0.781586E-02
      0.800000E-01      0.717436E-02
      0.850000E-01      0.655060E-02
      0.900000E-01      0.594974E-02
      0.950000E-01      0.537612E-02
      0.100000          0.483318E-02
      0.105000          0.432356E-02
      0.110000          0.384903E-02
      0.115000          0.341061E-02
      0.120000          0.300863E-02
      0.125000          0.264276E-02
      0.130000          0.231217E-02
      0.135000          0.201554E-02
      0.140000          0.175123E-02
      0.145000          0.151729E-02
      0.150000          0.131160E-02
      0.155000          0.113194E-02
      0.160000          0.976010E-03
      0.165000          0.841545E-03
      0.170000          0.726326E-03
      0.175000          0.628225E-03
      0.180000          0.545240E-03
      0.185000          0.475505E-03
      0.190000          0.417302E-03
      0.195000          0.369071E-03
      0.200000          0.329404E-03
      0.205000          0.297041E-03
      0.210000          0.270863E-03
      0.215000          0.249882E-03
      0.220000          0.233230E-03
      0.225000          0.220146E-03
      0.230000          0.209971E-03
      0.235000          0.202128E-03
      0.240000          0.196122E-03
      0.245000          0.191526E-03
      0.250000          0.187976E-03
      0.255000          0.185161E-03
      0.260000          0.182824E-03
      0.265000          0.180750E-03
      0.270000          0.178766E-03
      0.275000          0.176735E-03
      0.280000          0.174553E-03
      0.285000          0.172148E-03
      0.290000          0.169471E-03
      0.295000          0.166497E-03
      0.300000          0.163223E-03
      0.305000          0.159661E-03
      0.310000          0.155835E-03
      0.315000          0.151785E-03
      0.320000          0.147553E-03
      0.325000          0.143192E-03
      0.330000          0.138754E-03
      0.335000          0.134294E-03
      0.340000          0.129867E-03
      0.345000          0.125524E-03
      0.350000          0.121315E-03
      0.355000          0.117281E-03
      0.360000          0.113463E-03
      0.365000          0.109893E-03
      0.370000          0.106597E-03
      0.375000          0.103595E-03
      0.380000          0.100901E-03
      0.385000          0.985215E-04
      0.390000          0.964587E-04
      0.395000          0.947077E-04
      0.400000          0.932584E-04
      0.405000          0.920958E-04
      0.410000          0.912002E-04
      0.415000          0.905480E-04
      0.420000          0.901121E-04
      0.425000          0.898626E-04
      0.430000          0.897674E-04
      0.435000          0.897928E-04
      0.440000          0.899040E-04
      0.445000          0.900664E-04
      0.450000          0.902455E-04
      0.455000          0.904085E-04
      0.460000          0.905239E-04
      0.465000          0.905632E-04
      0.470000          0.905007E-04
      0.475000          0.903144E-04
      0.480000          0.899864E-04
      0.485000          0.895031E-04
      0.490000          0.888558E-04
      0.495000          0.880404E-04
      0.500000          0.870575E-04
