 I_abs(s)[cm^-1]/c[mg/ml]
       0.00000          0.145714E-01
      0.500000E-02      0.145266E-01
      0.100000E-01      0.143930E-01
      0.150000E-01      0.141731E-01
      0.200000E-01      0.138706E-01
      0.250000E-01      0.134907E-01
      0.300000E-01      0.130401E-01
      0.350000E-01      0.125263E-01
      0.400000E-01      0.119577E-01
      0.450000E-01      0.113435E-01
      0.500000E-01      0.106933E-01
      0.550000E-01      0.100167E-01
      0.600000E-01      0.932368E-02
      0.650000E-01      0.862357E-02
      0.700000E-01      0.792544E-02
      0.750000E-01      0.723768E-02
      0.800000E-01      0.656791E-02
      0.850000E-01      0.592282E-02
      0.900000E-01      0.530810E-02
      0.950000E-01      0.472839E-02
      0.100000          0.418724E-02
      0.105000          0.368715E-02
      0.110000          0.322956E-02
      0.115000          0.281498E-02
      0.120000          0.244300E-02
      0.125000          0.211248E-02
      0.130000          0.182161E-02
      0.135000          0.156803E-02
      0.140000          0.134902E-02
      0.145000          0.116155E-02
      0.150000          0.100245E-02
      0.155000          0.868483E-03
      0.160000          0.756479E-03
      0.165000          0.663386E-03
      0.170000          0.586350E-03
      0.175000          0.522759E-03
      0.180000          0.470282E-03
      0.185000          0.426881E-03
      0.190000          0.390819E-03
      0.195000          0.360650E-03
      0.200000          0.335204E-03
      0.205000          0.313557E-03
      0.210000          0.295006E-03
      0.215000          0.279027E-03
      0.220000          0.265249E-03
      0.225000          0.253409E-03
      0.230000          0.243330E-03
      0.235000          0.234885E-03
      0.240000          0.227974E-03
      0.245000          0.222506E-03
      0.250000          0.218385E-03
      0.255000          0.215498E-03
      0.260000          0.213709E-03
      0.265000          0.212863E-03
      0.270000          0.212783E-03
      0.275000          0.213277E-03
      0.280000          0.214146E-03
      0.285000          0.215190E-03
      0.290000          0.216214E-03
      0.295000          0.217038E-03
      0.300000          0.217504E-03
      0.305000          0.217479E-03
      0.310000          0.216860E-03
      0.315000          0.215577E-03
      0.320000          0.213590E-03
      0.325000          0.210892E-03
      0.330000          0.207505E-03
      0.335000          0.203475E-03
      0.340000          0.198870E-03
      0.345000          0.193773E-03
      0.350000          0.188278E-03
      0.355000          0.182486E-03
      0.360000          0.176498E-03
      0.365000          0.170412E-03
      0.370000          0.164320E-03
      0.375000          0.158305E-03
      0.380000          0.152436E-03
      0.385000          0.146772E-03
      0.390000          0.141358E-03
      0.395000          0.136224E-03
      0.400000          0.131391E-03
      0.405000          0.126867E-03
      0.410000          0.122649E-03
      0.415000          0.118728E-03
      0.420000          0.115090E-03
      0.425000          0.111713E-03
      0.430000          0.108575E-03
      0.435000          0.105653E-03
      0.440000          0.102924E-03
      0.445000          0.100366E-03
      0.450000          0.979587E-04
      0.455000          0.956864E-04
      0.460000          0.935352E-04
      0.465000          0.914944E-04
      0.470000          0.895567E-04
      0.475000          0.877176E-04
      0.480000          0.859747E-04
      0.485000          0.843280E-04
      0.490000          0.827785E-04
      0.495000          0.813284E-04
      0.500000          0.799800E-04
