 I_abs(s)[cm^-1]/c[mg/ml]
       0.00000          0.149388E-01
      0.500000E-02      0.148913E-01
      0.100000E-01      0.147496E-01
      0.150000E-01      0.145164E-01
      0.200000E-01      0.141960E-01
      0.250000E-01      0.137944E-01
      0.300000E-01      0.133188E-01
      0.350000E-01      0.127777E-01
      0.400000E-01      0.121805E-01
      0.450000E-01      0.115373E-01
      0.500000E-01      0.108583E-01
      0.550000E-01      0.101542E-01
      0.600000E-01      0.943535E-02
      0.650000E-01      0.871166E-02
      0.700000E-01      0.799250E-02
      0.750000E-01      0.728644E-02
      0.800000E-01      0.660108E-02
      0.850000E-01      0.594298E-02
      0.900000E-01      0.531758E-02
      0.950000E-01      0.472917E-02
      0.100000          0.418090E-02
      0.105000          0.367485E-02
      0.110000          0.321207E-02
      0.115000          0.279269E-02
      0.120000          0.241602E-02
      0.125000          0.208071E-02
      0.130000          0.178484E-02
      0.135000          0.152604E-02
      0.140000          0.130168E-02
      0.145000          0.110888E-02
      0.150000          0.944695E-03
      0.155000          0.806171E-03
      0.160000          0.690412E-03
      0.165000          0.594640E-03
      0.170000          0.516243E-03
      0.175000          0.452798E-03
      0.180000          0.402090E-03
      0.185000          0.362116E-03
      0.190000          0.331087E-03
      0.195000          0.307420E-03
      0.200000          0.289725E-03
      0.205000          0.276789E-03
      0.210000          0.267567E-03
      0.215000          0.261160E-03
      0.220000          0.256807E-03
      0.225000          0.253861E-03
      0.230000          0.251789E-03
      0.235000          0.250152E-03
      0.240000          0.248597E-03
      0.245000          0.246852E-03
      0.250000          0.244712E-03
      0.255000          0.242038E-03
      0.260000          0.238745E-03
      0.265000          0.234794E-03
      0.270000          0.230193E-03
      0.275000          0.224978E-03
      0.280000          0.219218E-03
      0.285000          0.212999E-03
      0.290000          0.206423E-03
      0.295000          0.199598E-03
      0.300000          0.192638E-03
      0.305000          0.185651E-03
      0.310000          0.178739E-03
      0.315000          0.171996E-03
      0.320000          0.165503E-03
      0.325000          0.159325E-03
      0.330000          0.153515E-03
      0.335000          0.148111E-03
      0.340000          0.143134E-03
      0.345000          0.138595E-03
      0.350000          0.134490E-03
      0.355000          0.130806E-03
      0.360000          0.127521E-03
      0.365000          0.124605E-03
      0.370000          0.122024E-03
      0.375000          0.119737E-03
      0.380000          0.117705E-03
      0.385000          0.115883E-03
      0.390000          0.114232E-03
      0.395000          0.112709E-03
      0.400000          0.111277E-03
      0.405000          0.109900E-03
      0.410000          0.108549E-03
      0.415000          0.107196E-03
      0.420000          0.105819E-03
      0.425000          0.104404E-03
      0.430000          0.102940E-03
      0.435000          0.101420E-03
      0.440000          0.998460E-04
      0.445000          0.982223E-04
      0.450000          0.965588E-04
      0.455000          0.948692E-04
      0.460000          0.931703E-04
      0.465000          0.914816E-04
      0.470000          0.898239E-04
      0.475000          0.882189E-04
      0.480000          0.866881E-04
      0.485000          0.852517E-04
      0.490000          0.839280E-04
      0.495000          0.827330E-04
      0.500000          0.816788E-04
