 I_abs(s)[cm^-1]/c[mg/ml]
       0.00000          0.148746E-01
      0.500000E-02      0.148226E-01
      0.100000E-01      0.146676E-01
      0.150000E-01      0.144134E-01
      0.200000E-01      0.140656E-01
      0.250000E-01      0.136320E-01
      0.300000E-01      0.131220E-01
      0.350000E-01      0.125463E-01
      0.400000E-01      0.119166E-01
      0.450000E-01      0.112451E-01
      0.500000E-01      0.105440E-01
      0.550000E-01      0.982518E-02
      0.600000E-01      0.910009E-02
      0.650000E-01      0.837907E-02
      0.700000E-01      0.767136E-02
      0.750000E-01      0.698491E-02
      0.800000E-01      0.632627E-02
      0.850000E-01      0.570058E-02
      0.900000E-01      0.511162E-02
      0.950000E-01      0.456191E-02
      0.100000          0.405278E-02
      0.105000          0.358463E-02
      0.110000          0.315701E-02
      0.115000          0.276881E-02
      0.120000          0.241845E-02
      0.125000          0.210402E-02
      0.130000          0.182338E-02
      0.135000          0.157427E-02
      0.140000          0.135443E-02
      0.145000          0.116161E-02
      0.150000          0.993591E-03
      0.155000          0.848277E-03
      0.160000          0.723632E-03
      0.165000          0.617713E-03
      0.170000          0.528656E-03
      0.175000          0.454675E-03
      0.180000          0.394056E-03
      0.185000          0.345159E-03
      0.190000          0.306417E-03
      0.195000          0.276350E-03
      0.200000          0.253564E-03
      0.205000          0.236772E-03
      0.210000          0.224796E-03
      0.215000          0.216577E-03
      0.220000          0.211186E-03
      0.225000          0.207821E-03
      0.230000          0.205808E-03
      0.235000          0.204597E-03
      0.240000          0.203756E-03
      0.245000          0.202954E-03
      0.250000          0.201958E-03
      0.255000          0.200611E-03
      0.260000          0.198822E-03
      0.265000          0.196556E-03
      0.270000          0.193815E-03
      0.275000          0.190632E-03
      0.280000          0.187061E-03
      0.285000          0.183170E-03
      0.290000          0.179033E-03
      0.295000          0.174729E-03
      0.300000          0.170335E-03
      0.305000          0.165924E-03
      0.310000          0.161564E-03
      0.315000          0.157318E-03
      0.320000          0.153237E-03
      0.325000          0.149364E-03
      0.330000          0.145731E-03
      0.335000          0.142358E-03
      0.340000          0.139255E-03
      0.345000          0.136421E-03
      0.350000          0.133844E-03
      0.355000          0.131504E-03
      0.360000          0.129374E-03
      0.365000          0.127420E-03
      0.370000          0.125606E-03
      0.375000          0.123895E-03
      0.380000          0.122250E-03
      0.385000          0.120635E-03
      0.390000          0.119020E-03
      0.395000          0.117378E-03
      0.400000          0.115690E-03
      0.405000          0.113940E-03
      0.410000          0.112121E-03
      0.415000          0.110229E-03
      0.420000          0.108267E-03
      0.425000          0.106243E-03
      0.430000          0.104169E-03
      0.435000          0.102061E-03
      0.440000          0.999376E-04
      0.445000          0.978199E-04
      0.450000          0.957312E-04
      0.455000          0.936957E-04
      0.460000          0.917382E-04
      0.465000          0.898834E-04
      0.470000          0.881553E-04
      0.475000          0.865763E-04
      0.480000          0.851665E-04
      0.485000          0.839432E-04
      0.490000          0.829201E-04
      0.495000          0.821070E-04
      0.500000          0.815092E-04
