 I_abs(s)[cm^-1]/c[mg/ml]
       0.00000          0.146350E-01
      0.500000E-02      0.145969E-01
      0.100000E-01      0.144834E-01
      0.150000E-01      0.142960E-01
      0.200000E-01      0.140376E-01
      0.250000E-01      0.137119E-01
      0.300000E-01      0.133237E-01
      0.350000E-01      0.128784E-01
      0.400000E-01      0.123823E-01
      0.450000E-01      0.118423E-01
      0.500000E-01      0.112655E-01
      0.550000E-01      0.106594E-01
      0.600000E-01      0.100317E-01
      0.650000E-01      0.938994E-02
      0.700000E-01      0.874145E-02
      0.750000E-01      0.809335E-02
      0.800000E-01      0.745229E-02
      0.850000E-01      0.682438E-02
      0.900000E-01      0.621511E-02
      0.950000E-01      0.562930E-02
      0.100000          0.507100E-02
      0.105000          0.454353E-02
      0.110000          0.404944E-02
      0.115000          0.359051E-02
      0.120000          0.316780E-02
      0.125000          0.278170E-02
      0.130000          0.243197E-02
      0.135000          0.211780E-02
      0.140000          0.183792E-02
      0.145000          0.159064E-02
      0.150000          0.137396E-02
      0.155000          0.118562E-02
      0.160000          0.102323E-02
      0.165000          0.884274E-03
      0.170000          0.766243E-03
      0.175000          0.666654E-03
      0.180000          0.583115E-03
      0.185000          0.513366E-03
      0.190000          0.455311E-03
      0.195000          0.407040E-03
      0.200000          0.366847E-03
      0.205000          0.333232E-03
      0.210000          0.304908E-03
      0.215000          0.280784E-03
      0.220000          0.259964E-03
      0.225000          0.241723E-03
      0.230000          0.225493E-03
      0.235000          0.210844E-03
      0.240000          0.197457E-03
      0.245000          0.185113E-03
      0.250000          0.173662E-03
      0.255000          0.163017E-03
      0.260000          0.153128E-03
      0.265000          0.143972E-03
      0.270000          0.135543E-03
      0.275000          0.127840E-03
      0.280000          0.120861E-03
      0.285000          0.114600E-03
      0.290000          0.109043E-03
      0.295000          0.104164E-03
      0.300000          0.999313E-04
      0.305000          0.963031E-04
      0.310000          0.932319E-04
      0.315000          0.906659E-04
      0.320000          0.885516E-04
      0.325000          0.868355E-04
      0.330000          0.854663E-04
      0.335000          0.843964E-04
      0.340000          0.835829E-04
      0.345000          0.829885E-04
      0.350000          0.825817E-04
      0.355000          0.823363E-04
      0.360000          0.822315E-04
      0.365000          0.822504E-04
      0.370000          0.823796E-04
      0.375000          0.826082E-04
      0.380000          0.829262E-04
      0.385000          0.833242E-04
      0.390000          0.837924E-04
      0.395000          0.843195E-04
      0.400000          0.848931E-04
      0.405000          0.854986E-04
      0.410000          0.861200E-04
      0.415000          0.867396E-04
      0.420000          0.873386E-04
      0.425000          0.878973E-04
      0.430000          0.883964E-04
      0.435000          0.888170E-04
      0.440000          0.891418E-04
      0.445000          0.893553E-04
      0.450000          0.894448E-04
      0.455000          0.894006E-04
      0.460000          0.892166E-04
      0.465000          0.888905E-04
      0.470000          0.884236E-04
      0.475000          0.878211E-04
      0.480000          0.870916E-04
      0.485000          0.862471E-04
      0.490000          0.853023E-04
      0.495000          0.842741E-04
      0.500000          0.831810E-04
