 I_abs(s)[cm^-1]/c[mg/ml]
       0.00000          0.143973E-01
      0.500000E-02      0.143539E-01
      0.100000E-01      0.142246E-01
      0.150000E-01      0.140119E-01
      0.200000E-01      0.137199E-01
      0.250000E-01      0.133540E-01
      0.300000E-01      0.129211E-01
      0.350000E-01      0.124290E-01
      0.400000E-01      0.118864E-01
      0.450000E-01      0.113024E-01
      0.500000E-01      0.106866E-01
      0.550000E-01      0.100485E-01
      0.600000E-01      0.939735E-02
      0.650000E-01      0.874212E-02
      0.700000E-01      0.809102E-02
      0.750000E-01      0.745148E-02
      0.800000E-01      0.683003E-02
      0.850000E-01      0.623219E-02
      0.900000E-01      0.566244E-02
      0.950000E-01      0.512424E-02
      0.100000          0.461999E-02
      0.105000          0.415121E-02
      0.110000          0.371850E-02
      0.115000          0.332175E-02
      0.120000          0.296018E-02
      0.125000          0.263251E-02
      0.130000          0.233704E-02
      0.135000          0.207182E-02
      0.140000          0.183467E-02
      0.145000          0.162338E-02
      0.150000          0.143568E-02
      0.155000          0.126939E-02
      0.160000          0.112239E-02
      0.165000          0.992725E-03
      0.170000          0.878570E-03
      0.175000          0.778267E-03
      0.180000          0.690309E-03
      0.185000          0.613345E-03
      0.190000          0.546159E-03
      0.195000          0.487661E-03
      0.200000          0.436874E-03
      0.205000          0.392913E-03
      0.210000          0.354980E-03
      0.215000          0.322351E-03
      0.220000          0.294367E-03
      0.225000          0.270428E-03
      0.230000          0.249990E-03
      0.235000          0.232561E-03
      0.240000          0.217701E-03
      0.245000          0.205019E-03
      0.250000          0.194173E-03
      0.255000          0.184867E-03
      0.260000          0.176849E-03
      0.265000          0.169910E-03
      0.270000          0.163876E-03
      0.275000          0.158609E-03
      0.280000          0.153998E-03
      0.285000          0.149955E-03
      0.290000          0.146410E-03
      0.295000          0.143308E-03
      0.300000          0.140602E-03
      0.305000          0.138250E-03
      0.310000          0.136212E-03
      0.315000          0.134449E-03
      0.320000          0.132920E-03
      0.325000          0.131583E-03
      0.330000          0.130393E-03
      0.335000          0.129304E-03
      0.340000          0.128269E-03
      0.345000          0.127241E-03
      0.350000          0.126178E-03
      0.355000          0.125036E-03
      0.360000          0.123780E-03
      0.365000          0.122376E-03
      0.370000          0.120800E-03
      0.375000          0.119031E-03
      0.380000          0.117056E-03
      0.385000          0.114869E-03
      0.390000          0.112472E-03
      0.395000          0.109871E-03
      0.400000          0.107081E-03
      0.405000          0.104119E-03
      0.410000          0.101011E-03
      0.415000          0.977853E-04
      0.420000          0.944741E-04
      0.425000          0.911129E-04
      0.430000          0.877393E-04
      0.435000          0.843920E-04
      0.440000          0.811100E-04
      0.445000          0.779320E-04
      0.450000          0.748948E-04
      0.455000          0.720332E-04
      0.460000          0.693782E-04
      0.465000          0.669572E-04
      0.470000          0.647925E-04
      0.475000          0.629010E-04
      0.480000          0.612940E-04
      0.485000          0.599767E-04
      0.490000          0.589481E-04
      0.495000          0.582015E-04
      0.500000          0.577243E-04
