 I_abs(s)[cm^-1]/c[mg/ml]
       0.00000          0.142556E-01
      0.500000E-02      0.141921E-01
      0.100000E-01      0.140035E-01
      0.150000E-01      0.136951E-01
      0.200000E-01      0.132752E-01
      0.250000E-01      0.127554E-01
      0.300000E-01      0.121493E-01
      0.350000E-01      0.114724E-01
      0.400000E-01      0.107417E-01
      0.450000E-01      0.997414E-02
      0.500000E-01      0.918702E-02
      0.550000E-01      0.839663E-02
      0.600000E-01      0.761802E-02
      0.650000E-01      0.686451E-02
      0.700000E-01      0.614733E-02
      0.750000E-01      0.547539E-02
      0.800000E-01      0.485524E-02
      0.850000E-01      0.429102E-02
      0.900000E-01      0.378466E-02
      0.950000E-01      0.333603E-02
      0.100000          0.294325E-02
      0.105000          0.260302E-02
      0.110000          0.231100E-02
      0.115000          0.206209E-02
      0.120000          0.185087E-02
      0.125000          0.167180E-02
      0.130000          0.151957E-02
      0.135000          0.138925E-02
      0.140000          0.127644E-02
      0.145000          0.117740E-02
      0.150000          0.108903E-02
      0.155000          0.100894E-02
      0.160000          0.935332E-03
      0.165000          0.866961E-03
      0.170000          0.803052E-03
      0.175000          0.743192E-03
      0.180000          0.687228E-03
      0.185000          0.635180E-03
      0.190000          0.587158E-03
      0.195000          0.543292E-03
      0.200000          0.503683E-03
      0.205000          0.468366E-03
      0.210000          0.437292E-03
      0.215000          0.410315E-03
      0.220000          0.387200E-03
      0.225000          0.367634E-03
      0.230000          0.351237E-03
      0.235000          0.337588E-03
      0.240000          0.326240E-03
      0.245000          0.316744E-03
      0.250000          0.308660E-03
      0.255000          0.301579E-03
      0.260000          0.295132E-03
      0.265000          0.288997E-03
      0.270000          0.282908E-03
      0.275000          0.276656E-03
      0.280000          0.270090E-03
      0.285000          0.263115E-03
      0.290000          0.255688E-03
      0.295000          0.247812E-03
      0.300000          0.239532E-03
      0.305000          0.230921E-03
      0.310000          0.222081E-03
      0.315000          0.213125E-03
      0.320000          0.204177E-03
      0.325000          0.195357E-03
      0.330000          0.186780E-03
      0.335000          0.178548E-03
      0.340000          0.170744E-03
      0.345000          0.163432E-03
      0.350000          0.156653E-03
      0.355000          0.150429E-03
      0.360000          0.144759E-03
      0.365000          0.139626E-03
      0.370000          0.134996E-03
      0.375000          0.130827E-03
      0.380000          0.127069E-03
      0.385000          0.123668E-03
      0.390000          0.120570E-03
      0.395000          0.117724E-03
      0.400000          0.115083E-03
      0.405000          0.112607E-03
      0.410000          0.110264E-03
      0.415000          0.108027E-03
      0.420000          0.105876E-03
      0.425000          0.103800E-03
      0.430000          0.101792E-03
      0.435000          0.998502E-04
      0.440000          0.979766E-04
      0.445000          0.961773E-04
      0.450000          0.944610E-04
      0.455000          0.928384E-04
      0.460000          0.913215E-04
      0.465000          0.899229E-04
      0.470000          0.886547E-04
      0.475000          0.875280E-04
      0.480000          0.865516E-04
      0.485000          0.857309E-04
      0.490000          0.850674E-04
      0.495000          0.845572E-04
      0.500000          0.841910E-04
