 I_abs(s)[cm^-1]/c[mg/ml]
       0.00000          0.145476E-01
      0.500000E-02      0.145041E-01
      0.100000E-01      0.143745E-01
      0.150000E-01      0.141609E-01
      0.200000E-01      0.138672E-01
      0.250000E-01      0.134983E-01
      0.300000E-01      0.130605E-01
      0.350000E-01      0.125611E-01
      0.400000E-01      0.120083E-01
      0.450000E-01      0.114108E-01
      0.500000E-01      0.107778E-01
      0.550000E-01      0.101186E-01
      0.600000E-01      0.944278E-02
      0.650000E-01      0.875926E-02
      0.700000E-01      0.807680E-02
      0.750000E-01      0.740345E-02
      0.800000E-01      0.674655E-02
      0.850000E-01      0.611255E-02
      0.900000E-01      0.550699E-02
      0.950000E-01      0.493435E-02
      0.100000          0.439815E-02
      0.105000          0.390085E-02
      0.110000          0.344396E-02
      0.115000          0.302808E-02
      0.120000          0.265297E-02
      0.125000          0.231767E-02
      0.130000          0.202059E-02
      0.135000          0.175963E-02
      0.140000          0.153230E-02
      0.145000          0.133584E-02
      0.150000          0.116731E-02
      0.155000          0.102372E-02
      0.160000          0.902092E-03
      0.165000          0.799545E-03
      0.170000          0.713356E-03
      0.175000          0.641011E-03
      0.180000          0.580234E-03
      0.185000          0.529006E-03
      0.190000          0.485575E-03
      0.195000          0.448453E-03
      0.200000          0.416401E-03
      0.205000          0.388415E-03
      0.210000          0.363698E-03
      0.215000          0.341633E-03
      0.220000          0.321759E-03
      0.225000          0.303737E-03
      0.230000          0.287326E-03
      0.235000          0.272356E-03
      0.240000          0.258709E-03
      0.245000          0.246296E-03
      0.250000          0.235045E-03
      0.255000          0.224891E-03
      0.260000          0.215765E-03
      0.265000          0.207588E-03
      0.270000          0.200277E-03
      0.275000          0.193735E-03
      0.280000          0.187860E-03
      0.285000          0.182546E-03
      0.290000          0.177686E-03
      0.295000          0.173176E-03
      0.300000          0.168919E-03
      0.305000          0.164830E-03
      0.310000          0.160834E-03
      0.315000          0.156875E-03
      0.320000          0.152909E-03
      0.325000          0.148909E-03
      0.330000          0.144863E-03
      0.335000          0.140775E-03
      0.340000          0.136657E-03
      0.345000          0.132533E-03
      0.350000          0.128434E-03
      0.355000          0.124394E-03
      0.360000          0.120450E-03
      0.365000          0.116639E-03
      0.370000          0.112994E-03
      0.375000          0.109545E-03
      0.380000          0.106315E-03
      0.385000          0.103323E-03
      0.390000          0.100579E-03
      0.395000          0.980873E-04
      0.400000          0.958463E-04
      0.405000          0.938479E-04
      0.410000          0.920790E-04
      0.415000          0.905229E-04
      0.420000          0.891599E-04
      0.425000          0.879684E-04
      0.430000          0.869264E-04
      0.435000          0.860122E-04
      0.440000          0.852050E-04
      0.445000          0.844860E-04
      0.450000          0.838387E-04
      0.455000          0.832494E-04
      0.460000          0.827070E-04
      0.465000          0.822033E-04
      0.470000          0.817328E-04
      0.475000          0.812920E-04
      0.480000          0.808798E-04
      0.485000          0.804961E-04
      0.490000          0.801422E-04
      0.495000          0.798197E-04
      0.500000          0.795305E-04
