 I_abs(s)[cm^-1]/c[mg/ml]
       0.00000          0.148025E-01
      0.500000E-02      0.147606E-01
      0.100000E-01      0.146355E-01
      0.150000E-01      0.144295E-01
      0.200000E-01      0.141459E-01
      0.250000E-01      0.137894E-01
      0.300000E-01      0.133658E-01
      0.350000E-01      0.128820E-01
      0.400000E-01      0.123455E-01
      0.450000E-01      0.117644E-01
      0.500000E-01      0.111474E-01
      0.550000E-01      0.105031E-01
      0.600000E-01      0.984018E-02
      0.650000E-01      0.916724E-02
      0.700000E-01      0.849236E-02
      0.750000E-01      0.782312E-02
      0.800000E-01      0.716644E-02
      0.850000E-01      0.652846E-02
      0.900000E-01      0.591448E-02
      0.950000E-01      0.532893E-02
      0.100000          0.477535E-02
      0.105000          0.425636E-02
      0.110000          0.377376E-02
      0.115000          0.332853E-02
      0.120000          0.292093E-02
      0.125000          0.255058E-02
      0.130000          0.221653E-02
      0.135000          0.191738E-02
      0.140000          0.165137E-02
      0.145000          0.141644E-02
      0.150000          0.121038E-02
      0.155000          0.103084E-02
      0.160000          0.875446E-03
      0.165000          0.741840E-03
      0.170000          0.627732E-03
      0.175000          0.530936E-03
      0.180000          0.449399E-03
      0.185000          0.381218E-03
      0.190000          0.324652E-03
      0.195000          0.278124E-03
      0.200000          0.240217E-03
      0.205000          0.209673E-03
      0.210000          0.185379E-03
      0.215000          0.166355E-03
      0.220000          0.151746E-03
      0.225000          0.140809E-03
      0.230000          0.132898E-03
      0.235000          0.127453E-03
      0.240000          0.123993E-03
      0.245000          0.122105E-03
      0.250000          0.121435E-03
      0.255000          0.121683E-03
      0.260000          0.122594E-03
      0.265000          0.123956E-03
      0.270000          0.125594E-03
      0.275000          0.127363E-03
      0.280000          0.129149E-03
      0.285000          0.130861E-03
      0.290000          0.132432E-03
      0.295000          0.133810E-03
      0.300000          0.134962E-03
      0.305000          0.135864E-03
      0.310000          0.136505E-03
      0.315000          0.136883E-03
      0.320000          0.136998E-03
      0.325000          0.136860E-03
      0.330000          0.136480E-03
      0.335000          0.135870E-03
      0.340000          0.135049E-03
      0.345000          0.134033E-03
      0.350000          0.132841E-03
      0.355000          0.131493E-03
      0.360000          0.130011E-03
      0.365000          0.128417E-03
      0.370000          0.126733E-03
      0.375000          0.124983E-03
      0.380000          0.123190E-03
      0.385000          0.121377E-03
      0.390000          0.119568E-03
      0.395000          0.117784E-03
      0.400000          0.116044E-03
      0.405000          0.114365E-03
      0.410000          0.112763E-03
      0.415000          0.111249E-03
      0.420000          0.109829E-03
      0.425000          0.108507E-03
      0.430000          0.107283E-03
      0.435000          0.106152E-03
      0.440000          0.105107E-03
      0.445000          0.104137E-03
      0.450000          0.103228E-03
      0.455000          0.102366E-03
      0.460000          0.101534E-03
      0.465000          0.100715E-03
      0.470000          0.998939E-04
      0.475000          0.990561E-04
      0.480000          0.981890E-04
      0.485000          0.972825E-04
      0.490000          0.963291E-04
      0.495000          0.953246E-04
      0.500000          0.942677E-04
