 I_abs(s)[cm^-1]/c[mg/ml]
       0.00000          0.146111E-01
      0.500000E-02      0.145668E-01
      0.100000E-01      0.144349E-01
      0.150000E-01      0.142176E-01
      0.200000E-01      0.139192E-01
      0.250000E-01      0.135449E-01
      0.300000E-01      0.131016E-01
      0.350000E-01      0.125970E-01
      0.400000E-01      0.120397E-01
      0.450000E-01      0.114389E-01
      0.500000E-01      0.108042E-01
      0.550000E-01      0.101453E-01
      0.600000E-01      0.947166E-02
      0.650000E-01      0.879245E-02
      0.700000E-01      0.811625E-02
      0.750000E-01      0.745091E-02
      0.800000E-01      0.680341E-02
      0.850000E-01      0.617979E-02
      0.900000E-01      0.558506E-02
      0.950000E-01      0.502319E-02
      0.100000          0.449712E-02
      0.105000          0.400882E-02
      0.110000          0.355933E-02
      0.115000          0.314886E-02
      0.120000          0.277688E-02
      0.125000          0.244226E-02
      0.130000          0.214334E-02
      0.135000          0.187809E-02
      0.140000          0.164418E-02
      0.145000          0.143910E-02
      0.150000          0.126027E-02
      0.155000          0.110507E-02
      0.160000          0.970945E-03
      0.165000          0.855448E-03
      0.170000          0.756275E-03
      0.175000          0.671296E-03
      0.180000          0.598573E-03
      0.185000          0.536366E-03
      0.190000          0.483132E-03
      0.195000          0.437525E-03
      0.200000          0.398379E-03
      0.205000          0.364695E-03
      0.210000          0.335628E-03
      0.215000          0.310466E-03
      0.220000          0.288614E-03
      0.225000          0.269575E-03
      0.230000          0.252939E-03
      0.235000          0.238359E-03
      0.240000          0.225547E-03
      0.245000          0.214257E-03
      0.250000          0.204277E-03
      0.255000          0.195419E-03
      0.260000          0.187519E-03
      0.265000          0.180426E-03
      0.270000          0.174003E-03
      0.275000          0.168124E-03
      0.280000          0.162676E-03
      0.285000          0.157556E-03
      0.290000          0.152676E-03
      0.295000          0.147960E-03
      0.300000          0.143348E-03
      0.305000          0.138796E-03
      0.310000          0.134277E-03
      0.315000          0.129781E-03
      0.320000          0.125312E-03
      0.325000          0.120889E-03
      0.330000          0.116545E-03
      0.335000          0.112318E-03
      0.340000          0.108256E-03
      0.345000          0.104406E-03
      0.350000          0.100818E-03
      0.355000          0.975341E-04
      0.360000          0.945915E-04
      0.365000          0.920170E-04
      0.370000          0.898264E-04
      0.375000          0.880232E-04
      0.380000          0.865983E-04
      0.385000          0.855310E-04
      0.390000          0.847897E-04
      0.395000          0.843341E-04
      0.400000          0.841173E-04
      0.405000          0.840884E-04
      0.410000          0.841951E-04
      0.415000          0.843861E-04
      0.420000          0.846133E-04
      0.425000          0.848340E-04
      0.430000          0.850123E-04
      0.435000          0.851196E-04
      0.440000          0.851356E-04
      0.445000          0.850480E-04
      0.450000          0.848517E-04
      0.455000          0.845483E-04
      0.460000          0.841446E-04
      0.465000          0.836511E-04
      0.470000          0.830811E-04
      0.475000          0.824488E-04
      0.480000          0.817681E-04
      0.485000          0.810517E-04
      0.490000          0.803101E-04
      0.495000          0.795512E-04
      0.500000          0.787800E-04
