 I_abs(s)[cm^-1]/c[mg/ml]
       0.00000          0.147066E-01
      0.500000E-02      0.146614E-01
      0.100000E-01      0.145264E-01
      0.150000E-01      0.143041E-01
      0.200000E-01      0.139984E-01
      0.250000E-01      0.136145E-01
      0.300000E-01      0.131591E-01
      0.350000E-01      0.126399E-01
      0.400000E-01      0.120654E-01
      0.450000E-01      0.114448E-01
      0.500000E-01      0.107879E-01
      0.550000E-01      0.101045E-01
      0.600000E-01      0.940456E-02
      0.650000E-01      0.869762E-02
      0.700000E-01      0.799285E-02
      0.750000E-01      0.729877E-02
      0.800000E-01      0.662309E-02
      0.850000E-01      0.597260E-02
      0.900000E-01      0.535305E-02
      0.950000E-01      0.476916E-02
      0.100000          0.422450E-02
      0.105000          0.372158E-02
      0.110000          0.326185E-02
      0.115000          0.284577E-02
      0.120000          0.247291E-02
      0.125000          0.214203E-02
      0.130000          0.185126E-02
      0.135000          0.159814E-02
      0.140000          0.137982E-02
      0.145000          0.119318E-02
      0.150000          0.103491E-02
      0.155000          0.901682E-03
      0.160000          0.790193E-03
      0.165000          0.697293E-03
      0.170000          0.620038E-03
      0.175000          0.555739E-03
      0.180000          0.502008E-03
      0.185000          0.456767E-03
      0.190000          0.418263E-03
      0.195000          0.385051E-03
      0.200000          0.355986E-03
      0.205000          0.330187E-03
      0.210000          0.307010E-03
      0.215000          0.286008E-03
      0.220000          0.266897E-03
      0.225000          0.249513E-03
      0.230000          0.233783E-03
      0.235000          0.219685E-03
      0.240000          0.207228E-03
      0.245000          0.196424E-03
      0.250000          0.187273E-03
      0.255000          0.179748E-03
      0.260000          0.173792E-03
      0.265000          0.169313E-03
      0.270000          0.166184E-03
      0.275000          0.164249E-03
      0.280000          0.163330E-03
      0.285000          0.163232E-03
      0.290000          0.163753E-03
      0.295000          0.164694E-03
      0.300000          0.165864E-03
      0.305000          0.167087E-03
      0.310000          0.168209E-03
      0.315000          0.169103E-03
      0.320000          0.169666E-03
      0.325000          0.169825E-03
      0.330000          0.169534E-03
      0.335000          0.168770E-03
      0.340000          0.167534E-03
      0.345000          0.165847E-03
      0.350000          0.163741E-03
      0.355000          0.161263E-03
      0.360000          0.158464E-03
      0.365000          0.155400E-03
      0.370000          0.152124E-03
      0.375000          0.148692E-03
      0.380000          0.145152E-03
      0.385000          0.141547E-03
      0.390000          0.137915E-03
      0.395000          0.134287E-03
      0.400000          0.130689E-03
      0.405000          0.127140E-03
      0.410000          0.123656E-03
      0.415000          0.120249E-03
      0.420000          0.116928E-03
      0.425000          0.113700E-03
      0.430000          0.110572E-03
      0.435000          0.107551E-03
      0.440000          0.104642E-03
      0.445000          0.101852E-03
      0.450000          0.991867E-04
      0.455000          0.966541E-04
      0.460000          0.942603E-04
      0.465000          0.920117E-04
      0.470000          0.899135E-04
      0.475000          0.879698E-04
      0.480000          0.861833E-04
      0.485000          0.845547E-04
      0.490000          0.830824E-04
      0.495000          0.817631E-04
      0.500000          0.805913E-04
