 I_abs(s)[cm^-1]/c[mg/ml]
       0.00000          0.145159E-01
      0.500000E-02      0.144679E-01
      0.100000E-01      0.143249E-01
      0.150000E-01      0.140897E-01
      0.200000E-01      0.137671E-01
      0.250000E-01      0.133633E-01
      0.300000E-01      0.128861E-01
      0.350000E-01      0.123444E-01
      0.400000E-01      0.117483E-01
      0.450000E-01      0.111083E-01
      0.500000E-01      0.104354E-01
      0.550000E-01      0.974054E-02
      0.600000E-01      0.903453E-02
      0.650000E-01      0.832762E-02
      0.700000E-01      0.762934E-02
      0.750000E-01      0.694828E-02
      0.800000E-01      0.629195E-02
      0.850000E-01      0.566665E-02
      0.900000E-01      0.507745E-02
      0.950000E-01      0.452813E-02
      0.100000          0.402122E-02
      0.105000          0.355808E-02
      0.110000          0.313898E-02
      0.115000          0.276324E-02
      0.120000          0.242934E-02
      0.125000          0.213510E-02
      0.130000          0.187780E-02
      0.135000          0.165439E-02
      0.140000          0.146158E-02
      0.145000          0.129598E-02
      0.150000          0.115424E-02
      0.155000          0.103313E-02
      0.160000          0.929637E-03
      0.165000          0.840977E-03
      0.170000          0.764680E-03
      0.175000          0.698587E-03
      0.180000          0.640859E-03
      0.185000          0.589965E-03
      0.190000          0.544667E-03
      0.195000          0.503984E-03
      0.200000          0.467166E-03
      0.205000          0.433653E-03
      0.210000          0.403040E-03
      0.215000          0.375042E-03
      0.220000          0.349459E-03
      0.225000          0.326153E-03
      0.230000          0.305016E-03
      0.235000          0.285958E-03
      0.240000          0.268885E-03
      0.245000          0.253699E-03
      0.250000          0.240282E-03
      0.255000          0.228501E-03
      0.260000          0.218207E-03
      0.265000          0.209236E-03
      0.270000          0.201416E-03
      0.275000          0.194573E-03
      0.280000          0.188533E-03
      0.285000          0.183132E-03
      0.290000          0.178219E-03
      0.295000          0.173657E-03
      0.300000          0.169335E-03
      0.305000          0.165158E-03
      0.310000          0.161059E-03
      0.315000          0.156990E-03
      0.320000          0.152926E-03
      0.325000          0.148863E-03
      0.330000          0.144809E-03
      0.335000          0.140789E-03
      0.340000          0.136837E-03
      0.345000          0.132992E-03
      0.350000          0.129297E-03
      0.355000          0.125793E-03
      0.360000          0.122519E-03
      0.365000          0.119509E-03
      0.370000          0.116787E-03
      0.375000          0.114370E-03
      0.380000          0.112265E-03
      0.385000          0.110469E-03
      0.390000          0.108972E-03
      0.395000          0.107753E-03
      0.400000          0.106784E-03
      0.405000          0.106032E-03
      0.410000          0.105461E-03
      0.415000          0.105031E-03
      0.420000          0.104701E-03
      0.425000          0.104433E-03
      0.430000          0.104189E-03
      0.435000          0.103936E-03
      0.440000          0.103646E-03
      0.445000          0.103295E-03
      0.450000          0.102865E-03
      0.455000          0.102344E-03
      0.460000          0.101727E-03
      0.465000          0.101010E-03
      0.470000          0.100199E-03
      0.475000          0.993005E-04
      0.480000          0.983245E-04
      0.485000          0.972840E-04
      0.490000          0.961932E-04
      0.495000          0.950666E-04
      0.500000          0.939191E-04
