 I_abs(s)[cm^-1]/c[mg/ml]
       0.00000          0.144763E-01
      0.500000E-02      0.144215E-01
      0.100000E-01      0.142583E-01
      0.150000E-01      0.139908E-01
      0.200000E-01      0.136252E-01
      0.250000E-01      0.131700E-01
      0.300000E-01      0.126355E-01
      0.350000E-01      0.120337E-01
      0.400000E-01      0.113774E-01
      0.450000E-01      0.106802E-01
      0.500000E-01      0.995567E-02
      0.550000E-01      0.921722E-02
      0.600000E-01      0.847752E-02
      0.650000E-01      0.774821E-02
      0.700000E-01      0.703960E-02
      0.750000E-01      0.636046E-02
      0.800000E-01      0.571791E-02
      0.850000E-01      0.511730E-02
      0.900000E-01      0.456231E-02
      0.950000E-01      0.405497E-02
      0.100000          0.359583E-02
      0.105000          0.318414E-02
      0.110000          0.281804E-02
      0.115000          0.249485E-02
      0.120000          0.221123E-02
      0.125000          0.196346E-02
      0.130000          0.174765E-02
      0.135000          0.155989E-02
      0.140000          0.139641E-02
      0.145000          0.125374E-02
      0.150000          0.112874E-02
      0.155000          0.101866E-02
      0.160000          0.921176E-03
      0.165000          0.834377E-03
      0.170000          0.756722E-03
      0.175000          0.687006E-03
      0.180000          0.624307E-03
      0.185000          0.567925E-03
      0.190000          0.517328E-03
      0.195000          0.472097E-03
      0.200000          0.431884E-03
      0.205000          0.396370E-03
      0.210000          0.365244E-03
      0.215000          0.338183E-03
      0.220000          0.314841E-03
      0.225000          0.294853E-03
      0.230000          0.277833E-03
      0.235000          0.263389E-03
      0.240000          0.251130E-03
      0.245000          0.240679E-03
      0.250000          0.231682E-03
      0.255000          0.223823E-03
      0.260000          0.216824E-03
      0.265000          0.210454E-03
      0.270000          0.204529E-03
      0.275000          0.198912E-03
      0.280000          0.193509E-03
      0.285000          0.188262E-03
      0.290000          0.183147E-03
      0.295000          0.178164E-03
      0.300000          0.173329E-03
      0.305000          0.168669E-03
      0.310000          0.164217E-03
      0.315000          0.160003E-03
      0.320000          0.156054E-03
      0.325000          0.152387E-03
      0.330000          0.149010E-03
      0.335000          0.145920E-03
      0.340000          0.143103E-03
      0.345000          0.140536E-03
      0.350000          0.138188E-03
      0.355000          0.136020E-03
      0.360000          0.133990E-03
      0.365000          0.132055E-03
      0.370000          0.130171E-03
      0.375000          0.128298E-03
      0.380000          0.126402E-03
      0.385000          0.124452E-03
      0.390000          0.122427E-03
      0.395000          0.120315E-03
      0.400000          0.118110E-03
      0.405000          0.115817E-03
      0.410000          0.113446E-03
      0.415000          0.111015E-03
      0.420000          0.108548E-03
      0.425000          0.106071E-03
      0.430000          0.103611E-03
      0.435000          0.101197E-03
      0.440000          0.988546E-04
      0.445000          0.966074E-04
      0.450000          0.944737E-04
      0.455000          0.924668E-04
      0.460000          0.905944E-04
      0.465000          0.888585E-04
      0.470000          0.872560E-04
      0.475000          0.857794E-04
      0.480000          0.844180E-04
      0.485000          0.831591E-04
      0.490000          0.819892E-04
      0.495000          0.808956E-04
      0.500000          0.798674E-04
