 I_abs(s)[cm^-1]/c[mg/ml]
       0.00000          0.144288E-01
      0.500000E-02      0.143721E-01
      0.100000E-01      0.142033E-01
      0.150000E-01      0.139264E-01
      0.200000E-01      0.135483E-01
      0.250000E-01      0.130777E-01
      0.300000E-01      0.125256E-01
      0.350000E-01      0.119046E-01
      0.400000E-01      0.112280E-01
      0.450000E-01      0.105102E-01
      0.500000E-01      0.976535E-02
      0.550000E-01      0.900755E-02
      0.600000E-01      0.825003E-02
      0.650000E-01      0.750495E-02
      0.700000E-01      0.678309E-02
      0.750000E-01      0.609359E-02
      0.800000E-01      0.544386E-02
      0.850000E-01      0.483952E-02
      0.900000E-01      0.428438E-02
      0.950000E-01      0.378054E-02
      0.100000          0.332857E-02
      0.105000          0.292764E-02
      0.110000          0.257577E-02
      0.115000          0.227002E-02
      0.120000          0.200680E-02
      0.125000          0.178201E-02
      0.130000          0.159133E-02
      0.135000          0.143036E-02
      0.140000          0.129478E-02
      0.145000          0.118053E-02
      0.150000          0.108385E-02
      0.155000          0.100138E-02
      0.160000          0.930205E-03
      0.165000          0.867831E-03
      0.170000          0.812222E-03
      0.175000          0.761754E-03
      0.180000          0.715184E-03
      0.185000          0.671602E-03
      0.190000          0.630389E-03
      0.195000          0.591155E-03
      0.200000          0.553700E-03
      0.205000          0.517956E-03
      0.210000          0.483952E-03
      0.215000          0.451767E-03
      0.220000          0.421509E-03
      0.225000          0.393280E-03
      0.230000          0.367160E-03
      0.235000          0.343196E-03
      0.240000          0.321392E-03
      0.245000          0.301704E-03
      0.250000          0.284048E-03
      0.255000          0.268299E-03
      0.260000          0.254302E-03
      0.265000          0.241877E-03
      0.270000          0.230835E-03
      0.275000          0.220981E-03
      0.280000          0.212127E-03
      0.285000          0.204097E-03
      0.290000          0.196735E-03
      0.295000          0.189905E-03
      0.300000          0.183497E-03
      0.305000          0.177425E-03
      0.310000          0.171626E-03
      0.315000          0.166056E-03
      0.320000          0.160687E-03
      0.325000          0.155505E-03
      0.330000          0.150504E-03
      0.335000          0.145683E-03
      0.340000          0.141043E-03
      0.345000          0.136589E-03
      0.350000          0.132320E-03
      0.355000          0.128240E-03
      0.360000          0.124347E-03
      0.365000          0.120642E-03
      0.370000          0.117126E-03
      0.375000          0.113800E-03
      0.380000          0.110669E-03
      0.385000          0.107739E-03
      0.390000          0.105017E-03
      0.395000          0.102512E-03
      0.400000          0.100233E-03
      0.405000          0.981889E-04
      0.410000          0.963837E-04
      0.415000          0.948190E-04
      0.420000          0.934909E-04
      0.425000          0.923899E-04
      0.430000          0.915002E-04
      0.435000          0.907998E-04
      0.440000          0.902620E-04
      0.445000          0.898558E-04
      0.450000          0.895477E-04
      0.455000          0.893039E-04
      0.460000          0.890914E-04
      0.465000          0.888807E-04
      0.470000          0.886468E-04
      0.475000          0.883705E-04
      0.480000          0.880395E-04
      0.485000          0.876485E-04
      0.490000          0.871987E-04
      0.495000          0.866977E-04
      0.500000          0.861578E-04
