 I_abs(s)[cm^-1]/c[mg/ml]
       0.00000          0.144763E-01
      0.500000E-02      0.144301E-01
      0.100000E-01      0.142923E-01
      0.150000E-01      0.140659E-01
      0.200000E-01      0.137551E-01
      0.250000E-01      0.133660E-01
      0.300000E-01      0.129062E-01
      0.350000E-01      0.123842E-01
      0.400000E-01      0.118094E-01
      0.450000E-01      0.111921E-01
      0.500000E-01      0.105426E-01
      0.550000E-01      0.987138E-02
      0.600000E-01      0.918872E-02
      0.650000E-01      0.850431E-02
      0.700000E-01      0.782717E-02
      0.750000E-01      0.716540E-02
      0.800000E-01      0.652606E-02
      0.850000E-01      0.591508E-02
      0.900000E-01      0.533718E-02
      0.950000E-01      0.479591E-02
      0.100000          0.429363E-02
      0.105000          0.383161E-02
      0.110000          0.341014E-02
      0.115000          0.302861E-02
      0.120000          0.268568E-02
      0.125000          0.237940E-02
      0.130000          0.210739E-02
      0.135000          0.186694E-02
      0.140000          0.165518E-02
      0.145000          0.146917E-02
      0.150000          0.130602E-02
      0.155000          0.116296E-02
      0.160000          0.103740E-02
      0.165000          0.927016E-03
      0.170000          0.829713E-03
      0.175000          0.743683E-03
      0.180000          0.667382E-03
      0.185000          0.599521E-03
      0.190000          0.539041E-03
      0.195000          0.485084E-03
      0.200000          0.436966E-03
      0.205000          0.394137E-03
      0.210000          0.356158E-03
      0.215000          0.322664E-03
      0.220000          0.293343E-03
      0.225000          0.267915E-03
      0.230000          0.246113E-03
      0.235000          0.227673E-03
      0.240000          0.212325E-03
      0.245000          0.199788E-03
      0.250000          0.189772E-03
      0.255000          0.181976E-03
      0.260000          0.176096E-03
      0.265000          0.171826E-03
      0.270000          0.168865E-03
      0.275000          0.166924E-03
      0.280000          0.165730E-03
      0.285000          0.165031E-03
      0.290000          0.164602E-03
      0.295000          0.164245E-03
      0.300000          0.163795E-03
      0.305000          0.163119E-03
      0.310000          0.162116E-03
      0.315000          0.160717E-03
      0.320000          0.158884E-03
      0.325000          0.156606E-03
      0.330000          0.153899E-03
      0.335000          0.150797E-03
      0.340000          0.147356E-03
      0.345000          0.143643E-03
      0.350000          0.139734E-03
      0.355000          0.135714E-03
      0.360000          0.131667E-03
      0.365000          0.127675E-03
      0.370000          0.123816E-03
      0.375000          0.120160E-03
      0.380000          0.116766E-03
      0.385000          0.113682E-03
      0.390000          0.110941E-03
      0.395000          0.108564E-03
      0.400000          0.106558E-03
      0.405000          0.104918E-03
      0.410000          0.103624E-03
      0.415000          0.102647E-03
      0.420000          0.101952E-03
      0.425000          0.101492E-03
      0.430000          0.101220E-03
      0.435000          0.101083E-03
      0.440000          0.101030E-03
      0.445000          0.101010E-03
      0.450000          0.100976E-03
      0.455000          0.100886E-03
      0.460000          0.100703E-03
      0.465000          0.100397E-03
      0.470000          0.999468E-04
      0.475000          0.993358E-04
      0.480000          0.985562E-04
      0.485000          0.976065E-04
      0.490000          0.964913E-04
      0.495000          0.952203E-04
      0.500000          0.938078E-04
