 I_abs(s)[cm^-1]/c[mg/ml]
       0.00000          0.146190E-01
      0.500000E-02      0.145774E-01
      0.100000E-01      0.144532E-01
      0.150000E-01      0.142485E-01
      0.200000E-01      0.139667E-01
      0.250000E-01      0.136124E-01
      0.300000E-01      0.131915E-01
      0.350000E-01      0.127106E-01
      0.400000E-01      0.121773E-01
      0.450000E-01      0.115997E-01
      0.500000E-01      0.109862E-01
      0.550000E-01      0.103458E-01
      0.600000E-01      0.968700E-02
      0.650000E-01      0.901846E-02
      0.700000E-01      0.834835E-02
      0.750000E-01      0.768436E-02
      0.800000E-01      0.703348E-02
      0.850000E-01      0.640200E-02
      0.900000E-01      0.579530E-02
      0.950000E-01      0.521793E-02
      0.100000          0.467347E-02
      0.105000          0.416461E-02
      0.110000          0.369316E-02
      0.115000          0.326005E-02
      0.120000          0.286548E-02
      0.125000          0.250894E-02
      0.130000          0.218933E-02
      0.135000          0.190504E-02
      0.140000          0.165408E-02
      0.145000          0.143414E-02
      0.150000          0.124274E-02
      0.155000          0.107726E-02
      0.160000          0.935059E-03
      0.165000          0.813542E-03
      0.170000          0.710199E-03
      0.175000          0.622662E-03
      0.180000          0.548740E-03
      0.185000          0.486438E-03
      0.190000          0.433971E-03
      0.195000          0.389765E-03
      0.200000          0.352456E-03
      0.205000          0.320875E-03
      0.210000          0.294037E-03
      0.215000          0.271120E-03
      0.220000          0.251448E-03
      0.225000          0.234467E-03
      0.230000          0.219727E-03
      0.235000          0.206865E-03
      0.240000          0.195586E-03
      0.245000          0.185649E-03
      0.250000          0.176855E-03
      0.255000          0.169037E-03
      0.260000          0.162055E-03
      0.265000          0.155786E-03
      0.270000          0.150124E-03
      0.275000          0.144975E-03
      0.280000          0.140259E-03
      0.285000          0.135904E-03
      0.290000          0.131851E-03
      0.295000          0.128051E-03
      0.300000          0.124464E-03
      0.305000          0.121061E-03
      0.310000          0.117820E-03
      0.315000          0.114730E-03
      0.320000          0.111784E-03
      0.325000          0.108980E-03
      0.330000          0.106323E-03
      0.335000          0.103815E-03
      0.340000          0.101464E-03
      0.345000          0.992724E-04
      0.350000          0.972439E-04
      0.355000          0.953782E-04
      0.360000          0.936721E-04
      0.365000          0.921189E-04
      0.370000          0.907088E-04
      0.375000          0.894291E-04
      0.380000          0.882650E-04
      0.385000          0.872003E-04
      0.390000          0.862181E-04
      0.395000          0.853023E-04
      0.400000          0.844377E-04
      0.405000          0.836114E-04
      0.410000          0.828131E-04
      0.415000          0.820355E-04
      0.420000          0.812747E-04
      0.425000          0.805298E-04
      0.430000          0.798032E-04
      0.435000          0.790999E-04
      0.440000          0.784270E-04
      0.445000          0.777927E-04
      0.450000          0.772062E-04
      0.455000          0.766763E-04
      0.460000          0.762112E-04
      0.465000          0.758173E-04
      0.470000          0.754990E-04
      0.475000          0.752581E-04
      0.480000          0.750936E-04
      0.485000          0.750016E-04
      0.490000          0.749754E-04
      0.495000          0.750055E-04
      0.500000          0.750801E-04
