 I_abs(s)[cm^-1]/c[mg/ml]
       0.00000          0.146588E-01
      0.500000E-02      0.146154E-01
      0.100000E-01      0.144857E-01
      0.150000E-01      0.142721E-01
      0.200000E-01      0.139781E-01
      0.250000E-01      0.136087E-01
      0.300000E-01      0.131699E-01
      0.350000E-01      0.126690E-01
      0.400000E-01      0.121138E-01
      0.450000E-01      0.115131E-01
      0.500000E-01      0.108759E-01
      0.550000E-01      0.102115E-01
      0.600000E-01      0.952933E-02
      0.650000E-01      0.883845E-02
      0.700000E-01      0.814765E-02
      0.750000E-01      0.746512E-02
      0.800000E-01      0.679838E-02
      0.850000E-01      0.615410E-02
      0.900000E-01      0.553804E-02
      0.950000E-01      0.495498E-02
      0.100000          0.440868E-02
      0.105000          0.390190E-02
      0.110000          0.343637E-02
      0.115000          0.301291E-02
      0.120000          0.263146E-02
      0.125000          0.229116E-02
      0.130000          0.199048E-02
      0.135000          0.172733E-02
      0.140000          0.149918E-02
      0.145000          0.130313E-02
      0.150000          0.113611E-02
      0.155000          0.994905E-03
      0.160000          0.876317E-03
      0.165000          0.777216E-03
      0.170000          0.694624E-03
      0.175000          0.625777E-03
      0.180000          0.568165E-03
      0.185000          0.519567E-03
      0.190000          0.478061E-03
      0.195000          0.442030E-03
      0.200000          0.410157E-03
      0.205000          0.381404E-03
      0.210000          0.354988E-03
      0.215000          0.330353E-03
      0.220000          0.307135E-03
      0.225000          0.285128E-03
      0.230000          0.264249E-03
      0.235000          0.244503E-03
      0.240000          0.225955E-03
      0.245000          0.208700E-03
      0.250000          0.192844E-03
      0.255000          0.178479E-03
      0.260000          0.165676E-03
      0.265000          0.154474E-03
      0.270000          0.144869E-03
      0.275000          0.136822E-03
      0.280000          0.130254E-03
      0.285000          0.125050E-03
      0.290000          0.121071E-03
      0.295000          0.118153E-03
      0.300000          0.116121E-03
      0.305000          0.114795E-03
      0.310000          0.113996E-03
      0.315000          0.113556E-03
      0.320000          0.113318E-03
      0.325000          0.113146E-03
      0.330000          0.112927E-03
      0.335000          0.112570E-03
      0.340000          0.112010E-03
      0.345000          0.111204E-03
      0.350000          0.110133E-03
      0.355000          0.108798E-03
      0.360000          0.107218E-03
      0.365000          0.105424E-03
      0.370000          0.103460E-03
      0.375000          0.101377E-03
      0.380000          0.992286E-04
      0.385000          0.970703E-04
      0.390000          0.949558E-04
      0.395000          0.929345E-04
      0.400000          0.910497E-04
      0.405000          0.893377E-04
      0.410000          0.878260E-04
      0.415000          0.865337E-04
      0.420000          0.854708E-04
      0.425000          0.846385E-04
      0.430000          0.840302E-04
      0.435000          0.836316E-04
      0.440000          0.834223E-04
      0.445000          0.833768E-04
      0.450000          0.834653E-04
      0.455000          0.836555E-04
      0.460000          0.839134E-04
      0.465000          0.842047E-04
      0.470000          0.844960E-04
      0.475000          0.847555E-04
      0.480000          0.849543E-04
      0.485000          0.850667E-04
      0.490000          0.850715E-04
      0.495000          0.849515E-04
      0.500000          0.846946E-04
