 I_abs(s)[cm^-1]/c[mg/ml]
       0.00000          0.145396E-01
      0.500000E-02      0.144959E-01
      0.100000E-01      0.143656E-01
      0.150000E-01      0.141512E-01
      0.200000E-01      0.138569E-01
      0.250000E-01      0.134882E-01
      0.300000E-01      0.130519E-01
      0.350000E-01      0.125559E-01
      0.400000E-01      0.120090E-01
      0.450000E-01      0.114203E-01
      0.500000E-01      0.107994E-01
      0.550000E-01      0.101559E-01
      0.600000E-01      0.949916E-02
      0.650000E-01      0.883794E-02
      0.700000E-01      0.818052E-02
      0.750000E-01      0.753430E-02
      0.800000E-01      0.690579E-02
      0.850000E-01      0.630047E-02
      0.900000E-01      0.572280E-02
      0.950000E-01      0.517621E-02
      0.100000          0.466313E-02
      0.105000          0.418505E-02
      0.110000          0.374264E-02
      0.115000          0.333585E-02
      0.120000          0.296399E-02
      0.125000          0.262589E-02
      0.130000          0.232000E-02
      0.135000          0.204450E-02
      0.140000          0.179741E-02
      0.145000          0.157667E-02
      0.150000          0.138021E-02
      0.155000          0.120599E-02
      0.160000          0.105206E-02
      0.165000          0.916597E-03
      0.170000          0.797873E-03
      0.175000          0.694303E-03
      0.180000          0.604421E-03
      0.185000          0.526874E-03
      0.190000          0.460414E-03
      0.195000          0.403880E-03
      0.200000          0.356195E-03
      0.205000          0.316346E-03
      0.210000          0.283387E-03
      0.215000          0.256427E-03
      0.220000          0.234630E-03
      0.225000          0.217217E-03
      0.230000          0.203466E-03
      0.235000          0.192716E-03
      0.240000          0.184367E-03
      0.245000          0.177886E-03
      0.250000          0.172806E-03
      0.255000          0.168728E-03
      0.260000          0.165321E-03
      0.265000          0.162313E-03
      0.270000          0.159497E-03
      0.275000          0.156715E-03
      0.280000          0.153860E-03
      0.285000          0.150864E-03
      0.290000          0.147694E-03
      0.295000          0.144344E-03
      0.300000          0.140826E-03
      0.305000          0.137169E-03
      0.310000          0.133410E-03
      0.315000          0.129593E-03
      0.320000          0.125760E-03
      0.325000          0.121958E-03
      0.330000          0.118225E-03
      0.335000          0.114601E-03
      0.340000          0.111117E-03
      0.345000          0.107803E-03
      0.350000          0.104680E-03
      0.355000          0.101767E-03
      0.360000          0.990766E-04
      0.365000          0.966157E-04
      0.370000          0.943869E-04
      0.375000          0.923879E-04
      0.380000          0.906115E-04
      0.385000          0.890463E-04
      0.390000          0.876769E-04
      0.395000          0.864847E-04
      0.400000          0.854481E-04
      0.405000          0.845441E-04
      0.410000          0.837482E-04
      0.415000          0.830362E-04
      0.420000          0.823846E-04
      0.425000          0.817716E-04
      0.430000          0.811781E-04
      0.435000          0.805878E-04
      0.440000          0.799883E-04
      0.445000          0.793707E-04
      0.450000          0.787301E-04
      0.455000          0.780651E-04
      0.460000          0.773776E-04
      0.465000          0.766722E-04
      0.470000          0.759555E-04
      0.475000          0.752356E-04
      0.480000          0.745212E-04
      0.485000          0.738207E-04
      0.490000          0.731422E-04
      0.495000          0.724920E-04
      0.500000          0.718753E-04
