 I_abs(s)[cm^-1]/c[mg/ml]
       0.00000          0.144130E-01
      0.500000E-02      0.143507E-01
      0.100000E-01      0.141657E-01
      0.150000E-01      0.138632E-01
      0.200000E-01      0.134519E-01
      0.250000E-01      0.129432E-01
      0.300000E-01      0.123511E-01
      0.350000E-01      0.116910E-01
      0.400000E-01      0.109795E-01
      0.450000E-01      0.102333E-01
      0.500000E-01      0.946916E-02
      0.550000E-01      0.870246E-02
      0.600000E-01      0.794729E-02
      0.650000E-01      0.721583E-02
      0.700000E-01      0.651810E-02
      0.750000E-01      0.586180E-02
      0.800000E-01      0.525235E-02
      0.850000E-01      0.469296E-02
      0.900000E-01      0.418481E-02
      0.950000E-01      0.372741E-02
      0.100000          0.331881E-02
      0.105000          0.295607E-02
      0.110000          0.263548E-02
      0.115000          0.235298E-02
      0.120000          0.210436E-02
      0.125000          0.188553E-02
      0.130000          0.169268E-02
      0.135000          0.152235E-02
      0.140000          0.137155E-02
      0.145000          0.123771E-02
      0.150000          0.111868E-02
      0.155000          0.101268E-02
      0.160000          0.918230E-03
      0.165000          0.834076E-03
      0.170000          0.759137E-03
      0.175000          0.692446E-03
      0.180000          0.633115E-03
      0.185000          0.580313E-03
      0.190000          0.533251E-03
      0.195000          0.491192E-03
      0.200000          0.453453E-03
      0.205000          0.419425E-03
      0.210000          0.388580E-03
      0.215000          0.360484E-03
      0.220000          0.334803E-03
      0.225000          0.311294E-03
      0.230000          0.289801E-03
      0.235000          0.270238E-03
      0.240000          0.252566E-03
      0.245000          0.236776E-03
      0.250000          0.222864E-03
      0.255000          0.210814E-03
      0.260000          0.200583E-03
      0.265000          0.192088E-03
      0.270000          0.185207E-03
      0.275000          0.179776E-03
      0.280000          0.175599E-03
      0.285000          0.172456E-03
      0.290000          0.170117E-03
      0.295000          0.168352E-03
      0.300000          0.166948E-03
      0.305000          0.165715E-03
      0.310000          0.164497E-03
      0.315000          0.163172E-03
      0.320000          0.161660E-03
      0.325000          0.159914E-03
      0.330000          0.157920E-03
      0.335000          0.155687E-03
      0.340000          0.153246E-03
      0.345000          0.150637E-03
      0.350000          0.147904E-03
      0.355000          0.145094E-03
      0.360000          0.142247E-03
      0.365000          0.139397E-03
      0.370000          0.136572E-03
      0.375000          0.133790E-03
      0.380000          0.131067E-03
      0.385000          0.128411E-03
      0.390000          0.125829E-03
      0.395000          0.123326E-03
      0.400000          0.120909E-03
      0.405000          0.118581E-03
      0.410000          0.116349E-03
      0.415000          0.114217E-03
      0.420000          0.112189E-03
      0.425000          0.110266E-03
      0.430000          0.108447E-03
      0.435000          0.106727E-03
      0.440000          0.105097E-03
      0.445000          0.103546E-03
      0.450000          0.102063E-03
      0.455000          0.100633E-03
      0.460000          0.992441E-04
      0.465000          0.978859E-04
      0.470000          0.965523E-04
      0.475000          0.952416E-04
      0.480000          0.939576E-04
      0.485000          0.927093E-04
      0.490000          0.915101E-04
      0.495000          0.903771E-04
      0.500000          0.893293E-04
