 I_abs(s)[cm^-1]/c[mg/ml]
       0.00000          0.145000E-01
      0.500000E-02      0.144602E-01
      0.100000E-01      0.143412E-01
      0.150000E-01      0.141451E-01
      0.200000E-01      0.138749E-01
      0.250000E-01      0.135348E-01
      0.300000E-01      0.131300E-01
      0.350000E-01      0.126668E-01
      0.400000E-01      0.121519E-01
      0.450000E-01      0.115929E-01
      0.500000E-01      0.109977E-01
      0.550000E-01      0.103744E-01
      0.600000E-01      0.973134E-02
      0.650000E-01      0.907653E-02
      0.700000E-01      0.841785E-02
      0.750000E-01      0.776277E-02
      0.800000E-01      0.711817E-02
      0.850000E-01      0.649033E-02
      0.900000E-01      0.588477E-02
      0.950000E-01      0.530621E-02
      0.100000          0.475856E-02
      0.105000          0.424485E-02
      0.110000          0.376728E-02
      0.115000          0.332722E-02
      0.120000          0.292530E-02
      0.125000          0.256142E-02
      0.130000          0.223484E-02
      0.135000          0.194428E-02
      0.140000          0.168801E-02
      0.145000          0.146392E-02
      0.150000          0.126960E-02
      0.155000          0.110251E-02
      0.160000          0.959943E-03
      0.165000          0.839210E-03
      0.170000          0.737643E-03
      0.175000          0.652674E-03
      0.180000          0.581884E-03
      0.185000          0.523034E-03
      0.190000          0.474094E-03
      0.195000          0.433258E-03
      0.200000          0.398954E-03
      0.205000          0.369839E-03
      0.210000          0.344794E-03
      0.215000          0.322906E-03
      0.220000          0.303458E-03
      0.225000          0.285897E-03
      0.230000          0.269822E-03
      0.235000          0.254952E-03
      0.240000          0.241104E-03
      0.245000          0.228176E-03
      0.250000          0.216117E-03
      0.255000          0.204918E-03
      0.260000          0.194589E-03
      0.265000          0.185149E-03
      0.270000          0.176614E-03
      0.275000          0.168993E-03
      0.280000          0.162278E-03
      0.285000          0.156446E-03
      0.290000          0.151453E-03
      0.295000          0.147239E-03
      0.300000          0.143732E-03
      0.305000          0.140844E-03
      0.310000          0.138480E-03
      0.315000          0.136543E-03
      0.320000          0.134933E-03
      0.325000          0.133554E-03
      0.330000          0.132317E-03
      0.335000          0.131143E-03
      0.340000          0.129964E-03
      0.345000          0.128723E-03
      0.350000          0.127378E-03
      0.355000          0.125901E-03
      0.360000          0.124275E-03
      0.365000          0.122497E-03
      0.370000          0.120572E-03
      0.375000          0.118515E-03
      0.380000          0.116349E-03
      0.385000          0.114099E-03
      0.390000          0.111795E-03
      0.395000          0.109469E-03
      0.400000          0.107150E-03
      0.405000          0.104865E-03
      0.410000          0.102641E-03
      0.415000          0.100498E-03
      0.420000          0.984525E-04
      0.425000          0.965156E-04
      0.430000          0.946940E-04
      0.435000          0.929894E-04
      0.440000          0.913993E-04
      0.445000          0.899173E-04
      0.450000          0.885340E-04
      0.455000          0.872374E-04
      0.460000          0.860141E-04
      0.465000          0.848497E-04
      0.470000          0.837299E-04
      0.475000          0.826405E-04
      0.480000          0.815689E-04
      0.485000          0.805038E-04
      0.490000          0.794360E-04
      0.495000          0.783584E-04
      0.500000          0.772664E-04
