 I_abs(s)[cm^-1]/c[mg/ml]
       0.00000          0.145714E-01
      0.500000E-02      0.145292E-01
      0.100000E-01      0.144033E-01
      0.150000E-01      0.141959E-01
      0.200000E-01      0.139104E-01
      0.250000E-01      0.135516E-01
      0.300000E-01      0.131254E-01
      0.350000E-01      0.126386E-01
      0.400000E-01      0.120988E-01
      0.450000E-01      0.115145E-01
      0.500000E-01      0.108943E-01
      0.550000E-01      0.102470E-01
      0.600000E-01      0.958178E-02
      0.650000E-01      0.890721E-02
      0.700000E-01      0.823170E-02
      0.750000E-01      0.756308E-02
      0.800000E-01      0.690850E-02
      0.850000E-01      0.627434E-02
      0.900000E-01      0.566610E-02
      0.950000E-01      0.508833E-02
      0.100000          0.454466E-02
      0.105000          0.403774E-02
      0.110000          0.356933E-02
      0.115000          0.314029E-02
      0.120000          0.275069E-02
      0.125000          0.239988E-02
      0.130000          0.208659E-02
      0.135000          0.180907E-02
      0.140000          0.156512E-02
      0.145000          0.135227E-02
      0.150000          0.116788E-02
      0.155000          0.100917E-02
      0.160000          0.873375E-03
      0.165000          0.757790E-03
      0.170000          0.659831E-03
      0.175000          0.577086E-03
      0.180000          0.507348E-03
      0.185000          0.448640E-03
      0.190000          0.399218E-03
      0.195000          0.357575E-03
      0.200000          0.322432E-03
      0.205000          0.292722E-03
      0.210000          0.267565E-03
      0.215000          0.246249E-03
      0.220000          0.228202E-03
      0.225000          0.212966E-03
      0.230000          0.200175E-03
      0.235000          0.189529E-03
      0.240000          0.180778E-03
      0.245000          0.173707E-03
      0.250000          0.168119E-03
      0.255000          0.163832E-03
      0.260000          0.160668E-03
      0.265000          0.158455E-03
      0.270000          0.157023E-03
      0.275000          0.156207E-03
      0.280000          0.155849E-03
      0.285000          0.155802E-03
      0.290000          0.155930E-03
      0.295000          0.156115E-03
      0.300000          0.156256E-03
      0.305000          0.156273E-03
      0.310000          0.156104E-03
      0.315000          0.155709E-03
      0.320000          0.155063E-03
      0.325000          0.154159E-03
      0.330000          0.153001E-03
      0.335000          0.151606E-03
      0.340000          0.149993E-03
      0.345000          0.148189E-03
      0.350000          0.146219E-03
      0.355000          0.144107E-03
      0.360000          0.141871E-03
      0.365000          0.139529E-03
      0.370000          0.137090E-03
      0.375000          0.134558E-03
      0.380000          0.131935E-03
      0.385000          0.129217E-03
      0.390000          0.126401E-03
      0.395000          0.123481E-03
      0.400000          0.120455E-03
      0.405000          0.117324E-03
      0.410000          0.114093E-03
      0.415000          0.110772E-03
      0.420000          0.107380E-03
      0.425000          0.103938E-03
      0.430000          0.100479E-03
      0.435000          0.970372E-04
      0.440000          0.936522E-04
      0.445000          0.903670E-04
      0.450000          0.872253E-04
      0.455000          0.842701E-04
      0.460000          0.815420E-04
      0.465000          0.790766E-04
      0.470000          0.769038E-04
      0.475000          0.750456E-04
      0.480000          0.735157E-04
      0.485000          0.723183E-04
      0.490000          0.714479E-04
      0.495000          0.708898E-04
      0.500000          0.706204E-04
