 I_abs(s)[cm^-1]/c[mg/ml]
       0.00000          0.145238E-01
      0.500000E-02      0.144790E-01
      0.100000E-01      0.143454E-01
      0.150000E-01      0.141255E-01
      0.200000E-01      0.138233E-01
      0.250000E-01      0.134443E-01
      0.300000E-01      0.129953E-01
      0.350000E-01      0.124840E-01
      0.400000E-01      0.119192E-01
      0.450000E-01      0.113102E-01
      0.500000E-01      0.106669E-01
      0.550000E-01      0.999905E-02
      0.600000E-01      0.931649E-02
      0.650000E-01      0.862864E-02
      0.700000E-01      0.794439E-02
      0.750000E-01      0.727193E-02
      0.800000E-01      0.661855E-02
      0.850000E-01      0.599057E-02
      0.900000E-01      0.539325E-02
      0.950000E-01      0.483074E-02
      0.100000          0.430614E-02
      0.105000          0.382143E-02
      0.110000          0.337762E-02
      0.115000          0.297481E-02
      0.120000          0.261228E-02
      0.125000          0.228861E-02
      0.130000          0.200183E-02
      0.135000          0.174955E-02
      0.140000          0.152903E-02
      0.145000          0.133740E-02
      0.150000          0.117169E-02
      0.155000          0.102893E-02
      0.160000          0.906291E-03
      0.165000          0.801087E-03
      0.170000          0.710851E-03
      0.175000          0.633362E-03
      0.180000          0.566661E-03
      0.185000          0.509051E-03
      0.190000          0.459095E-03
      0.195000          0.415596E-03
      0.200000          0.377571E-03
      0.205000          0.344232E-03
      0.210000          0.314946E-03
      0.215000          0.289215E-03
      0.220000          0.266640E-03
      0.225000          0.246903E-03
      0.230000          0.229740E-03
      0.235000          0.214922E-03
      0.240000          0.202247E-03
      0.245000          0.191522E-03
      0.250000          0.182562E-03
      0.255000          0.175187E-03
      0.260000          0.169216E-03
      0.265000          0.164471E-03
      0.270000          0.160778E-03
      0.275000          0.157973E-03
      0.280000          0.155897E-03
      0.285000          0.154408E-03
      0.290000          0.153374E-03
      0.295000          0.152680E-03
      0.300000          0.152226E-03
      0.305000          0.151925E-03
      0.310000          0.151707E-03
      0.315000          0.151513E-03
      0.320000          0.151295E-03
      0.325000          0.151016E-03
      0.330000          0.150642E-03
      0.335000          0.150151E-03
      0.340000          0.149521E-03
      0.345000          0.148735E-03
      0.350000          0.147782E-03
      0.355000          0.146649E-03
      0.360000          0.145332E-03
      0.365000          0.143825E-03
      0.370000          0.142129E-03
      0.375000          0.140247E-03
      0.380000          0.138186E-03
      0.385000          0.135958E-03
      0.390000          0.133578E-03
      0.395000          0.131066E-03
      0.400000          0.128441E-03
      0.405000          0.125729E-03
      0.410000          0.122953E-03
      0.415000          0.120138E-03
      0.420000          0.117310E-03
      0.425000          0.114490E-03
      0.430000          0.111697E-03
      0.435000          0.108950E-03
      0.440000          0.106261E-03
      0.445000          0.103641E-03
      0.450000          0.101094E-03
      0.455000          0.986252E-04
      0.460000          0.962334E-04
      0.465000          0.939169E-04
      0.470000          0.916721E-04
      0.475000          0.894948E-04
      0.480000          0.873809E-04
      0.485000          0.853267E-04
      0.490000          0.833302E-04
      0.495000          0.813909E-04
      0.500000          0.795102E-04
