 I_abs(s)[cm^-1]/c[mg/ml]
       0.00000          0.146111E-01
      0.500000E-02      0.145656E-01
      0.100000E-01      0.144301E-01
      0.150000E-01      0.142069E-01
      0.200000E-01      0.139002E-01
      0.250000E-01      0.135154E-01
      0.300000E-01      0.130595E-01
      0.350000E-01      0.125404E-01
      0.400000E-01      0.119668E-01
      0.450000E-01      0.113483E-01
      0.500000E-01      0.106949E-01
      0.550000E-01      0.100164E-01
      0.600000E-01      0.932304E-02
      0.650000E-01      0.862431E-02
      0.700000E-01      0.792935E-02
      0.750000E-01      0.724656E-02
      0.800000E-01      0.658348E-02
      0.850000E-01      0.594665E-02
      0.900000E-01      0.534156E-02
      0.950000E-01      0.477260E-02
      0.100000          0.424303E-02
      0.105000          0.375503E-02
      0.110000          0.330975E-02
      0.115000          0.290738E-02
      0.120000          0.254726E-02
      0.125000          0.222799E-02
      0.130000          0.194755E-02
      0.135000          0.170344E-02
      0.140000          0.149278E-02
      0.145000          0.131248E-02
      0.150000          0.115932E-02
      0.155000          0.103004E-02
      0.160000          0.921481E-03
      0.165000          0.830606E-03
      0.170000          0.754590E-03
      0.175000          0.690854E-03
      0.180000          0.637095E-03
      0.185000          0.591299E-03
      0.190000          0.551748E-03
      0.195000          0.517009E-03
      0.200000          0.485921E-03
      0.205000          0.457569E-03
      0.210000          0.431263E-03
      0.215000          0.406502E-03
      0.220000          0.382947E-03
      0.225000          0.360391E-03
      0.230000          0.338726E-03
      0.235000          0.317922E-03
      0.240000          0.297998E-03
      0.245000          0.279003E-03
      0.250000          0.261002E-03
      0.255000          0.244059E-03
      0.260000          0.228229E-03
      0.265000          0.213548E-03
      0.270000          0.200037E-03
      0.275000          0.187690E-03
      0.280000          0.176483E-03
      0.285000          0.166372E-03
      0.290000          0.157298E-03
      0.295000          0.149188E-03
      0.300000          0.141961E-03
      0.305000          0.135532E-03
      0.310000          0.129818E-03
      0.315000          0.124735E-03
      0.320000          0.120208E-03
      0.325000          0.116166E-03
      0.330000          0.112552E-03
      0.335000          0.109314E-03
      0.340000          0.106411E-03
      0.345000          0.103810E-03
      0.350000          0.101489E-03
      0.355000          0.994279E-04
      0.360000          0.976138E-04
      0.365000          0.960362E-04
      0.370000          0.946863E-04
      0.375000          0.935551E-04
      0.380000          0.926324E-04
      0.385000          0.919060E-04
      0.390000          0.913606E-04
      0.395000          0.909783E-04
      0.400000          0.907379E-04
      0.405000          0.906157E-04
      0.410000          0.905859E-04
      0.415000          0.906215E-04
      0.420000          0.906950E-04
      0.425000          0.907793E-04
      0.430000          0.908489E-04
      0.435000          0.908806E-04
      0.440000          0.908540E-04
      0.445000          0.907523E-04
      0.450000          0.905628E-04
      0.455000          0.902764E-04
      0.460000          0.898885E-04
      0.465000          0.893980E-04
      0.470000          0.888074E-04
      0.475000          0.881219E-04
      0.480000          0.873493E-04
      0.485000          0.864988E-04
      0.490000          0.855810E-04
      0.495000          0.846065E-04
      0.500000          0.835859E-04
