 I_abs(s)[cm^-1]/c[mg/ml]
       0.00000          0.146270E-01
      0.500000E-02      0.145845E-01
      0.100000E-01      0.144577E-01
      0.150000E-01      0.142490E-01
      0.200000E-01      0.139622E-01
      0.250000E-01      0.136023E-01
      0.300000E-01      0.131756E-01
      0.350000E-01      0.126896E-01
      0.400000E-01      0.121522E-01
      0.450000E-01      0.115722E-01
      0.500000E-01      0.109586E-01
      0.550000E-01      0.103205E-01
      0.600000E-01      0.966680E-02
      0.650000E-01      0.900619E-02
      0.700000E-01      0.834672E-02
      0.750000E-01      0.769582E-02
      0.800000E-01      0.706009E-02
      0.850000E-01      0.644522E-02
      0.900000E-01      0.585598E-02
      0.950000E-01      0.529617E-02
      0.100000          0.476862E-02
      0.105000          0.427528E-02
      0.110000          0.381725E-02
      0.115000          0.339488E-02
      0.120000          0.300785E-02
      0.125000          0.265531E-02
      0.130000          0.233598E-02
      0.135000          0.204821E-02
      0.140000          0.179016E-02
      0.145000          0.155982E-02
      0.150000          0.135512E-02
      0.155000          0.117399E-02
      0.160000          0.101442E-02
      0.165000          0.874462E-03
      0.170000          0.752300E-03
      0.175000          0.646231E-03
      0.180000          0.554682E-03
      0.185000          0.476202E-03
      0.190000          0.409457E-03
      0.195000          0.353214E-03
      0.200000          0.306336E-03
      0.205000          0.267764E-03
      0.210000          0.236507E-03
      0.215000          0.211639E-03
      0.220000          0.192289E-03
      0.225000          0.177638E-03
      0.230000          0.166921E-03
      0.235000          0.159430E-03
      0.240000          0.154511E-03
      0.245000          0.151573E-03
      0.250000          0.150091E-03
      0.255000          0.149604E-03
      0.260000          0.149722E-03
      0.265000          0.150123E-03
      0.270000          0.150552E-03
      0.275000          0.150815E-03
      0.280000          0.150779E-03
      0.285000          0.150360E-03
      0.290000          0.149518E-03
      0.295000          0.148249E-03
      0.300000          0.146576E-03
      0.305000          0.144540E-03
      0.310000          0.142197E-03
      0.315000          0.139606E-03
      0.320000          0.136826E-03
      0.325000          0.133913E-03
      0.330000          0.130919E-03
      0.335000          0.127886E-03
      0.340000          0.124849E-03
      0.345000          0.121835E-03
      0.350000          0.118864E-03
      0.355000          0.115954E-03
      0.360000          0.113117E-03
      0.365000          0.110363E-03
      0.370000          0.107703E-03
      0.375000          0.105146E-03
      0.380000          0.102704E-03
      0.385000          0.100388E-03
      0.390000          0.982092E-04
      0.395000          0.961785E-04
      0.400000          0.943053E-04
      0.405000          0.925966E-04
      0.410000          0.910557E-04
      0.415000          0.896818E-04
      0.420000          0.884692E-04
      0.425000          0.874072E-04
      0.430000          0.864800E-04
      0.435000          0.856673E-04
      0.440000          0.849453E-04
      0.445000          0.842872E-04
      0.450000          0.836651E-04
      0.455000          0.830512E-04
      0.460000          0.824190E-04
      0.465000          0.817448E-04
      0.470000          0.810091E-04
      0.475000          0.801973E-04
      0.480000          0.793002E-04
      0.485000          0.783149E-04
      0.490000          0.772444E-04
      0.495000          0.760975E-04
      0.500000          0.748878E-04
