 I_abs(s)[cm^-1]/c[mg/ml]
       0.00000          0.143184E-01
      0.500000E-02      0.142690E-01
      0.100000E-01      0.141218E-01
      0.150000E-01      0.138800E-01
      0.200000E-01      0.135487E-01
      0.250000E-01      0.131347E-01
      0.300000E-01      0.126465E-01
      0.350000E-01      0.120939E-01
      0.400000E-01      0.114875E-01
      0.450000E-01      0.108385E-01
      0.500000E-01      0.101586E-01
      0.550000E-01      0.945921E-02
      0.600000E-01      0.875139E-02
      0.650000E-01      0.804557E-02
      0.700000E-01      0.735127E-02
      0.750000E-01      0.667691E-02
      0.800000E-01      0.602967E-02
      0.850000E-01      0.541546E-02
      0.900000E-01      0.483882E-02
      0.950000E-01      0.430302E-02
      0.100000          0.381007E-02
      0.105000          0.336084E-02
      0.110000          0.295521E-02
      0.115000          0.259217E-02
      0.120000          0.227000E-02
      0.125000          0.198646E-02
      0.130000          0.173887E-02
      0.135000          0.152430E-02
      0.140000          0.133969E-02
      0.145000          0.118192E-02
      0.150000          0.104794E-02
      0.155000          0.934814E-03
      0.160000          0.839770E-03
      0.165000          0.760237E-03
      0.170000          0.693858E-03
      0.175000          0.638507E-03
      0.180000          0.592279E-03
      0.185000          0.553489E-03
      0.190000          0.520659E-03
      0.195000          0.492512E-03
      0.200000          0.467951E-03
      0.205000          0.446053E-03
      0.210000          0.426056E-03
      0.215000          0.407342E-03
      0.220000          0.389436E-03
      0.225000          0.371984E-03
      0.230000          0.354747E-03
      0.235000          0.337588E-03
      0.240000          0.320457E-03
      0.245000          0.303376E-03
      0.250000          0.286425E-03
      0.255000          0.269729E-03
      0.260000          0.253438E-03
      0.265000          0.237715E-03
      0.270000          0.222720E-03
      0.275000          0.208604E-03
      0.280000          0.195491E-03
      0.285000          0.183479E-03
      0.290000          0.172628E-03
      0.295000          0.162965E-03
      0.300000          0.154480E-03
      0.305000          0.147128E-03
      0.310000          0.140837E-03
      0.315000          0.135512E-03
      0.320000          0.131040E-03
      0.325000          0.127300E-03
      0.330000          0.124165E-03
      0.335000          0.121513E-03
      0.340000          0.119227E-03
      0.345000          0.117204E-03
      0.350000          0.115352E-03
      0.355000          0.113598E-03
      0.360000          0.111883E-03
      0.365000          0.110166E-03
      0.370000          0.108417E-03
      0.375000          0.106624E-03
      0.380000          0.104781E-03
      0.385000          0.102896E-03
      0.390000          0.100979E-03
      0.395000          0.990479E-04
      0.400000          0.971216E-04
      0.405000          0.952215E-04
      0.410000          0.933685E-04
      0.415000          0.915833E-04
      0.420000          0.898847E-04
      0.425000          0.882897E-04
      0.430000          0.868130E-04
      0.435000          0.854666E-04
      0.440000          0.842599E-04
      0.445000          0.831992E-04
      0.450000          0.822880E-04
      0.455000          0.815268E-04
      0.460000          0.809129E-04
      0.465000          0.804406E-04
      0.470000          0.801014E-04
      0.475000          0.798839E-04
      0.480000          0.797743E-04
      0.485000          0.797565E-04
      0.490000          0.798128E-04
      0.495000          0.799241E-04
      0.500000          0.800706E-04
