 I_abs(s)[cm^-1]/c[mg/ml]
       0.00000          0.148746E-01
      0.500000E-02      0.148336E-01
      0.100000E-01      0.147111E-01
      0.150000E-01      0.145092E-01
      0.200000E-01      0.142311E-01
      0.250000E-01      0.138814E-01
      0.300000E-01      0.134656E-01
      0.350000E-01      0.129902E-01
      0.400000E-01      0.124624E-01
      0.450000E-01      0.118900E-01
      0.500000E-01      0.112813E-01
      0.550000E-01      0.106448E-01
      0.600000E-01      0.998881E-02
      0.650000E-01      0.932177E-02
      0.700000E-01      0.865158E-02
      0.750000E-01      0.798574E-02
      0.800000E-01      0.733110E-02
      0.850000E-01      0.669382E-02
      0.900000E-01      0.607925E-02
      0.950000E-01      0.549191E-02
      0.100000          0.493543E-02
      0.105000          0.441261E-02
      0.110000          0.392537E-02
      0.115000          0.347486E-02
      0.120000          0.306148E-02
      0.125000          0.268498E-02
      0.130000          0.234454E-02
      0.135000          0.203886E-02
      0.140000          0.176625E-02
      0.145000          0.152474E-02
      0.150000          0.131213E-02
      0.155000          0.112613E-02
      0.160000          0.964359E-03
      0.165000          0.824486E-03
      0.170000          0.704225E-03
      0.175000          0.601401E-03
      0.180000          0.513974E-03
      0.185000          0.440059E-03
      0.190000          0.377939E-03
      0.195000          0.326065E-03
      0.200000          0.283056E-03
      0.205000          0.247686E-03
      0.210000          0.218878E-03
      0.215000          0.195682E-03
      0.220000          0.177267E-03
      0.225000          0.162905E-03
      0.230000          0.151950E-03
      0.235000          0.143836E-03
      0.240000          0.138057E-03
      0.245000          0.134164E-03
      0.250000          0.131756E-03
      0.255000          0.130476E-03
      0.260000          0.130008E-03
      0.265000          0.130075E-03
      0.270000          0.130437E-03
      0.275000          0.130893E-03
      0.280000          0.131276E-03
      0.285000          0.131459E-03
      0.290000          0.131347E-03
      0.295000          0.130881E-03
      0.300000          0.130029E-03
      0.305000          0.128792E-03
      0.310000          0.127191E-03
      0.315000          0.125268E-03
      0.320000          0.123082E-03
      0.325000          0.120699E-03
      0.330000          0.118193E-03
      0.335000          0.115639E-03
      0.340000          0.113108E-03
      0.345000          0.110664E-03
      0.350000          0.108362E-03
      0.355000          0.106247E-03
      0.360000          0.104347E-03
      0.365000          0.102682E-03
      0.370000          0.101254E-03
      0.375000          0.100057E-03
      0.380000          0.990698E-04
      0.385000          0.982662E-04
      0.390000          0.976115E-04
      0.395000          0.970670E-04
      0.400000          0.965922E-04
      0.405000          0.961468E-04
      0.410000          0.956930E-04
      0.415000          0.951973E-04
      0.420000          0.946320E-04
      0.425000          0.939757E-04
      0.430000          0.932149E-04
      0.435000          0.923434E-04
      0.440000          0.913625E-04
      0.445000          0.902805E-04
      0.450000          0.891118E-04
      0.455000          0.878758E-04
      0.460000          0.865960E-04
      0.465000          0.852982E-04
      0.470000          0.840095E-04
      0.475000          0.827568E-04
      0.480000          0.815655E-04
      0.485000          0.804587E-04
      0.490000          0.794556E-04
      0.495000          0.785713E-04
      0.500000          0.778161E-04
