 I_abs(s)[cm^-1]/c[mg/ml]
       0.00000          0.145873E-01
      0.500000E-02      0.145377E-01
      0.100000E-01      0.143899E-01
      0.150000E-01      0.141470E-01
      0.200000E-01      0.138139E-01
      0.250000E-01      0.133974E-01
      0.300000E-01      0.129057E-01
      0.350000E-01      0.123484E-01
      0.400000E-01      0.117361E-01
      0.450000E-01      0.110799E-01
      0.500000E-01      0.103914E-01
      0.550000E-01      0.968215E-02
      0.600000E-01      0.896343E-02
      0.650000E-01      0.824592E-02
      0.700000E-01      0.753947E-02
      0.750000E-01      0.685289E-02
      0.800000E-01      0.619378E-02
      0.850000E-01      0.556843E-02
      0.900000E-01      0.498178E-02
      0.950000E-01      0.443737E-02
      0.100000          0.393743E-02
      0.105000          0.348292E-02
      0.110000          0.307369E-02
      0.115000          0.270857E-02
      0.120000          0.238558E-02
      0.125000          0.210206E-02
      0.130000          0.185487E-02
      0.135000          0.164057E-02
      0.140000          0.145554E-02
      0.145000          0.129615E-02
      0.150000          0.115888E-02
      0.155000          0.104041E-02
      0.160000          0.937695E-03
      0.165000          0.848034E-03
      0.170000          0.769078E-03
      0.175000          0.698853E-03
      0.180000          0.635748E-03
      0.185000          0.578492E-03
      0.190000          0.526123E-03
      0.195000          0.477945E-03
      0.200000          0.433483E-03
      0.205000          0.392438E-03
      0.210000          0.354640E-03
      0.215000          0.320011E-03
      0.220000          0.288520E-03
      0.225000          0.260160E-03
      0.230000          0.234922E-03
      0.235000          0.212772E-03
      0.240000          0.193646E-03
      0.245000          0.177440E-03
      0.250000          0.164010E-03
      0.255000          0.153173E-03
      0.260000          0.144716E-03
      0.265000          0.138398E-03
      0.270000          0.133962E-03
      0.275000          0.131145E-03
      0.280000          0.129680E-03
      0.285000          0.129310E-03
      0.290000          0.129792E-03
      0.295000          0.130899E-03
      0.300000          0.132429E-03
      0.305000          0.134202E-03
      0.310000          0.136065E-03
      0.315000          0.137887E-03
      0.320000          0.139564E-03
      0.325000          0.141013E-03
      0.330000          0.142172E-03
      0.335000          0.142998E-03
      0.340000          0.143462E-03
      0.345000          0.143553E-03
      0.350000          0.143269E-03
      0.355000          0.142619E-03
      0.360000          0.141624E-03
      0.365000          0.140308E-03
      0.370000          0.138706E-03
      0.375000          0.136855E-03
      0.380000          0.134798E-03
      0.385000          0.132580E-03
      0.390000          0.130250E-03
      0.395000          0.127856E-03
      0.400000          0.125445E-03
      0.405000          0.123064E-03
      0.410000          0.120756E-03
      0.415000          0.118557E-03
      0.420000          0.116501E-03
      0.425000          0.114614E-03
      0.430000          0.112912E-03
      0.435000          0.111406E-03
      0.440000          0.110096E-03
      0.445000          0.108976E-03
      0.450000          0.108029E-03
      0.455000          0.107235E-03
      0.460000          0.106565E-03
      0.465000          0.105986E-03
      0.470000          0.105465E-03
      0.475000          0.104965E-03
      0.480000          0.104450E-03
      0.485000          0.103888E-03
      0.490000          0.103250E-03
      0.495000          0.102511E-03
      0.500000          0.101654E-03
