 I_abs(s)[cm^-1]/c[mg/ml]
       0.00000          0.146748E-01
      0.500000E-02      0.146286E-01
      0.100000E-01      0.144909E-01
      0.150000E-01      0.142645E-01
      0.200000E-01      0.139536E-01
      0.250000E-01      0.135644E-01
      0.300000E-01      0.131040E-01
      0.350000E-01      0.125809E-01
      0.400000E-01      0.120046E-01
      0.450000E-01      0.113849E-01
      0.500000E-01      0.107323E-01
      0.550000E-01      0.100570E-01
      0.600000E-01      0.936910E-02
      0.650000E-01      0.867837E-02
      0.700000E-01      0.799374E-02
      0.750000E-01      0.732331E-02
      0.800000E-01      0.667416E-02
      0.850000E-01      0.605230E-02
      0.900000E-01      0.546255E-02
      0.950000E-01      0.490857E-02
      0.100000          0.439290E-02
      0.105000          0.391699E-02
      0.110000          0.348132E-02
      0.115000          0.308550E-02
      0.120000          0.272843E-02
      0.125000          0.240838E-02
      0.130000          0.212319E-02
      0.135000          0.187037E-02
      0.140000          0.164726E-02
      0.145000          0.145110E-02
      0.150000          0.127913E-02
      0.155000          0.112873E-02
      0.160000          0.997398E-03
      0.165000          0.882832E-03
      0.170000          0.782955E-03
      0.175000          0.695915E-03
      0.180000          0.620085E-03
      0.185000          0.554050E-03
      0.190000          0.496588E-03
      0.195000          0.446645E-03
      0.200000          0.403310E-03
      0.205000          0.365794E-03
      0.210000          0.333400E-03
      0.215000          0.305511E-03
      0.220000          0.281569E-03
      0.225000          0.261064E-03
      0.230000          0.243529E-03
      0.235000          0.228533E-03
      0.240000          0.215680E-03
      0.245000          0.204610E-03
      0.250000          0.195001E-03
      0.255000          0.186570E-03
      0.260000          0.179075E-03
      0.265000          0.172316E-03
      0.270000          0.166134E-03
      0.275000          0.160412E-03
      0.280000          0.155069E-03
      0.285000          0.150056E-03
      0.290000          0.145351E-03
      0.295000          0.140955E-03
      0.300000          0.136882E-03
      0.305000          0.133156E-03
      0.310000          0.129801E-03
      0.315000          0.126841E-03
      0.320000          0.124292E-03
      0.325000          0.122162E-03
      0.330000          0.120444E-03
      0.335000          0.119122E-03
      0.340000          0.118165E-03
      0.345000          0.117532E-03
      0.350000          0.117172E-03
      0.355000          0.117030E-03
      0.360000          0.117041E-03
      0.365000          0.117144E-03
      0.370000          0.117275E-03
      0.375000          0.117374E-03
      0.380000          0.117388E-03
      0.385000          0.117269E-03
      0.390000          0.116976E-03
      0.395000          0.116479E-03
      0.400000          0.115756E-03
      0.405000          0.114793E-03
      0.410000          0.113586E-03
      0.415000          0.112137E-03
      0.420000          0.110457E-03
      0.425000          0.108563E-03
      0.430000          0.106475E-03
      0.435000          0.104221E-03
      0.440000          0.101828E-03
      0.445000          0.993293E-04
      0.450000          0.967559E-04
      0.455000          0.941407E-04
      0.460000          0.915158E-04
      0.465000          0.889116E-04
      0.470000          0.863564E-04
      0.475000          0.838756E-04
      0.480000          0.814912E-04
      0.485000          0.792216E-04
      0.490000          0.770811E-04
      0.495000          0.750796E-04
      0.500000          0.732233E-04
