 I_abs(s)[cm^-1]/c[mg/ml]
       0.00000          0.145634E-01
      0.500000E-02      0.145111E-01
      0.100000E-01      0.143555E-01
      0.150000E-01      0.140999E-01
      0.200000E-01      0.137501E-01
      0.250000E-01      0.133139E-01
      0.300000E-01      0.128005E-01
      0.350000E-01      0.122209E-01
      0.400000E-01      0.115868E-01
      0.450000E-01      0.109106E-01
      0.500000E-01      0.102050E-01
      0.550000E-01      0.948245E-02
      0.600000E-01      0.875492E-02
      0.650000E-01      0.803349E-02
      0.700000E-01      0.732814E-02
      0.750000E-01      0.664754E-02
      0.800000E-01      0.599888E-02
      0.850000E-01      0.538782E-02
      0.900000E-01      0.481847E-02
      0.950000E-01      0.429347E-02
      0.100000          0.381403E-02
      0.105000          0.338015E-02
      0.110000          0.299073E-02
      0.115000          0.264380E-02
      0.120000          0.233674E-02
      0.125000          0.206643E-02
      0.130000          0.182947E-02
      0.135000          0.162239E-02
      0.140000          0.144170E-02
      0.145000          0.128412E-02
      0.150000          0.114658E-02
      0.155000          0.102634E-02
      0.160000          0.920976E-03
      0.165000          0.828414E-03
      0.170000          0.746911E-03
      0.175000          0.675025E-03
      0.180000          0.611574E-03
      0.185000          0.555595E-03
      0.190000          0.506294E-03
      0.195000          0.463006E-03
      0.200000          0.425154E-03
      0.205000          0.392214E-03
      0.210000          0.363698E-03
      0.215000          0.339131E-03
      0.220000          0.318048E-03
      0.225000          0.299988E-03
      0.230000          0.284500E-03
      0.235000          0.271151E-03
      0.240000          0.259532E-03
      0.245000          0.249269E-03
      0.250000          0.240030E-03
      0.255000          0.231536E-03
      0.260000          0.223559E-03
      0.265000          0.215928E-03
      0.270000          0.208522E-03
      0.275000          0.201273E-03
      0.280000          0.194152E-03
      0.285000          0.187168E-03
      0.290000          0.180353E-03
      0.295000          0.173756E-03
      0.300000          0.167437E-03
      0.305000          0.161453E-03
      0.310000          0.155858E-03
      0.315000          0.150694E-03
      0.320000          0.145993E-03
      0.325000          0.141768E-03
      0.330000          0.138019E-03
      0.335000          0.134730E-03
      0.340000          0.131874E-03
      0.345000          0.129414E-03
      0.350000          0.127303E-03
      0.355000          0.125492E-03
      0.360000          0.123926E-03
      0.365000          0.122553E-03
      0.370000          0.121321E-03
      0.375000          0.120181E-03
      0.380000          0.119089E-03
      0.385000          0.118005E-03
      0.390000          0.116895E-03
      0.395000          0.115729E-03
      0.400000          0.114483E-03
      0.405000          0.113141E-03
      0.410000          0.111687E-03
      0.415000          0.110116E-03
      0.420000          0.108423E-03
      0.425000          0.106612E-03
      0.430000          0.104687E-03
      0.435000          0.102661E-03
      0.440000          0.100549E-03
      0.445000          0.983687E-04
      0.450000          0.961420E-04
      0.455000          0.938931E-04
      0.460000          0.916476E-04
      0.465000          0.894318E-04
      0.470000          0.872719E-04
      0.475000          0.851932E-04
      0.480000          0.832187E-04
      0.485000          0.813688E-04
      0.490000          0.796602E-04
      0.495000          0.781058E-04
      0.500000          0.767134E-04
