 I_abs(s)[cm^-1]/c[mg/ml]
       0.00000          0.145714E-01
      0.500000E-02      0.145291E-01
      0.100000E-01      0.144031E-01
      0.150000E-01      0.141955E-01
      0.200000E-01      0.139101E-01
      0.250000E-01      0.135517E-01
      0.300000E-01      0.131264E-01
      0.350000E-01      0.126415E-01
      0.400000E-01      0.121048E-01
      0.450000E-01      0.115248E-01
      0.500000E-01      0.109105E-01
      0.550000E-01      0.102709E-01
      0.600000E-01      0.961499E-02
      0.650000E-01      0.895151E-02
      0.700000E-01      0.828871E-02
      0.750000E-01      0.763425E-02
      0.800000E-01      0.699502E-02
      0.850000E-01      0.637706E-02
      0.900000E-01      0.578549E-02
      0.950000E-01      0.522447E-02
      0.100000          0.469716E-02
      0.105000          0.420581E-02
      0.110000          0.375174E-02
      0.115000          0.333545E-02
      0.120000          0.295669E-02
      0.125000          0.261455E-02
      0.130000          0.230761E-02
      0.135000          0.203398E-02
      0.140000          0.179148E-02
      0.145000          0.157769E-02
      0.150000          0.139008E-02
      0.155000          0.122610E-02
      0.160000          0.108320E-02
      0.165000          0.958949E-03
      0.170000          0.851066E-03
      0.175000          0.757435E-03
      0.180000          0.676144E-03
      0.185000          0.605485E-03
      0.190000          0.543963E-03
      0.195000          0.490280E-03
      0.200000          0.443329E-03
      0.205000          0.402168E-03
      0.210000          0.366009E-03
      0.215000          0.334190E-03
      0.220000          0.306156E-03
      0.225000          0.281441E-03
      0.230000          0.259648E-03
      0.235000          0.240437E-03
      0.240000          0.223508E-03
      0.245000          0.208597E-03
      0.250000          0.195465E-03
      0.255000          0.183895E-03
      0.260000          0.173689E-03
      0.265000          0.164666E-03
      0.270000          0.156664E-03
      0.275000          0.149537E-03
      0.280000          0.143158E-03
      0.285000          0.137420E-03
      0.290000          0.132234E-03
      0.295000          0.127528E-03
      0.300000          0.123251E-03
      0.305000          0.119364E-03
      0.310000          0.115844E-03
      0.315000          0.112680E-03
      0.320000          0.109868E-03
      0.325000          0.107411E-03
      0.330000          0.105313E-03
      0.335000          0.103579E-03
      0.340000          0.102212E-03
      0.345000          0.101210E-03
      0.350000          0.100563E-03
      0.355000          0.100256E-03
      0.360000          0.100267E-03
      0.365000          0.100563E-03
      0.370000          0.101106E-03
      0.375000          0.101853E-03
      0.380000          0.102753E-03
      0.385000          0.103753E-03
      0.390000          0.104798E-03
      0.395000          0.105833E-03
      0.400000          0.106804E-03
      0.405000          0.107661E-03
      0.410000          0.108356E-03
      0.415000          0.108851E-03
      0.420000          0.109111E-03
      0.425000          0.109109E-03
      0.430000          0.108828E-03
      0.435000          0.108256E-03
      0.440000          0.107391E-03
      0.445000          0.106238E-03
      0.450000          0.104808E-03
      0.455000          0.103120E-03
      0.460000          0.101198E-03
      0.465000          0.990692E-04
      0.470000          0.967663E-04
      0.475000          0.943237E-04
      0.480000          0.917776E-04
      0.485000          0.891650E-04
      0.490000          0.865227E-04
      0.495000          0.838865E-04
      0.500000          0.812904E-04
