 I_abs(s)[cm^-1]/c[mg/ml]
       0.00000          0.145555E-01
      0.500000E-02      0.145124E-01
      0.100000E-01      0.143838E-01
      0.150000E-01      0.141719E-01
      0.200000E-01      0.138805E-01
      0.250000E-01      0.135146E-01
      0.300000E-01      0.130803E-01
      0.350000E-01      0.125850E-01
      0.400000E-01      0.120367E-01
      0.450000E-01      0.114442E-01
      0.500000E-01      0.108164E-01
      0.550000E-01      0.101626E-01
      0.600000E-01      0.949218E-02
      0.650000E-01      0.881399E-02
      0.700000E-01      0.813659E-02
      0.750000E-01      0.746790E-02
      0.800000E-01      0.681511E-02
      0.850000E-01      0.618451E-02
      0.900000E-01      0.558151E-02
      0.950000E-01      0.501051E-02
      0.100000          0.447490E-02
      0.105000          0.397713E-02
      0.110000          0.351868E-02
      0.115000          0.310017E-02
      0.120000          0.272141E-02
      0.125000          0.238155E-02
      0.130000          0.207911E-02
      0.135000          0.181215E-02
      0.140000          0.157836E-02
      0.145000          0.137516E-02
      0.150000          0.119981E-02
      0.155000          0.104950E-02
      0.160000          0.921425E-03
      0.165000          0.812865E-03
      0.170000          0.721227E-03
      0.175000          0.644091E-03
      0.180000          0.579243E-03
      0.185000          0.524688E-03
      0.190000          0.478664E-03
      0.195000          0.439635E-03
      0.200000          0.406288E-03
      0.205000          0.377519E-03
      0.210000          0.352413E-03
      0.215000          0.330227E-03
      0.220000          0.310371E-03
      0.225000          0.292383E-03
      0.230000          0.275910E-03
      0.235000          0.260691E-03
      0.240000          0.246537E-03
      0.245000          0.233317E-03
      0.250000          0.220942E-03
      0.255000          0.209359E-03
      0.260000          0.198533E-03
      0.265000          0.188448E-03
      0.270000          0.179091E-03
      0.275000          0.170457E-03
      0.280000          0.162537E-03
      0.285000          0.155317E-03
      0.290000          0.148780E-03
      0.295000          0.142898E-03
      0.300000          0.137639E-03
      0.305000          0.132958E-03
      0.310000          0.128807E-03
      0.315000          0.125128E-03
      0.320000          0.121861E-03
      0.325000          0.118940E-03
      0.330000          0.116300E-03
      0.335000          0.113875E-03
      0.340000          0.111606E-03
      0.345000          0.109434E-03
      0.350000          0.107312E-03
      0.355000          0.105199E-03
      0.360000          0.103065E-03
      0.365000          0.100891E-03
      0.370000          0.986703E-04
      0.375000          0.964043E-04
      0.380000          0.941064E-04
      0.385000          0.917980E-04
      0.390000          0.895080E-04
      0.395000          0.872702E-04
      0.400000          0.851213E-04
      0.405000          0.830989E-04
      0.410000          0.812389E-04
      0.415000          0.795738E-04
      0.420000          0.781306E-04
      0.425000          0.769294E-04
      0.430000          0.759825E-04
      0.435000          0.752934E-04
      0.440000          0.748571E-04
      0.445000          0.746600E-04
      0.450000          0.746805E-04
      0.455000          0.748904E-04
      0.460000          0.752561E-04
      0.465000          0.757400E-04
      0.470000          0.763025E-04
      0.475000          0.769034E-04
      0.480000          0.775037E-04
      0.485000          0.780672E-04
      0.490000          0.785617E-04
      0.495000          0.789604E-04
      0.500000          0.792424E-04
