 I_abs(s)[cm^-1]/c[mg/ml]
       0.00000          0.145793E-01
      0.500000E-02      0.145254E-01
      0.100000E-01      0.143647E-01
      0.150000E-01      0.141010E-01
      0.200000E-01      0.137402E-01
      0.250000E-01      0.132903E-01
      0.300000E-01      0.127609E-01
      0.350000E-01      0.121634E-01
      0.400000E-01      0.115099E-01
      0.450000E-01      0.108134E-01
      0.500000E-01      0.100870E-01
      0.550000E-01      0.934360E-02
      0.600000E-01      0.859573E-02
      0.650000E-01      0.785491E-02
      0.700000E-01      0.713155E-02
      0.750000E-01      0.643471E-02
      0.800000E-01      0.577195E-02
      0.850000E-01      0.514923E-02
      0.900000E-01      0.457093E-02
      0.950000E-01      0.403986E-02
      0.100000          0.355739E-02
      0.105000          0.312358E-02
      0.110000          0.273733E-02
      0.115000          0.239661E-02
      0.120000          0.209866E-02
      0.125000          0.184014E-02
      0.130000          0.161740E-02
      0.135000          0.142660E-02
      0.140000          0.126389E-02
      0.145000          0.112554E-02
      0.150000          0.100800E-02
      0.155000          0.908065E-03
      0.160000          0.822814E-03
      0.165000          0.749713E-03
      0.170000          0.686584E-03
      0.175000          0.631604E-03
      0.180000          0.583274E-03
      0.185000          0.540390E-03
      0.190000          0.502003E-03
      0.195000          0.467382E-03
      0.200000          0.435968E-03
      0.205000          0.407345E-03
      0.210000          0.381202E-03
      0.215000          0.357308E-03
      0.220000          0.335484E-03
      0.225000          0.315592E-03
      0.230000          0.297513E-03
      0.235000          0.281141E-03
      0.240000          0.266378E-03
      0.245000          0.253122E-03
      0.250000          0.241270E-03
      0.255000          0.230718E-03
      0.260000          0.221356E-03
      0.265000          0.213069E-03
      0.270000          0.205744E-03
      0.275000          0.199262E-03
      0.280000          0.193508E-03
      0.285000          0.188367E-03
      0.290000          0.183728E-03
      0.295000          0.179487E-03
      0.300000          0.175545E-03
      0.305000          0.171814E-03
      0.310000          0.168219E-03
      0.315000          0.164696E-03
      0.320000          0.161193E-03
      0.325000          0.157678E-03
      0.330000          0.154128E-03
      0.335000          0.150539E-03
      0.340000          0.146918E-03
      0.345000          0.143287E-03
      0.350000          0.139675E-03
      0.355000          0.136121E-03
      0.360000          0.132670E-03
      0.365000          0.129368E-03
      0.370000          0.126262E-03
      0.375000          0.123394E-03
      0.380000          0.120804E-03
      0.385000          0.118521E-03
      0.390000          0.116568E-03
      0.395000          0.114956E-03
      0.400000          0.113685E-03
      0.405000          0.112745E-03
      0.410000          0.112116E-03
      0.415000          0.111767E-03
      0.420000          0.111661E-03
      0.425000          0.111753E-03
      0.430000          0.111992E-03
      0.435000          0.112329E-03
      0.440000          0.112710E-03
      0.445000          0.113084E-03
      0.450000          0.113402E-03
      0.455000          0.113622E-03
      0.460000          0.113706E-03
      0.465000          0.113623E-03
      0.470000          0.113349E-03
      0.475000          0.112870E-03
      0.480000          0.112178E-03
      0.485000          0.111274E-03
      0.490000          0.110164E-03
      0.495000          0.108864E-03
      0.500000          0.107392E-03
