 I_abs(s)[cm^-1]/c[mg/ml]
       0.00000          0.141928E-01
      0.500000E-02      0.141277E-01
      0.100000E-01      0.139343E-01
      0.150000E-01      0.136182E-01
      0.200000E-01      0.131885E-01
      0.250000E-01      0.126573E-01
      0.300000E-01      0.120392E-01
      0.350000E-01      0.113508E-01
      0.400000E-01      0.106097E-01
      0.450000E-01      0.983388E-02
      0.500000E-01      0.904119E-02
      0.550000E-01      0.824845E-02
      0.600000E-01      0.747098E-02
      0.650000E-01      0.672214E-02
      0.700000E-01      0.601296E-02
      0.750000E-01      0.535200E-02
      0.800000E-01      0.474523E-02
      0.850000E-01      0.419615E-02
      0.900000E-01      0.370592E-02
      0.950000E-01      0.327369E-02
      0.100000          0.289687E-02
      0.105000          0.257156E-02
      0.110000          0.229291E-02
      0.115000          0.205550E-02
      0.120000          0.185371E-02
      0.125000          0.168199E-02
      0.130000          0.153514E-02
      0.135000          0.140843E-02
      0.140000          0.129780E-02
      0.145000          0.119985E-02
      0.150000          0.111185E-02
      0.155000          0.103174E-02
      0.160000          0.958016E-03
      0.165000          0.889646E-03
      0.170000          0.825983E-03
      0.175000          0.766653E-03
      0.180000          0.711463E-03
      0.185000          0.660320E-03
      0.190000          0.613168E-03
      0.195000          0.569942E-03
      0.200000          0.530543E-03
      0.205000          0.494820E-03
      0.210000          0.462569E-03
      0.215000          0.433547E-03
      0.220000          0.407475E-03
      0.225000          0.384061E-03
      0.230000          0.363012E-03
      0.235000          0.344044E-03
      0.240000          0.326893E-03
      0.245000          0.311323E-03
      0.250000          0.297122E-03
      0.255000          0.284110E-03
      0.260000          0.272128E-03
      0.265000          0.261039E-03
      0.270000          0.250726E-03
      0.275000          0.241084E-03
      0.280000          0.232024E-03
      0.285000          0.223467E-03
      0.290000          0.215347E-03
      0.295000          0.207608E-03
      0.300000          0.200212E-03
      0.305000          0.193130E-03
      0.310000          0.186350E-03
      0.315000          0.179873E-03
      0.320000          0.173709E-03
      0.325000          0.167878E-03
      0.330000          0.162404E-03
      0.335000          0.157312E-03
      0.340000          0.152625E-03
      0.345000          0.148357E-03
      0.350000          0.144513E-03
      0.355000          0.141086E-03
      0.360000          0.138058E-03
      0.365000          0.135397E-03
      0.370000          0.133062E-03
      0.375000          0.131002E-03
      0.380000          0.129163E-03
      0.385000          0.127489E-03
      0.390000          0.125927E-03
      0.395000          0.124428E-03
      0.400000          0.122952E-03
      0.405000          0.121467E-03
      0.410000          0.119950E-03
      0.415000          0.118390E-03
      0.420000          0.116782E-03
      0.425000          0.115130E-03
      0.430000          0.113441E-03
      0.435000          0.111726E-03
      0.440000          0.109997E-03
      0.445000          0.108265E-03
      0.450000          0.106538E-03
      0.455000          0.104821E-03
      0.460000          0.103118E-03
      0.465000          0.101430E-03
      0.470000          0.997542E-04
      0.475000          0.980896E-04
      0.480000          0.964346E-04
      0.485000          0.947892E-04
      0.490000          0.931560E-04
      0.495000          0.915406E-04
      0.500000          0.899517E-04
