 I_abs(s)[cm^-1]/c[mg/ml]
       0.00000          0.145873E-01
      0.500000E-02      0.145383E-01
      0.100000E-01      0.143923E-01
      0.150000E-01      0.141524E-01
      0.200000E-01      0.138231E-01
      0.250000E-01      0.134111E-01
      0.300000E-01      0.129244E-01
      0.350000E-01      0.123720E-01
      0.400000E-01      0.117643E-01
      0.450000E-01      0.111121E-01
      0.500000E-01      0.104265E-01
      0.550000E-01      0.971896E-02
      0.600000E-01      0.900033E-02
      0.650000E-01      0.828114E-02
      0.700000E-01      0.757107E-02
      0.750000E-01      0.687888E-02
      0.800000E-01      0.621217E-02
      0.850000E-01      0.557732E-02
      0.900000E-01      0.497943E-02
      0.950000E-01      0.442229E-02
      0.100000          0.390843E-02
      0.105000          0.343917E-02
      0.110000          0.301475E-02
      0.115000          0.263444E-02
      0.120000          0.229668E-02
      0.125000          0.199928E-02
      0.130000          0.173952E-02
      0.135000          0.151434E-02
      0.140000          0.132050E-02
      0.145000          0.115466E-02
      0.150000          0.101353E-02
      0.155000          0.893956E-03
      0.160000          0.792979E-03
      0.165000          0.707895E-03
      0.170000          0.636277E-03
      0.175000          0.575989E-03
      0.180000          0.525185E-03
      0.185000          0.482290E-03
      0.190000          0.445978E-03
      0.195000          0.415144E-03
      0.200000          0.388869E-03
      0.205000          0.366393E-03
      0.210000          0.347078E-03
      0.215000          0.330386E-03
      0.220000          0.315858E-03
      0.225000          0.303091E-03
      0.230000          0.291731E-03
      0.235000          0.281464E-03
      0.240000          0.272010E-03
      0.245000          0.263123E-03
      0.250000          0.254592E-03
      0.255000          0.246242E-03
      0.260000          0.237939E-03
      0.265000          0.229586E-03
      0.270000          0.221129E-03
      0.275000          0.212552E-03
      0.280000          0.203876E-03
      0.285000          0.195153E-03
      0.290000          0.186461E-03
      0.295000          0.177900E-03
      0.300000          0.169579E-03
      0.305000          0.161612E-03
      0.310000          0.154110E-03
      0.315000          0.147174E-03
      0.320000          0.140890E-03
      0.325000          0.135324E-03
      0.330000          0.130518E-03
      0.335000          0.126493E-03
      0.340000          0.123242E-03
      0.345000          0.120738E-03
      0.350000          0.118932E-03
      0.355000          0.117758E-03
      0.360000          0.117137E-03
      0.365000          0.116981E-03
      0.370000          0.117194E-03
      0.375000          0.117682E-03
      0.380000          0.118350E-03
      0.385000          0.119110E-03
      0.390000          0.119881E-03
      0.395000          0.120591E-03
      0.400000          0.121178E-03
      0.405000          0.121591E-03
      0.410000          0.121790E-03
      0.415000          0.121747E-03
      0.420000          0.121442E-03
      0.425000          0.120865E-03
      0.430000          0.120013E-03
      0.435000          0.118892E-03
      0.440000          0.117512E-03
      0.445000          0.115890E-03
      0.450000          0.114045E-03
      0.455000          0.112002E-03
      0.460000          0.109786E-03
      0.465000          0.107427E-03
      0.470000          0.104955E-03
      0.475000          0.102402E-03
      0.480000          0.998006E-04
      0.485000          0.971837E-04
      0.490000          0.945845E-04
      0.495000          0.920353E-04
      0.500000          0.895674E-04
