 I_abs(s)[cm^-1]/c[mg/ml]
       0.00000          0.146748E-01
      0.500000E-02      0.146324E-01
      0.100000E-01      0.145060E-01
      0.150000E-01      0.142979E-01
      0.200000E-01      0.140118E-01
      0.250000E-01      0.136527E-01
      0.300000E-01      0.132268E-01
      0.350000E-01      0.127414E-01
      0.400000E-01      0.122045E-01
      0.450000E-01      0.116246E-01
      0.500000E-01      0.110106E-01
      0.550000E-01      0.103716E-01
      0.600000E-01      0.971644E-02
      0.650000E-01      0.905370E-02
      0.700000E-01      0.839146E-02
      0.750000E-01      0.773716E-02
      0.800000E-01      0.709743E-02
      0.850000E-01      0.647807E-02
      0.900000E-01      0.588393E-02
      0.950000E-01      0.531893E-02
      0.100000          0.478606E-02
      0.105000          0.428741E-02
      0.110000          0.382424E-02
      0.115000          0.339705E-02
      0.120000          0.300566E-02
      0.125000          0.264933E-02
      0.130000          0.232688E-02
      0.135000          0.203672E-02
      0.140000          0.177704E-02
      0.145000          0.154583E-02
      0.150000          0.134098E-02
      0.155000          0.116035E-02
      0.160000          0.100184E-02
      0.165000          0.863396E-03
      0.170000          0.743071E-03
      0.175000          0.639033E-03
      0.180000          0.549578E-03
      0.185000          0.473134E-03
      0.190000          0.408260E-03
      0.195000          0.353637E-03
      0.200000          0.308059E-03
      0.205000          0.270428E-03
      0.210000          0.239736E-03
      0.215000          0.215063E-03
      0.220000          0.195564E-03
      0.225000          0.180462E-03
      0.230000          0.169046E-03
      0.235000          0.160667E-03
      0.240000          0.154734E-03
      0.245000          0.150713E-03
      0.250000          0.148129E-03
      0.255000          0.146564E-03
      0.260000          0.145657E-03
      0.265000          0.145104E-03
      0.270000          0.144654E-03
      0.275000          0.144111E-03
      0.280000          0.143330E-03
      0.285000          0.142210E-03
      0.290000          0.140692E-03
      0.295000          0.138758E-03
      0.300000          0.136415E-03
      0.305000          0.133700E-03
      0.310000          0.130669E-03
      0.315000          0.127388E-03
      0.320000          0.123935E-03
      0.325000          0.120390E-03
      0.330000          0.116832E-03
      0.335000          0.113333E-03
      0.340000          0.109960E-03
      0.345000          0.106767E-03
      0.350000          0.103800E-03
      0.355000          0.101088E-03
      0.360000          0.986533E-04
      0.365000          0.965019E-04
      0.370000          0.946313E-04
      0.375000          0.930291E-04
      0.380000          0.916755E-04
      0.385000          0.905445E-04
      0.390000          0.896062E-04
      0.395000          0.888283E-04
      0.400000          0.881778E-04
      0.405000          0.876226E-04
      0.410000          0.871327E-04
      0.415000          0.866811E-04
      0.420000          0.862446E-04
      0.425000          0.858044E-04
      0.430000          0.853461E-04
      0.435000          0.848599E-04
      0.440000          0.843401E-04
      0.445000          0.837853E-04
      0.450000          0.831972E-04
      0.455000          0.825807E-04
      0.460000          0.819428E-04
      0.465000          0.812921E-04
      0.470000          0.806384E-04
      0.475000          0.799917E-04
      0.480000          0.793619E-04
      0.485000          0.787585E-04
      0.490000          0.781898E-04
      0.495000          0.776627E-04
      0.500000          0.771827E-04
