 I_abs(s)[cm^-1]/c[mg/ml]
       0.00000          0.147705E-01
      0.500000E-02      0.147289E-01
      0.100000E-01      0.146049E-01
      0.150000E-01      0.144006E-01
      0.200000E-01      0.141194E-01
      0.250000E-01      0.137662E-01
      0.300000E-01      0.133466E-01
      0.350000E-01      0.128677E-01
      0.400000E-01      0.123369E-01
      0.450000E-01      0.117625E-01
      0.500000E-01      0.111529E-01
      0.550000E-01      0.105169E-01
      0.600000E-01      0.986314E-02
      0.650000E-01      0.919996E-02
      0.700000E-01      0.853537E-02
      0.750000E-01      0.787680E-02
      0.800000E-01      0.723095E-02
      0.850000E-01      0.660377E-02
      0.900000E-01      0.600032E-02
      0.950000E-01      0.542478E-02
      0.100000          0.488042E-02
      0.105000          0.436964E-02
      0.110000          0.389399E-02
      0.115000          0.345428E-02
      0.120000          0.305059E-02
      0.125000          0.268241E-02
      0.130000          0.234873E-02
      0.135000          0.204814E-02
      0.140000          0.177890E-02
      0.145000          0.153908E-02
      0.150000          0.132658E-02
      0.155000          0.113927E-02
      0.160000          0.975022E-03
      0.165000          0.831746E-03
      0.170000          0.707450E-03
      0.175000          0.600259E-03
      0.180000          0.508428E-03
      0.185000          0.430353E-03
      0.190000          0.364567E-03
      0.195000          0.309734E-03
      0.200000          0.264637E-03
      0.205000          0.228168E-03
      0.210000          0.199312E-03
      0.215000          0.177134E-03
      0.220000          0.160764E-03
      0.225000          0.149395E-03
      0.230000          0.142267E-03
      0.235000          0.138668E-03
      0.240000          0.137929E-03
      0.245000          0.139424E-03
      0.250000          0.142574E-03
      0.255000          0.146848E-03
      0.260000          0.151769E-03
      0.265000          0.156912E-03
      0.270000          0.161915E-03
      0.275000          0.166476E-03
      0.280000          0.170353E-03
      0.285000          0.173369E-03
      0.290000          0.175405E-03
      0.295000          0.176398E-03
      0.300000          0.176336E-03
      0.305000          0.175252E-03
      0.310000          0.173217E-03
      0.315000          0.170330E-03
      0.320000          0.166714E-03
      0.325000          0.162503E-03
      0.330000          0.157840E-03
      0.335000          0.152866E-03
      0.340000          0.147716E-03
      0.345000          0.142511E-03
      0.350000          0.137361E-03
      0.355000          0.132354E-03
      0.360000          0.127560E-03
      0.365000          0.123031E-03
      0.370000          0.118798E-03
      0.375000          0.114875E-03
      0.380000          0.111261E-03
      0.385000          0.107942E-03
      0.390000          0.104895E-03
      0.395000          0.102090E-03
      0.400000          0.994906E-04
      0.405000          0.970627E-04
      0.410000          0.947718E-04
      0.415000          0.925868E-04
      0.420000          0.904815E-04
      0.425000          0.884357E-04
      0.430000          0.864355E-04
      0.435000          0.844735E-04
      0.440000          0.825489E-04
      0.445000          0.806662E-04
      0.450000          0.788347E-04
      0.455000          0.770672E-04
      0.460000          0.753789E-04
      0.465000          0.737856E-04
      0.470000          0.723030E-04
      0.475000          0.709454E-04
      0.480000          0.697242E-04
      0.485000          0.686479E-04
      0.490000          0.677208E-04
      0.495000          0.669432E-04
      0.500000          0.663110E-04
