 I_abs(s)[cm^-1]/c[mg/ml]
       0.00000          0.145238E-01
      0.500000E-02      0.144802E-01
      0.100000E-01      0.143501E-01
      0.150000E-01      0.141362E-01
      0.200000E-01      0.138423E-01
      0.250000E-01      0.134739E-01
      0.300000E-01      0.130376E-01
      0.350000E-01      0.125413E-01
      0.400000E-01      0.119935E-01
      0.450000E-01      0.114032E-01
      0.500000E-01      0.107800E-01
      0.550000E-01      0.101334E-01
      0.600000E-01      0.947255E-02
      0.650000E-01      0.880650E-02
      0.700000E-01      0.814354E-02
      0.750000E-01      0.749125E-02
      0.800000E-01      0.685632E-02
      0.850000E-01      0.624451E-02
      0.900000E-01      0.566055E-02
      0.950000E-01      0.510817E-02
      0.100000          0.459010E-02
      0.105000          0.410814E-02
      0.110000          0.366320E-02
      0.115000          0.325546E-02
      0.120000          0.288437E-02
      0.125000          0.254887E-02
      0.130000          0.224742E-02
      0.135000          0.197814E-02
      0.140000          0.173890E-02
      0.145000          0.152743E-02
      0.150000          0.134137E-02
      0.155000          0.117837E-02
      0.160000          0.103611E-02
      0.165000          0.912358E-03
      0.170000          0.805012E-03
      0.175000          0.712103E-03
      0.180000          0.631815E-03
      0.185000          0.562494E-03
      0.190000          0.502645E-03
      0.195000          0.450929E-03
      0.200000          0.406162E-03
      0.205000          0.367301E-03
      0.210000          0.333441E-03
      0.215000          0.303804E-03
      0.220000          0.277726E-03
      0.225000          0.254654E-03
      0.230000          0.234132E-03
      0.235000          0.215791E-03
      0.240000          0.199339E-03
      0.245000          0.184553E-03
      0.250000          0.171265E-03
      0.255000          0.159358E-03
      0.260000          0.148746E-03
      0.265000          0.139375E-03
      0.270000          0.131205E-03
      0.275000          0.124208E-03
      0.280000          0.118357E-03
      0.285000          0.113622E-03
      0.290000          0.109963E-03
      0.295000          0.107330E-03
      0.300000          0.105657E-03
      0.305000          0.104864E-03
      0.310000          0.104857E-03
      0.315000          0.105532E-03
      0.320000          0.106772E-03
      0.325000          0.108455E-03
      0.330000          0.110456E-03
      0.335000          0.112651E-03
      0.340000          0.114919E-03
      0.345000          0.117148E-03
      0.350000          0.119236E-03
      0.355000          0.121094E-03
      0.360000          0.122647E-03
      0.365000          0.123835E-03
      0.370000          0.124617E-03
      0.375000          0.124965E-03
      0.380000          0.124868E-03
      0.385000          0.124327E-03
      0.390000          0.123359E-03
      0.395000          0.121989E-03
      0.400000          0.120252E-03
      0.405000          0.118191E-03
      0.410000          0.115850E-03
      0.415000          0.113281E-03
      0.420000          0.110533E-03
      0.425000          0.107658E-03
      0.430000          0.104702E-03
      0.435000          0.101713E-03
      0.440000          0.987322E-04
      0.445000          0.957972E-04
      0.450000          0.929412E-04
      0.455000          0.901926E-04
      0.460000          0.875752E-04
      0.465000          0.851079E-04
      0.470000          0.828054E-04
      0.475000          0.806785E-04
      0.480000          0.787344E-04
      0.485000          0.769770E-04
      0.490000          0.754072E-04
      0.495000          0.740238E-04
      0.500000          0.728229E-04
