 I_abs(s)[cm^-1]/c[mg/ml]
       0.00000          0.144446E-01
      0.500000E-02      0.143867E-01
      0.100000E-01      0.142142E-01
      0.150000E-01      0.139315E-01
      0.200000E-01      0.135452E-01
      0.250000E-01      0.130646E-01
      0.300000E-01      0.125008E-01
      0.350000E-01      0.118665E-01
      0.400000E-01      0.111756E-01
      0.450000E-01      0.104428E-01
      0.500000E-01      0.968262E-02
      0.550000E-01      0.890960E-02
      0.600000E-01      0.813737E-02
      0.650000E-01      0.737851E-02
      0.700000E-01      0.664414E-02
      0.750000E-01      0.594373E-02
      0.800000E-01      0.528495E-02
      0.850000E-01      0.467358E-02
      0.900000E-01      0.411354E-02
      0.950000E-01      0.360698E-02
      0.100000          0.315437E-02
      0.105000          0.275478E-02
      0.110000          0.240603E-02
      0.115000          0.210495E-02
      0.120000          0.184768E-02
      0.125000          0.162985E-02
      0.130000          0.144687E-02
      0.135000          0.129407E-02
      0.140000          0.116695E-02
      0.145000          0.106124E-02
      0.150000          0.973073E-03
      0.155000          0.898997E-03
      0.160000          0.836041E-03
      0.165000          0.781717E-03
      0.170000          0.733997E-03
      0.175000          0.691285E-03
      0.180000          0.652367E-03
      0.185000          0.616357E-03
      0.190000          0.582639E-03
      0.195000          0.550812E-03
      0.200000          0.520635E-03
      0.205000          0.491984E-03
      0.210000          0.464806E-03
      0.215000          0.439094E-03
      0.220000          0.414857E-03
      0.225000          0.392107E-03
      0.230000          0.370844E-03
      0.235000          0.351051E-03
      0.240000          0.332694E-03
      0.245000          0.315718E-03
      0.250000          0.300056E-03
      0.255000          0.285626E-03
      0.260000          0.272340E-03
      0.265000          0.260106E-03
      0.270000          0.248833E-03
      0.275000          0.238432E-03
      0.280000          0.228823E-03
      0.285000          0.219930E-03
      0.290000          0.211690E-03
      0.295000          0.204045E-03
      0.300000          0.196951E-03
      0.305000          0.190368E-03
      0.310000          0.184264E-03
      0.315000          0.178614E-03
      0.320000          0.173395E-03
      0.325000          0.168587E-03
      0.330000          0.164169E-03
      0.335000          0.160119E-03
      0.340000          0.156413E-03
      0.345000          0.153025E-03
      0.350000          0.149921E-03
      0.355000          0.147068E-03
      0.360000          0.144427E-03
      0.365000          0.141959E-03
      0.370000          0.139624E-03
      0.375000          0.137383E-03
      0.380000          0.135200E-03
      0.385000          0.133043E-03
      0.390000          0.130888E-03
      0.395000          0.128716E-03
      0.400000          0.126517E-03
      0.405000          0.124287E-03
      0.410000          0.122033E-03
      0.415000          0.119763E-03
      0.420000          0.117496E-03
      0.425000          0.115249E-03
      0.430000          0.113044E-03
      0.435000          0.110902E-03
      0.440000          0.108838E-03
      0.445000          0.106869E-03
      0.450000          0.105003E-03
      0.455000          0.103242E-03
      0.460000          0.101585E-03
      0.465000          0.100023E-03
      0.470000          0.985437E-04
      0.475000          0.971297E-04
      0.480000          0.957628E-04
      0.485000          0.944239E-04
      0.490000          0.930951E-04
      0.495000          0.917611E-04
      0.500000          0.904106E-04
