 I_abs(s)[cm^-1]/c[mg/ml]
       0.00000          0.144684E-01
      0.500000E-02      0.144220E-01
      0.100000E-01      0.142837E-01
      0.150000E-01      0.140563E-01
      0.200000E-01      0.137442E-01
      0.250000E-01      0.133536E-01
      0.300000E-01      0.128919E-01
      0.350000E-01      0.123678E-01
      0.400000E-01      0.117907E-01
      0.450000E-01      0.111709E-01
      0.500000E-01      0.105189E-01
      0.550000E-01      0.984508E-02
      0.600000E-01      0.915976E-02
      0.650000E-01      0.847270E-02
      0.700000E-01      0.779295E-02
      0.750000E-01      0.712862E-02
      0.800000E-01      0.648681E-02
      0.850000E-01      0.587345E-02
      0.900000E-01      0.529330E-02
      0.950000E-01      0.474990E-02
      0.100000          0.424564E-02
      0.105000          0.378182E-02
      0.110000          0.335873E-02
      0.115000          0.297580E-02
      0.120000          0.263172E-02
      0.125000          0.232458E-02
      0.130000          0.205205E-02
      0.135000          0.181146E-02
      0.140000          0.160000E-02
      0.145000          0.141478E-02
      0.150000          0.125295E-02
      0.155000          0.111178E-02
      0.160000          0.988724E-03
      0.165000          0.881457E-03
      0.170000          0.787888E-03
      0.175000          0.706184E-03
      0.180000          0.634752E-03
      0.185000          0.572234E-03
      0.190000          0.517476E-03
      0.195000          0.469509E-03
      0.200000          0.427512E-03
      0.205000          0.390792E-03
      0.210000          0.358752E-03
      0.215000          0.330870E-03
      0.220000          0.306682E-03
      0.225000          0.285764E-03
      0.230000          0.267723E-03
      0.235000          0.252195E-03
      0.240000          0.238834E-03
      0.245000          0.227319E-03
      0.250000          0.217354E-03
      0.255000          0.208665E-03
      0.260000          0.201010E-03
      0.265000          0.194178E-03
      0.270000          0.187988E-03
      0.275000          0.182294E-03
      0.280000          0.176982E-03
      0.285000          0.171965E-03
      0.290000          0.167186E-03
      0.295000          0.162609E-03
      0.300000          0.158217E-03
      0.305000          0.154005E-03
      0.310000          0.149979E-03
      0.315000          0.146148E-03
      0.320000          0.142520E-03
      0.325000          0.139105E-03
      0.330000          0.135905E-03
      0.335000          0.132918E-03
      0.340000          0.130135E-03
      0.345000          0.127541E-03
      0.350000          0.125117E-03
      0.355000          0.122840E-03
      0.360000          0.120684E-03
      0.365000          0.118622E-03
      0.370000          0.116629E-03
      0.375000          0.114682E-03
      0.380000          0.112762E-03
      0.385000          0.110852E-03
      0.390000          0.108943E-03
      0.395000          0.107029E-03
      0.400000          0.105109E-03
      0.405000          0.103185E-03
      0.410000          0.101264E-03
      0.415000          0.993537E-04
      0.420000          0.974657E-04
      0.425000          0.956103E-04
      0.430000          0.937986E-04
      0.435000          0.920404E-04
      0.440000          0.903445E-04
      0.445000          0.887178E-04
      0.450000          0.871654E-04
      0.455000          0.856903E-04
      0.460000          0.842939E-04
      0.465000          0.829758E-04
      0.470000          0.817345E-04
      0.475000          0.805674E-04
      0.480000          0.794714E-04
      0.485000          0.784432E-04
      0.490000          0.774792E-04
      0.495000          0.765764E-04
      0.500000          0.757319E-04
