 I_abs(s)[cm^-1]/c[mg/ml]
       0.00000          0.148586E-01
      0.500000E-02      0.148162E-01
      0.100000E-01      0.146899E-01
      0.150000E-01      0.144817E-01
      0.200000E-01      0.141950E-01
      0.250000E-01      0.138345E-01
      0.300000E-01      0.134060E-01
      0.350000E-01      0.129162E-01
      0.400000E-01      0.123727E-01
      0.450000E-01      0.117835E-01
      0.500000E-01      0.111574E-01
      0.550000E-01      0.105032E-01
      0.600000E-01      0.982953E-02
      0.650000E-01      0.914520E-02
      0.700000E-01      0.845848E-02
      0.750000E-01      0.777718E-02
      0.800000E-01      0.710848E-02
      0.850000E-01      0.645880E-02
      0.900000E-01      0.583374E-02
      0.950000E-01      0.523803E-02
      0.100000          0.467547E-02
      0.105000          0.414897E-02
      0.110000          0.366056E-02
      0.115000          0.321140E-02
      0.120000          0.280190E-02
      0.125000          0.243176E-02
      0.130000          0.210007E-02
      0.135000          0.180539E-02
      0.140000          0.154587E-02
      0.145000          0.131932E-02
      0.150000          0.112333E-02
      0.155000          0.955330E-03
      0.160000          0.812674E-03
      0.165000          0.692721E-03
      0.170000          0.592880E-03
      0.175000          0.510663E-03
      0.180000          0.443716E-03
      0.185000          0.389850E-03
      0.190000          0.347057E-03
      0.195000          0.313516E-03
      0.200000          0.287599E-03
      0.205000          0.267866E-03
      0.210000          0.253059E-03
      0.215000          0.242087E-03
      0.220000          0.234020E-03
      0.225000          0.228071E-03
      0.230000          0.223585E-03
      0.235000          0.220023E-03
      0.240000          0.216950E-03
      0.245000          0.214027E-03
      0.250000          0.210993E-03
      0.255000          0.207662E-03
      0.260000          0.203908E-03
      0.265000          0.199663E-03
      0.270000          0.194902E-03
      0.275000          0.189641E-03
      0.280000          0.183928E-03
      0.285000          0.177835E-03
      0.290000          0.171455E-03
      0.295000          0.164889E-03
      0.300000          0.158249E-03
      0.305000          0.151645E-03
      0.310000          0.145183E-03
      0.315000          0.138961E-03
      0.320000          0.133063E-03
      0.325000          0.127560E-03
      0.330000          0.122506E-03
      0.335000          0.117936E-03
      0.340000          0.113868E-03
      0.345000          0.110303E-03
      0.350000          0.107228E-03
      0.355000          0.104616E-03
      0.360000          0.102428E-03
      0.365000          0.100620E-03
      0.370000          0.991422E-04
      0.375000          0.979423E-04
      0.380000          0.969695E-04
      0.385000          0.961759E-04
      0.390000          0.955180E-04
      0.395000          0.949586E-04
      0.400000          0.944672E-04
      0.405000          0.940202E-04
      0.410000          0.936009E-04
      0.415000          0.931984E-04
      0.420000          0.928072E-04
      0.425000          0.924257E-04
      0.430000          0.920548E-04
      0.435000          0.916969E-04
      0.440000          0.913545E-04
      0.445000          0.910292E-04
      0.450000          0.907209E-04
      0.455000          0.904274E-04
      0.460000          0.901437E-04
      0.465000          0.898623E-04
      0.470000          0.895735E-04
      0.475000          0.892656E-04
      0.480000          0.889257E-04
      0.485000          0.885406E-04
      0.490000          0.880972E-04
      0.495000          0.875834E-04
      0.500000          0.869893E-04
