 I_abs(s)[cm^-1]/c[mg/ml]
       0.00000          0.144446E-01
      0.500000E-02      0.144035E-01
      0.100000E-01      0.142810E-01
      0.150000E-01      0.140789E-01
      0.200000E-01      0.138008E-01
      0.250000E-01      0.134511E-01
      0.300000E-01      0.130355E-01
      0.350000E-01      0.125605E-01
      0.400000E-01      0.120337E-01
      0.450000E-01      0.114629E-01
      0.500000E-01      0.108567E-01
      0.550000E-01      0.102235E-01
      0.600000E-01      0.957214E-02
      0.650000E-01      0.891103E-02
      0.700000E-01      0.824832E-02
      0.750000E-01      0.759166E-02
      0.800000E-01      0.694807E-02
      0.850000E-01      0.632382E-02
      0.900000E-01      0.572436E-02
      0.950000E-01      0.515424E-02
      0.100000          0.461710E-02
      0.105000          0.411567E-02
      0.110000          0.365178E-02
      0.115000          0.322639E-02
      0.120000          0.283971E-02
      0.125000          0.249120E-02
      0.130000          0.217971E-02
      0.135000          0.190358E-02
      0.140000          0.166073E-02
      0.145000          0.144876E-02
      0.150000          0.126505E-02
      0.155000          0.110687E-02
      0.160000          0.971455E-03
      0.165000          0.856071E-03
      0.170000          0.758098E-03
      0.175000          0.675069E-03
      0.180000          0.604713E-03
      0.185000          0.544984E-03
      0.190000          0.494073E-03
      0.195000          0.450412E-03
      0.200000          0.412677E-03
      0.205000          0.379766E-03
      0.210000          0.350792E-03
      0.215000          0.325050E-03
      0.220000          0.302003E-03
      0.225000          0.281246E-03
      0.230000          0.262487E-03
      0.235000          0.245517E-03
      0.240000          0.230193E-03
      0.245000          0.216410E-03
      0.250000          0.204089E-03
      0.255000          0.193164E-03
      0.260000          0.183567E-03
      0.265000          0.175224E-03
      0.270000          0.168052E-03
      0.275000          0.161953E-03
      0.280000          0.156818E-03
      0.285000          0.152529E-03
      0.290000          0.148960E-03
      0.295000          0.145982E-03
      0.300000          0.143471E-03
      0.305000          0.141306E-03
      0.310000          0.139376E-03
      0.315000          0.137583E-03
      0.320000          0.135845E-03
      0.325000          0.134096E-03
      0.330000          0.132286E-03
      0.335000          0.130384E-03
      0.340000          0.128374E-03
      0.345000          0.126253E-03
      0.350000          0.124031E-03
      0.355000          0.121729E-03
      0.360000          0.119373E-03
      0.365000          0.116993E-03
      0.370000          0.114622E-03
      0.375000          0.112292E-03
      0.380000          0.110030E-03
      0.385000          0.107861E-03
      0.390000          0.105805E-03
      0.395000          0.103874E-03
      0.400000          0.102073E-03
      0.405000          0.100402E-03
      0.410000          0.988543E-04
      0.415000          0.974170E-04
      0.420000          0.960739E-04
      0.425000          0.948050E-04
      0.430000          0.935887E-04
      0.435000          0.924024E-04
      0.440000          0.912244E-04
      0.445000          0.900345E-04
      0.450000          0.888153E-04
      0.455000          0.875530E-04
      0.460000          0.862380E-04
      0.465000          0.848654E-04
      0.470000          0.834350E-04
      0.475000          0.819516E-04
      0.480000          0.804243E-04
      0.485000          0.788666E-04
      0.490000          0.772954E-04
      0.495000          0.757305E-04
      0.500000          0.741935E-04
