 I_abs(s)[cm^-1]/c[mg/ml]
       0.00000          0.147306E-01
      0.500000E-02      0.146873E-01
      0.100000E-01      0.145581E-01
      0.150000E-01      0.143453E-01
      0.200000E-01      0.140528E-01
      0.250000E-01      0.136856E-01
      0.300000E-01      0.132501E-01
      0.350000E-01      0.127535E-01
      0.400000E-01      0.122042E-01
      0.450000E-01      0.116107E-01
      0.500000E-01      0.109823E-01
      0.550000E-01      0.103282E-01
      0.600000E-01      0.965757E-02
      0.650000E-01      0.897918E-02
      0.700000E-01      0.830142E-02
      0.750000E-01      0.763199E-02
      0.800000E-01      0.697780E-02
      0.850000E-01      0.634490E-02
      0.900000E-01      0.573839E-02
      0.950000E-01      0.516238E-02
      0.100000          0.462006E-02
      0.105000          0.411366E-02
      0.110000          0.364452E-02
      0.115000          0.321320E-02
      0.120000          0.281957E-02
      0.125000          0.246284E-02
      0.130000          0.214177E-02
      0.135000          0.185469E-02
      0.140000          0.159964E-02
      0.145000          0.137449E-02
      0.150000          0.117695E-02
      0.155000          0.100471E-02
      0.160000          0.855480E-03
      0.165000          0.727022E-03
      0.170000          0.617206E-03
      0.175000          0.524021E-03
      0.180000          0.445594E-03
      0.185000          0.380194E-03
      0.190000          0.326232E-03
      0.195000          0.282257E-03
      0.200000          0.246944E-03
      0.205000          0.219087E-03
      0.210000          0.197590E-03
      0.215000          0.181456E-03
      0.220000          0.169778E-03
      0.225000          0.161738E-03
      0.230000          0.156596E-03
      0.235000          0.153691E-03
      0.240000          0.152437E-03
      0.245000          0.152322E-03
      0.250000          0.152911E-03
      0.255000          0.153837E-03
      0.260000          0.154806E-03
      0.265000          0.155591E-03
      0.270000          0.156032E-03
      0.275000          0.156023E-03
      0.280000          0.155514E-03
      0.285000          0.154502E-03
      0.290000          0.153018E-03
      0.295000          0.151124E-03
      0.300000          0.148903E-03
      0.305000          0.146451E-03
      0.310000          0.143866E-03
      0.315000          0.141245E-03
      0.320000          0.138678E-03
      0.325000          0.136240E-03
      0.330000          0.133992E-03
      0.335000          0.131975E-03
      0.340000          0.130213E-03
      0.345000          0.128711E-03
      0.350000          0.127459E-03
      0.355000          0.126430E-03
      0.360000          0.125590E-03
      0.365000          0.124892E-03
      0.370000          0.124290E-03
      0.375000          0.123732E-03
      0.380000          0.123170E-03
      0.385000          0.122558E-03
      0.390000          0.121859E-03
      0.395000          0.121042E-03
      0.400000          0.120084E-03
      0.405000          0.118972E-03
      0.410000          0.117700E-03
      0.415000          0.116273E-03
      0.420000          0.114700E-03
      0.425000          0.112997E-03
      0.430000          0.111187E-03
      0.435000          0.109292E-03
      0.440000          0.107339E-03
      0.445000          0.105352E-03
      0.450000          0.103359E-03
      0.455000          0.101382E-03
      0.460000          0.994433E-04
      0.465000          0.975606E-04
      0.470000          0.957494E-04
      0.475000          0.940219E-04
      0.480000          0.923872E-04
      0.485000          0.908516E-04
      0.490000          0.894189E-04
      0.495000          0.880912E-04
      0.500000          0.868687E-04
