 I_abs(s)[cm^-1]/c[mg/ml]
       0.00000          0.147465E-01
      0.500000E-02      0.147086E-01
      0.100000E-01      0.145952E-01
      0.150000E-01      0.144081E-01
      0.200000E-01      0.141502E-01
      0.250000E-01      0.138253E-01
      0.300000E-01      0.134382E-01
      0.350000E-01      0.129946E-01
      0.400000E-01      0.125008E-01
      0.450000E-01      0.119636E-01
      0.500000E-01      0.113903E-01
      0.550000E-01      0.107884E-01
      0.600000E-01      0.101653E-01
      0.650000E-01      0.952865E-02
      0.700000E-01      0.888552E-02
      0.750000E-01      0.824281E-02
      0.800000E-01      0.760690E-02
      0.850000E-01      0.698360E-02
      0.900000E-01      0.637809E-02
      0.950000E-01      0.579484E-02
      0.100000          0.523760E-02
      0.105000          0.470938E-02
      0.110000          0.421249E-02
      0.115000          0.374851E-02
      0.120000          0.331837E-02
      0.125000          0.292241E-02
      0.130000          0.256042E-02
      0.135000          0.223173E-02
      0.140000          0.193527E-02
      0.145000          0.166963E-02
      0.150000          0.143318E-02
      0.155000          0.122409E-02
      0.160000          0.104042E-02
      0.165000          0.880168E-03
      0.170000          0.741320E-03
      0.175000          0.621889E-03
      0.180000          0.519950E-03
      0.185000          0.433664E-03
      0.190000          0.361297E-03
      0.195000          0.301228E-03
      0.200000          0.251959E-03
      0.205000          0.212111E-03
      0.210000          0.180425E-03
      0.215000          0.155759E-03
      0.220000          0.137073E-03
      0.225000          0.123433E-03
      0.230000          0.113992E-03
      0.235000          0.107994E-03
      0.240000          0.104756E-03
      0.245000          0.103672E-03
      0.250000          0.104203E-03
      0.255000          0.105875E-03
      0.260000          0.108273E-03
      0.265000          0.111045E-03
      0.270000          0.113891E-03
      0.275000          0.116568E-03
      0.280000          0.118885E-03
      0.285000          0.120699E-03
      0.290000          0.121915E-03
      0.295000          0.122479E-03
      0.300000          0.122377E-03
      0.305000          0.121628E-03
      0.310000          0.120281E-03
      0.315000          0.118407E-03
      0.320000          0.116095E-03
      0.325000          0.113445E-03
      0.330000          0.110564E-03
      0.335000          0.107558E-03
      0.340000          0.104532E-03
      0.345000          0.101581E-03
      0.350000          0.987889E-04
      0.355000          0.962267E-04
      0.360000          0.939489E-04
      0.365000          0.919940E-04
      0.370000          0.903835E-04
      0.375000          0.891234E-04
      0.380000          0.882046E-04
      0.385000          0.876054E-04
      0.390000          0.872929E-04
      0.395000          0.872257E-04
      0.400000          0.873566E-04
      0.405000          0.876346E-04
      0.410000          0.880077E-04
      0.415000          0.884249E-04
      0.420000          0.888381E-04
      0.425000          0.892036E-04
      0.430000          0.894837E-04
      0.435000          0.896474E-04
      0.440000          0.896706E-04
      0.445000          0.895371E-04
      0.450000          0.892375E-04
      0.455000          0.887697E-04
      0.460000          0.881377E-04
      0.465000          0.873513E-04
      0.470000          0.864249E-04
      0.475000          0.853767E-04
      0.480000          0.842277E-04
      0.485000          0.830009E-04
      0.490000          0.817202E-04
      0.495000          0.804096E-04
      0.500000          0.790927E-04
