 I_abs(s)[cm^-1]/c[mg/ml]
       0.00000          0.145000E-01
      0.500000E-02      0.144557E-01
      0.100000E-01      0.143235E-01
      0.150000E-01      0.141059E-01
      0.200000E-01      0.138071E-01
      0.250000E-01      0.134326E-01
      0.300000E-01      0.129893E-01
      0.350000E-01      0.124850E-01
      0.400000E-01      0.119287E-01
      0.450000E-01      0.113297E-01
      0.500000E-01      0.106977E-01
      0.550000E-01      0.100426E-01
      0.600000E-01      0.937420E-02
      0.650000E-01      0.870163E-02
      0.700000E-01      0.803360E-02
      0.750000E-01      0.737800E-02
      0.800000E-01      0.674179E-02
      0.850000E-01      0.613089E-02
      0.900000E-01      0.555014E-02
      0.950000E-01      0.500326E-02
      0.100000          0.449287E-02
      0.105000          0.402056E-02
      0.110000          0.358693E-02
      0.115000          0.319174E-02
      0.120000          0.283398E-02
      0.125000          0.251207E-02
      0.130000          0.222391E-02
      0.135000          0.196711E-02
      0.140000          0.173904E-02
      0.145000          0.153700E-02
      0.150000          0.135831E-02
      0.155000          0.120037E-02
      0.160000          0.106076E-02
      0.165000          0.937299E-03
      0.170000          0.828014E-03
      0.175000          0.731210E-03
      0.180000          0.645446E-03
      0.185000          0.569515E-03
      0.190000          0.502426E-03
      0.195000          0.443368E-03
      0.200000          0.391674E-03
      0.205000          0.346787E-03
      0.210000          0.308224E-03
      0.215000          0.275542E-03
      0.220000          0.248317E-03
      0.225000          0.226120E-03
      0.230000          0.208505E-03
      0.235000          0.195001E-03
      0.240000          0.185113E-03
      0.245000          0.178324E-03
      0.250000          0.174104E-03
      0.255000          0.171924E-03
      0.260000          0.171264E-03
      0.265000          0.171632E-03
      0.270000          0.172574E-03
      0.275000          0.173686E-03
      0.280000          0.174625E-03
      0.285000          0.175110E-03
      0.290000          0.174933E-03
      0.295000          0.173952E-03
      0.300000          0.172093E-03
      0.305000          0.169341E-03
      0.310000          0.165735E-03
      0.315000          0.161357E-03
      0.320000          0.156325E-03
      0.325000          0.150777E-03
      0.330000          0.144867E-03
      0.335000          0.138750E-03
      0.340000          0.132577E-03
      0.345000          0.126489E-03
      0.350000          0.120607E-03
      0.355000          0.115032E-03
      0.360000          0.109844E-03
      0.365000          0.105095E-03
      0.370000          0.100819E-03
      0.375000          0.970247E-04
      0.380000          0.937048E-04
      0.385000          0.908353E-04
      0.390000          0.883807E-04
      0.395000          0.862965E-04
      0.400000          0.845331E-04
      0.405000          0.830387E-04
      0.410000          0.817616E-04
      0.415000          0.806524E-04
      0.420000          0.796660E-04
      0.425000          0.787620E-04
      0.430000          0.779060E-04
      0.435000          0.770695E-04
      0.440000          0.762299E-04
      0.445000          0.753706E-04
      0.450000          0.744800E-04
      0.455000          0.735514E-04
      0.460000          0.725820E-04
      0.465000          0.715730E-04
      0.470000          0.705285E-04
      0.475000          0.694552E-04
      0.480000          0.683619E-04
      0.485000          0.672593E-04
      0.490000          0.661596E-04
      0.495000          0.650760E-04
      0.500000          0.640223E-04
