 I_abs(s)[cm^-1]/c[mg/ml]
       0.00000          0.143894E-01
      0.500000E-02      0.143398E-01
      0.100000E-01      0.141923E-01
      0.150000E-01      0.139497E-01
      0.200000E-01      0.136168E-01
      0.250000E-01      0.132001E-01
      0.300000E-01      0.127077E-01
      0.350000E-01      0.121488E-01
      0.400000E-01      0.115339E-01
      0.450000E-01      0.108738E-01
      0.500000E-01      0.101799E-01
      0.550000E-01      0.946386E-02
      0.600000E-01      0.873678E-02
      0.650000E-01      0.800948E-02
      0.700000E-01      0.729199E-02
      0.750000E-01      0.659339E-02
      0.800000E-01      0.592166E-02
      0.850000E-01      0.528355E-02
      0.900000E-01      0.468448E-02
      0.950000E-01      0.412857E-02
      0.100000          0.361860E-02
      0.105000          0.315609E-02
      0.110000          0.274140E-02
      0.115000          0.237385E-02
      0.120000          0.205183E-02
      0.125000          0.177299E-02
      0.130000          0.153437E-02
      0.135000          0.133257E-02
      0.140000          0.116392E-02
      0.145000          0.102460E-02
      0.150000          0.910771E-03
      0.155000          0.818707E-03
      0.160000          0.744860E-03
      0.165000          0.685942E-03
      0.170000          0.638975E-03
      0.175000          0.601325E-03
      0.180000          0.570710E-03
      0.185000          0.545209E-03
      0.190000          0.523240E-03
      0.195000          0.503547E-03
      0.200000          0.485163E-03
      0.205000          0.467381E-03
      0.210000          0.449716E-03
      0.215000          0.431868E-03
      0.220000          0.413688E-03
      0.225000          0.395145E-03
      0.230000          0.376294E-03
      0.235000          0.357254E-03
      0.240000          0.338180E-03
      0.245000          0.319253E-03
      0.250000          0.300657E-03
      0.255000          0.282574E-03
      0.260000          0.265174E-03
      0.265000          0.248608E-03
      0.270000          0.233004E-03
      0.275000          0.218469E-03
      0.280000          0.205083E-03
      0.285000          0.192900E-03
      0.290000          0.181952E-03
      0.295000          0.172246E-03
      0.300000          0.163765E-03
      0.305000          0.156477E-03
      0.310000          0.150326E-03
      0.315000          0.145244E-03
      0.320000          0.141148E-03
      0.325000          0.137941E-03
      0.330000          0.135522E-03
      0.335000          0.133782E-03
      0.340000          0.132607E-03
      0.345000          0.131886E-03
      0.350000          0.131508E-03
      0.355000          0.131367E-03
      0.360000          0.131367E-03
      0.365000          0.131416E-03
      0.370000          0.131436E-03
      0.375000          0.131360E-03
      0.380000          0.131133E-03
      0.385000          0.130715E-03
      0.390000          0.130075E-03
      0.395000          0.129197E-03
      0.400000          0.128075E-03
      0.405000          0.126715E-03
      0.410000          0.125130E-03
      0.415000          0.123339E-03
      0.420000          0.121370E-03
      0.425000          0.119252E-03
      0.430000          0.117016E-03
      0.435000          0.114695E-03
      0.440000          0.112320E-03
      0.445000          0.109921E-03
      0.450000          0.107525E-03
      0.455000          0.105153E-03
      0.460000          0.102827E-03
      0.465000          0.100561E-03
      0.470000          0.983659E-04
      0.475000          0.962503E-04
      0.480000          0.942183E-04
      0.485000          0.922718E-04
      0.490000          0.904108E-04
      0.495000          0.886335E-04
      0.500000          0.869375E-04
