 I_abs(s)[cm^-1]/c[mg/ml]
       0.00000          0.147306E-01
      0.500000E-02      0.146872E-01
      0.100000E-01      0.145577E-01
      0.150000E-01      0.143444E-01
      0.200000E-01      0.140510E-01
      0.250000E-01      0.136824E-01
      0.300000E-01      0.132449E-01
      0.350000E-01      0.127456E-01
      0.400000E-01      0.121925E-01
      0.450000E-01      0.115944E-01
      0.500000E-01      0.109604E-01
      0.550000E-01      0.102997E-01
      0.600000E-01      0.962168E-02
      0.650000E-01      0.893527E-02
      0.700000E-01      0.824912E-02
      0.750000E-01      0.757126E-02
      0.800000E-01      0.690897E-02
      0.850000E-01      0.626869E-02
      0.900000E-01      0.565593E-02
      0.950000E-01      0.507521E-02
      0.100000          0.453006E-02
      0.105000          0.402299E-02
      0.110000          0.355559E-02
      0.115000          0.312852E-02
      0.120000          0.274166E-02
      0.125000          0.239413E-02
      0.130000          0.208448E-02
      0.135000          0.181074E-02
      0.140000          0.157055E-02
      0.145000          0.136131E-02
      0.150000          0.118022E-02
      0.155000          0.102445E-02
      0.160000          0.891145E-03
      0.165000          0.777579E-03
      0.170000          0.681157E-03
      0.175000          0.599485E-03
      0.180000          0.530389E-03
      0.185000          0.471939E-03
      0.190000          0.422451E-03
      0.195000          0.380482E-03
      0.200000          0.344820E-03
      0.205000          0.314458E-03
      0.210000          0.288578E-03
      0.215000          0.266519E-03
      0.220000          0.247752E-03
      0.225000          0.231852E-03
      0.230000          0.218476E-03
      0.235000          0.207336E-03
      0.240000          0.198187E-03
      0.245000          0.190807E-03
      0.250000          0.184987E-03
      0.255000          0.180523E-03
      0.260000          0.177214E-03
      0.265000          0.174859E-03
      0.270000          0.173257E-03
      0.275000          0.172210E-03
      0.280000          0.171529E-03
      0.285000          0.171034E-03
      0.290000          0.170563E-03
      0.295000          0.169973E-03
      0.300000          0.169142E-03
      0.305000          0.167975E-03
      0.310000          0.166403E-03
      0.315000          0.164384E-03
      0.320000          0.161900E-03
      0.325000          0.158958E-03
      0.330000          0.155587E-03
      0.335000          0.151832E-03
      0.340000          0.147753E-03
      0.345000          0.143421E-03
      0.350000          0.138914E-03
      0.355000          0.134310E-03
      0.360000          0.129688E-03
      0.365000          0.125125E-03
      0.370000          0.120688E-03
      0.375000          0.116438E-03
      0.380000          0.112427E-03
      0.385000          0.108694E-03
      0.390000          0.105268E-03
      0.395000          0.102167E-03
      0.400000          0.993983E-04
      0.405000          0.969602E-04
      0.410000          0.948414E-04
      0.415000          0.930234E-04
      0.420000          0.914816E-04
      0.425000          0.901869E-04
      0.430000          0.891066E-04
      0.435000          0.882066E-04
      0.440000          0.874519E-04
      0.445000          0.868082E-04
      0.450000          0.862429E-04
      0.455000          0.857259E-04
      0.460000          0.852304E-04
      0.465000          0.847331E-04
      0.470000          0.842153E-04
      0.475000          0.836623E-04
      0.480000          0.830638E-04
      0.485000          0.824138E-04
      0.490000          0.817104E-04
      0.495000          0.809550E-04
      0.500000          0.801524E-04
