 I_abs(s)[cm^-1]/c[mg/ml]
       0.00000          0.146270E-01
      0.500000E-02      0.145830E-01
      0.100000E-01      0.144520E-01
      0.150000E-01      0.142365E-01
      0.200000E-01      0.139404E-01
      0.250000E-01      0.135693E-01
      0.300000E-01      0.131299E-01
      0.350000E-01      0.126302E-01
      0.400000E-01      0.120786E-01
      0.450000E-01      0.114845E-01
      0.500000E-01      0.108572E-01
      0.550000E-01      0.102063E-01
      0.600000E-01      0.954122E-02
      0.650000E-01      0.887074E-02
      0.700000E-01      0.820318E-02
      0.750000E-01      0.754606E-02
      0.800000E-01      0.690602E-02
      0.850000E-01      0.628872E-02
      0.900000E-01      0.569883E-02
      0.950000E-01      0.514000E-02
      0.100000          0.461493E-02
      0.105000          0.412537E-02
      0.110000          0.367227E-02
      0.115000          0.325580E-02
      0.120000          0.287553E-02
      0.125000          0.253049E-02
      0.130000          0.221928E-02
      0.135000          0.194021E-02
      0.140000          0.169135E-02
      0.145000          0.147066E-02
      0.150000          0.127601E-02
      0.155000          0.110527E-02
      0.160000          0.956361E-03
      0.165000          0.827260E-03
      0.170000          0.716042E-03
      0.175000          0.620885E-03
      0.180000          0.540081E-03
      0.185000          0.472035E-03
      0.190000          0.415258E-03
      0.195000          0.368373E-03
      0.200000          0.330097E-03
      0.205000          0.299246E-03
      0.210000          0.274726E-03
      0.215000          0.255529E-03
      0.220000          0.240732E-03
      0.225000          0.229496E-03
      0.230000          0.221063E-03
      0.235000          0.214759E-03
      0.240000          0.209992E-03
      0.245000          0.206250E-03
      0.250000          0.203102E-03
      0.255000          0.200195E-03
      0.260000          0.197252E-03
      0.265000          0.194066E-03
      0.270000          0.190495E-03
      0.275000          0.186458E-03
      0.280000          0.181925E-03
      0.285000          0.176912E-03
      0.290000          0.171470E-03
      0.295000          0.165681E-03
      0.300000          0.159645E-03
      0.305000          0.153477E-03
      0.310000          0.147297E-03
      0.315000          0.141224E-03
      0.320000          0.135370E-03
      0.325000          0.129836E-03
      0.330000          0.124707E-03
      0.335000          0.120054E-03
      0.340000          0.115924E-03
      0.345000          0.112348E-03
      0.350000          0.109335E-03
      0.355000          0.106877E-03
      0.360000          0.104949E-03
      0.365000          0.103511E-03
      0.370000          0.102511E-03
      0.375000          0.101889E-03
      0.380000          0.101581E-03
      0.385000          0.101517E-03
      0.390000          0.101629E-03
      0.395000          0.101852E-03
      0.400000          0.102124E-03
      0.405000          0.102392E-03
      0.410000          0.102610E-03
      0.415000          0.102739E-03
      0.420000          0.102752E-03
      0.425000          0.102630E-03
      0.430000          0.102360E-03
      0.435000          0.101941E-03
      0.440000          0.101377E-03
      0.445000          0.100675E-03
      0.450000          0.998493E-04
      0.455000          0.989163E-04
      0.460000          0.978931E-04
      0.465000          0.967975E-04
      0.470000          0.956463E-04
      0.475000          0.944545E-04
      0.480000          0.932347E-04
      0.485000          0.919966E-04
      0.490000          0.907467E-04
      0.495000          0.894882E-04
      0.500000          0.882214E-04
