 I_abs(s)[cm^-1]/c[mg/ml]
       0.00000          0.145317E-01
      0.500000E-02      0.144824E-01
      0.100000E-01      0.143355E-01
      0.150000E-01      0.140940E-01
      0.200000E-01      0.137629E-01
      0.250000E-01      0.133489E-01
      0.300000E-01      0.128603E-01
      0.350000E-01      0.123065E-01
      0.400000E-01      0.116980E-01
      0.450000E-01      0.110459E-01
      0.500000E-01      0.103616E-01
      0.550000E-01      0.965661E-02
      0.600000E-01      0.894186E-02
      0.650000E-01      0.822790E-02
      0.700000E-01      0.752437E-02
      0.750000E-01      0.683987E-02
      0.800000E-01      0.618185E-02
      0.850000E-01      0.555648E-02
      0.900000E-01      0.496859E-02
      0.950000E-01      0.442173E-02
      0.100000          0.391819E-02
      0.105000          0.345904E-02
      0.110000          0.304434E-02
      0.115000          0.267319E-02
      0.120000          0.234392E-02
      0.125000          0.205424E-02
      0.130000          0.180138E-02
      0.135000          0.158226E-02
      0.140000          0.139363E-02
      0.145000          0.123217E-02
      0.150000          0.109459E-02
      0.155000          0.977725E-03
      0.160000          0.878621E-03
      0.165000          0.794540E-03
      0.170000          0.723019E-03
      0.175000          0.661871E-03
      0.180000          0.609195E-03
      0.185000          0.563367E-03
      0.190000          0.523024E-03
      0.195000          0.487043E-03
      0.200000          0.454523E-03
      0.205000          0.424756E-03
      0.210000          0.397199E-03
      0.215000          0.371455E-03
      0.220000          0.347248E-03
      0.225000          0.324394E-03
      0.230000          0.302790E-03
      0.235000          0.282390E-03
      0.240000          0.263187E-03
      0.245000          0.245204E-03
      0.250000          0.228476E-03
      0.255000          0.213041E-03
      0.260000          0.198932E-03
      0.265000          0.186169E-03
      0.270000          0.174754E-03
      0.275000          0.164670E-03
      0.280000          0.155876E-03
      0.285000          0.148309E-03
      0.290000          0.141887E-03
      0.295000          0.136510E-03
      0.300000          0.132065E-03
      0.305000          0.128433E-03
      0.310000          0.125488E-03
      0.315000          0.123107E-03
      0.320000          0.121174E-03
      0.325000          0.119580E-03
      0.330000          0.118232E-03
      0.335000          0.117051E-03
      0.340000          0.115974E-03
      0.345000          0.114954E-03
      0.350000          0.113962E-03
      0.355000          0.112979E-03
      0.360000          0.112000E-03
      0.365000          0.111029E-03
      0.370000          0.110074E-03
      0.375000          0.109149E-03
      0.380000          0.108264E-03
      0.385000          0.107431E-03
      0.390000          0.106656E-03
      0.395000          0.105942E-03
      0.400000          0.105283E-03
      0.405000          0.104673E-03
      0.410000          0.104095E-03
      0.415000          0.103532E-03
      0.420000          0.102964E-03
      0.425000          0.102369E-03
      0.430000          0.101726E-03
      0.435000          0.101015E-03
      0.440000          0.100221E-03
      0.445000          0.993325E-04
      0.450000          0.983429E-04
      0.455000          0.972518E-04
      0.460000          0.960642E-04
      0.465000          0.947902E-04
      0.470000          0.934447E-04
      0.475000          0.920461E-04
      0.480000          0.906154E-04
      0.485000          0.891751E-04
      0.490000          0.877478E-04
      0.495000          0.863551E-04
      0.500000          0.850164E-04
