 I_abs(s)[cm^-1]/c[mg/ml]
       0.00000          0.142399E-01
      0.500000E-02      0.141824E-01
      0.100000E-01      0.140113E-01
      0.150000E-01      0.137310E-01
      0.200000E-01      0.133482E-01
      0.250000E-01      0.128722E-01
      0.300000E-01      0.123144E-01
      0.350000E-01      0.116876E-01
      0.400000E-01      0.110060E-01
      0.450000E-01      0.102840E-01
      0.500000E-01      0.953661E-02
      0.550000E-01      0.877819E-02
      0.600000E-01      0.802241E-02
      0.650000E-01      0.728175E-02
      0.700000E-01      0.656717E-02
      0.750000E-01      0.588793E-02
      0.800000E-01      0.525140E-02
      0.850000E-01      0.466300E-02
      0.900000E-01      0.412624E-02
      0.950000E-01      0.364282E-02
      0.100000          0.321274E-02
      0.105000          0.283456E-02
      0.110000          0.250561E-02
      0.115000          0.222229E-02
      0.120000          0.198029E-02
      0.125000          0.177490E-02
      0.130000          0.160120E-02
      0.135000          0.145434E-02
      0.140000          0.132969E-02
      0.145000          0.122298E-02
      0.150000          0.113041E-02
      0.155000          0.104872E-02
      0.160000          0.975218E-03
      0.165000          0.907784E-03
      0.170000          0.844827E-03
      0.175000          0.785242E-03
      0.180000          0.728348E-03
      0.185000          0.673809E-03
      0.190000          0.621557E-03
      0.195000          0.571720E-03
      0.200000          0.524544E-03
      0.205000          0.480334E-03
      0.210000          0.439397E-03
      0.215000          0.402000E-03
      0.220000          0.368342E-03
      0.225000          0.338530E-03
      0.230000          0.312568E-03
      0.235000          0.290360E-03
      0.240000          0.271714E-03
      0.245000          0.256356E-03
      0.250000          0.243943E-03
      0.255000          0.234088E-03
      0.260000          0.226374E-03
      0.265000          0.220380E-03
      0.270000          0.215694E-03
      0.275000          0.211932E-03
      0.280000          0.208750E-03
      0.285000          0.205857E-03
      0.290000          0.203017E-03
      0.295000          0.200051E-03
      0.300000          0.196841E-03
      0.305000          0.193321E-03
      0.310000          0.189475E-03
      0.315000          0.185326E-03
      0.320000          0.180926E-03
      0.325000          0.176351E-03
      0.330000          0.171687E-03
      0.335000          0.167020E-03
      0.340000          0.162436E-03
      0.345000          0.158006E-03
      0.350000          0.153788E-03
      0.355000          0.149821E-03
      0.360000          0.146127E-03
      0.365000          0.142709E-03
      0.370000          0.139557E-03
      0.375000          0.136647E-03
      0.380000          0.133948E-03
      0.385000          0.131424E-03
      0.390000          0.129039E-03
      0.395000          0.126760E-03
      0.400000          0.124558E-03
      0.405000          0.122411E-03
      0.410000          0.120304E-03
      0.415000          0.118233E-03
      0.420000          0.116195E-03
      0.425000          0.114197E-03
      0.430000          0.112246E-03
      0.435000          0.110351E-03
      0.440000          0.108523E-03
      0.445000          0.106766E-03
      0.450000          0.105085E-03
      0.455000          0.103476E-03
      0.460000          0.101934E-03
      0.465000          0.100448E-03
      0.470000          0.990024E-04
      0.475000          0.975811E-04
      0.480000          0.961654E-04
      0.485000          0.947377E-04
      0.490000          0.932820E-04
      0.495000          0.917859E-04
      0.500000          0.902412E-04
