 I_abs(s)[cm^-1]/c[mg/ml]
       0.00000          0.144446E-01
      0.500000E-02      0.143996E-01
      0.100000E-01      0.142653E-01
      0.150000E-01      0.140442E-01
      0.200000E-01      0.137402E-01
      0.250000E-01      0.133586E-01
      0.300000E-01      0.129061E-01
      0.350000E-01      0.123903E-01
      0.400000E-01      0.118200E-01
      0.450000E-01      0.112044E-01
      0.500000E-01      0.105532E-01
      0.550000E-01      0.987634E-02
      0.600000E-01      0.918365E-02
      0.650000E-01      0.848476E-02
      0.700000E-01      0.778877E-02
      0.750000E-01      0.710416E-02
      0.800000E-01      0.643856E-02
      0.850000E-01      0.579871E-02
      0.900000E-01      0.519028E-02
      0.950000E-01      0.461790E-02
      0.100000          0.408507E-02
      0.105000          0.359422E-02
      0.110000          0.314673E-02
      0.115000          0.274303E-02
      0.120000          0.238263E-02
      0.125000          0.206428E-02
      0.130000          0.178607E-02
      0.135000          0.154556E-02
      0.140000          0.133990E-02
      0.145000          0.116595E-02
      0.150000          0.102041E-02
      0.155000          0.899950E-03
      0.160000          0.801242E-03
      0.165000          0.721100E-03
      0.170000          0.656520E-03
      0.175000          0.604736E-03
      0.180000          0.563251E-03
      0.185000          0.529862E-03
      0.190000          0.502666E-03
      0.195000          0.480052E-03
      0.200000          0.460695E-03
      0.205000          0.443531E-03
      0.210000          0.427732E-03
      0.215000          0.412678E-03
      0.220000          0.397928E-03
      0.225000          0.383190E-03
      0.230000          0.368290E-03
      0.235000          0.353150E-03
      0.240000          0.337762E-03
      0.245000          0.322169E-03
      0.250000          0.306450E-03
      0.255000          0.290705E-03
      0.260000          0.275047E-03
      0.265000          0.259594E-03
      0.270000          0.244464E-03
      0.275000          0.229771E-03
      0.280000          0.215625E-03
      0.285000          0.202128E-03
      0.290000          0.189373E-03
      0.295000          0.177446E-03
      0.300000          0.166420E-03
      0.305000          0.156360E-03
      0.310000          0.147316E-03
      0.315000          0.139324E-03
      0.320000          0.132405E-03
      0.325000          0.126562E-03
      0.330000          0.121780E-03
      0.335000          0.118026E-03
      0.340000          0.115247E-03
      0.345000          0.113374E-03
      0.350000          0.112317E-03
      0.355000          0.111976E-03
      0.360000          0.112236E-03
      0.365000          0.112973E-03
      0.370000          0.114060E-03
      0.375000          0.115367E-03
      0.380000          0.116767E-03
      0.385000          0.118142E-03
      0.390000          0.119382E-03
      0.395000          0.120391E-03
      0.400000          0.121090E-03
      0.405000          0.121418E-03
      0.410000          0.121334E-03
      0.415000          0.120814E-03
      0.420000          0.119856E-03
      0.425000          0.118474E-03
      0.430000          0.116698E-03
      0.435000          0.114572E-03
      0.440000          0.112152E-03
      0.445000          0.109499E-03
      0.450000          0.106681E-03
      0.455000          0.103766E-03
      0.460000          0.100821E-03
      0.465000          0.979088E-04
      0.470000          0.950854E-04
      0.475000          0.923990E-04
      0.480000          0.898884E-04
      0.485000          0.875820E-04
      0.490000          0.854980E-04
      0.495000          0.836444E-04
      0.500000          0.820199E-04
