 I_abs(s)[cm^-1]/c[mg/ml]
       0.00000          0.145793E-01
      0.500000E-02      0.145383E-01
      0.100000E-01      0.144158E-01
      0.150000E-01      0.142139E-01
      0.200000E-01      0.139360E-01
      0.250000E-01      0.135865E-01
      0.300000E-01      0.131712E-01
      0.350000E-01      0.126965E-01
      0.400000E-01      0.121698E-01
      0.450000E-01      0.115990E-01
      0.500000E-01      0.109926E-01
      0.550000E-01      0.103590E-01
      0.600000E-01      0.970676E-02
      0.650000E-01      0.904436E-02
      0.700000E-01      0.837979E-02
      0.750000E-01      0.772063E-02
      0.800000E-01      0.707378E-02
      0.850000E-01      0.644542E-02
      0.900000E-01      0.584093E-02
      0.950000E-01      0.526481E-02
      0.100000          0.472065E-02
      0.105000          0.421117E-02
      0.110000          0.373821E-02
      0.115000          0.330280E-02
      0.120000          0.290520E-02
      0.125000          0.254500E-02
      0.130000          0.222121E-02
      0.135000          0.193234E-02
      0.140000          0.167649E-02
      0.145000          0.145149E-02
      0.150000          0.125495E-02
      0.155000          0.108437E-02
      0.160000          0.937209E-03
      0.165000          0.810967E-03
      0.170000          0.703217E-03
      0.175000          0.611669E-03
      0.180000          0.534197E-03
      0.185000          0.468860E-03
      0.190000          0.413916E-03
      0.195000          0.367824E-03
      0.200000          0.329238E-03
      0.205000          0.296999E-03
      0.210000          0.270117E-03
      0.215000          0.247756E-03
      0.220000          0.229212E-03
      0.225000          0.213892E-03
      0.230000          0.201299E-03
      0.235000          0.191012E-03
      0.240000          0.182669E-03
      0.245000          0.175955E-03
      0.250000          0.170593E-03
      0.255000          0.166334E-03
      0.260000          0.162953E-03
      0.265000          0.160243E-03
      0.270000          0.158018E-03
      0.275000          0.156107E-03
      0.280000          0.154361E-03
      0.285000          0.152648E-03
      0.290000          0.150858E-03
      0.295000          0.148901E-03
      0.300000          0.146713E-03
      0.305000          0.144250E-03
      0.310000          0.141489E-03
      0.315000          0.138428E-03
      0.320000          0.135083E-03
      0.325000          0.131486E-03
      0.330000          0.127680E-03
      0.335000          0.123716E-03
      0.340000          0.119651E-03
      0.345000          0.115544E-03
      0.350000          0.111452E-03
      0.355000          0.107429E-03
      0.360000          0.103520E-03
      0.365000          0.997646E-04
      0.370000          0.961921E-04
      0.375000          0.928225E-04
      0.380000          0.896663E-04
      0.385000          0.867258E-04
      0.390000          0.839954E-04
      0.395000          0.814637E-04
      0.400000          0.791148E-04
      0.405000          0.769303E-04
      0.410000          0.748909E-04
      0.415000          0.729780E-04
      0.420000          0.711753E-04
      0.425000          0.694698E-04
      0.430000          0.678525E-04
      0.435000          0.663190E-04
      0.440000          0.648698E-04
      0.445000          0.635096E-04
      0.450000          0.622471E-04
      0.455000          0.610942E-04
      0.460000          0.600650E-04
      0.465000          0.591745E-04
      0.470000          0.584381E-04
      0.475000          0.578698E-04
      0.480000          0.574814E-04
      0.485000          0.572820E-04
      0.490000          0.572765E-04
      0.495000          0.574658E-04
      0.500000          0.578464E-04
