 I_abs(s)[cm^-1]/c[mg/ml]
       0.00000          0.146429E-01
      0.500000E-02      0.145998E-01
      0.100000E-01      0.144714E-01
      0.150000E-01      0.142600E-01
      0.200000E-01      0.139694E-01
      0.250000E-01      0.136050E-01
      0.300000E-01      0.131731E-01
      0.350000E-01      0.126814E-01
      0.400000E-01      0.121382E-01
      0.450000E-01      0.115522E-01
      0.500000E-01      0.109329E-01
      0.550000E-01      0.102894E-01
      0.600000E-01      0.963109E-02
      0.650000E-01      0.896671E-02
      0.700000E-01      0.830458E-02
      0.750000E-01      0.765228E-02
      0.800000E-01      0.701654E-02
      0.850000E-01      0.640317E-02
      0.900000E-01      0.581700E-02
      0.950000E-01      0.526183E-02
      0.100000          0.474047E-02
      0.105000          0.425479E-02
      0.110000          0.380576E-02
      0.115000          0.339355E-02
      0.120000          0.301765E-02
      0.125000          0.267696E-02
      0.130000          0.236991E-02
      0.135000          0.209459E-02
      0.140000          0.184883E-02
      0.145000          0.163035E-02
      0.150000          0.143677E-02
      0.155000          0.126577E-02
      0.160000          0.111509E-02
      0.165000          0.982591E-03
      0.170000          0.866300E-03
      0.175000          0.764406E-03
      0.180000          0.675284E-03
      0.185000          0.597481E-03
      0.190000          0.529715E-03
      0.195000          0.470854E-03
      0.200000          0.419904E-03
      0.205000          0.375986E-03
      0.210000          0.338318E-03
      0.215000          0.306201E-03
      0.220000          0.278998E-03
      0.225000          0.256127E-03
      0.230000          0.237050E-03
      0.235000          0.221266E-03
      0.240000          0.208304E-03
      0.245000          0.197729E-03
      0.250000          0.189134E-03
      0.255000          0.182145E-03
      0.260000          0.176424E-03
      0.265000          0.171666E-03
      0.270000          0.167606E-03
      0.275000          0.164018E-03
      0.280000          0.160714E-03
      0.285000          0.157546E-03
      0.290000          0.154402E-03
      0.295000          0.151205E-03
      0.300000          0.147908E-03
      0.305000          0.144493E-03
      0.310000          0.140961E-03
      0.315000          0.137336E-03
      0.320000          0.133651E-03
      0.325000          0.129951E-03
      0.330000          0.126282E-03
      0.335000          0.122695E-03
      0.340000          0.119235E-03
      0.345000          0.115943E-03
      0.350000          0.112854E-03
      0.355000          0.109993E-03
      0.360000          0.107377E-03
      0.365000          0.105013E-03
      0.370000          0.102899E-03
      0.375000          0.101023E-03
      0.380000          0.993695E-04
      0.385000          0.979130E-04
      0.390000          0.966253E-04
      0.395000          0.954745E-04
      0.400000          0.944274E-04
      0.405000          0.934505E-04
      0.410000          0.925115E-04
      0.415000          0.915807E-04
      0.420000          0.906318E-04
      0.425000          0.896430E-04
      0.430000          0.885971E-04
      0.435000          0.874822E-04
      0.440000          0.862919E-04
      0.445000          0.850249E-04
      0.450000          0.836849E-04
      0.455000          0.822800E-04
      0.460000          0.808223E-04
      0.465000          0.793270E-04
      0.470000          0.778117E-04
      0.475000          0.762954E-04
      0.480000          0.747980E-04
      0.485000          0.733390E-04
      0.490000          0.719375E-04
      0.495000          0.706105E-04
      0.500000          0.693734E-04
