 I_abs(s)[cm^-1]/c[mg/ml]
       0.00000          0.149185E-01
      0.500000E-02      0.148709E-01
      0.100000E-01      0.147292E-01
      0.150000E-01      0.144960E-01
      0.200000E-01      0.141758E-01
      0.250000E-01      0.137745E-01
      0.300000E-01      0.132997E-01
      0.350000E-01      0.127597E-01
      0.400000E-01      0.121643E-01
      0.450000E-01      0.115235E-01
      0.500000E-01      0.108478E-01
      0.550000E-01      0.101480E-01
      0.600000E-01      0.943450E-02
      0.650000E-01      0.871728E-02
      0.700000E-01      0.800576E-02
      0.750000E-01      0.730846E-02
      0.800000E-01      0.663294E-02
      0.850000E-01      0.598563E-02
      0.900000E-01      0.537180E-02
      0.950000E-01      0.479554E-02
      0.100000          0.425975E-02
      0.105000          0.376621E-02
      0.110000          0.331566E-02
      0.115000          0.290789E-02
      0.120000          0.254189E-02
      0.125000          0.221596E-02
      0.130000          0.192788E-02
      0.135000          0.167501E-02
      0.140000          0.145448E-02
      0.145000          0.126326E-02
      0.150000          0.109828E-02
      0.155000          0.956547E-03
      0.160000          0.835197E-03
      0.165000          0.731559E-03
      0.170000          0.643190E-03
      0.175000          0.567903E-03
      0.180000          0.503771E-03
      0.185000          0.449121E-03
      0.190000          0.402528E-03
      0.195000          0.362788E-03
      0.200000          0.328895E-03
      0.205000          0.300015E-03
      0.210000          0.275456E-03
      0.215000          0.254644E-03
      0.220000          0.237098E-03
      0.225000          0.222409E-03
      0.230000          0.210222E-03
      0.235000          0.200224E-03
      0.240000          0.192133E-03
      0.245000          0.185691E-03
      0.250000          0.180659E-03
      0.255000          0.176814E-03
      0.260000          0.173950E-03
      0.265000          0.171876E-03
      0.270000          0.170417E-03
      0.275000          0.169416E-03
      0.280000          0.168731E-03
      0.285000          0.168238E-03
      0.290000          0.167832E-03
      0.295000          0.167420E-03
      0.300000          0.166929E-03
      0.305000          0.166298E-03
      0.310000          0.165482E-03
      0.315000          0.164445E-03
      0.320000          0.163165E-03
      0.325000          0.161631E-03
      0.330000          0.159841E-03
      0.335000          0.157801E-03
      0.340000          0.155526E-03
      0.345000          0.153041E-03
      0.350000          0.150375E-03
      0.355000          0.147565E-03
      0.360000          0.144651E-03
      0.365000          0.141680E-03
      0.370000          0.138697E-03
      0.375000          0.135751E-03
      0.380000          0.132888E-03
      0.385000          0.130151E-03
      0.390000          0.127579E-03
      0.395000          0.125204E-03
      0.400000          0.123050E-03
      0.405000          0.121131E-03
      0.410000          0.119454E-03
      0.415000          0.118014E-03
      0.420000          0.116796E-03
      0.425000          0.115778E-03
      0.430000          0.114929E-03
      0.435000          0.114213E-03
      0.440000          0.113588E-03
      0.445000          0.113010E-03
      0.450000          0.112436E-03
      0.455000          0.111821E-03
      0.460000          0.111128E-03
      0.465000          0.110321E-03
      0.470000          0.109373E-03
      0.475000          0.108264E-03
      0.480000          0.106980E-03
      0.485000          0.105517E-03
      0.490000          0.103879E-03
      0.495000          0.102078E-03
      0.500000          0.100130E-03
