 I_abs(s)[cm^-1]/c[mg/ml]
       0.00000          0.135744E-01
      0.500000E-02      0.134881E-01
      0.100000E-01      0.132328E-01
      0.150000E-01      0.128186E-01
      0.200000E-01      0.122618E-01
      0.250000E-01      0.115839E-01
      0.300000E-01      0.108101E-01
      0.350000E-01      0.996816E-02
      0.400000E-01      0.908689E-02
      0.450000E-01      0.819436E-02
      0.500000E-01      0.731668E-02
      0.550000E-01      0.647676E-02
      0.600000E-01      0.569341E-02
      0.650000E-01      0.498067E-02
      0.700000E-01      0.434763E-02
      0.750000E-01      0.379842E-02
      0.800000E-01      0.333264E-02
      0.850000E-01      0.294594E-02
      0.900000E-01      0.263086E-02
      0.950000E-01      0.237772E-02
      0.100000          0.217558E-02
      0.105000          0.201315E-02
      0.110000          0.187962E-02
      0.115000          0.176527E-02
      0.120000          0.166199E-02
      0.125000          0.156355E-02
      0.130000          0.146568E-02
      0.135000          0.136604E-02
      0.140000          0.126394E-02
      0.145000          0.116006E-02
      0.150000          0.105609E-02
      0.155000          0.954266E-03
      0.160000          0.857060E-03
      0.165000          0.766802E-03
      0.170000          0.685439E-03
      0.175000          0.614351E-03
      0.180000          0.554260E-03
      0.185000          0.505214E-03
      0.190000          0.466644E-03
      0.195000          0.437475E-03
      0.200000          0.416260E-03
      0.205000          0.401340E-03
      0.210000          0.391000E-03
      0.215000          0.383600E-03
      0.220000          0.377687E-03
      0.225000          0.372074E-03
      0.230000          0.365880E-03
      0.235000          0.358538E-03
      0.240000          0.349779E-03
      0.245000          0.339592E-03
      0.250000          0.328162E-03
      0.255000          0.315819E-03
      0.260000          0.302966E-03
      0.265000          0.290032E-03
      0.270000          0.277420E-03
      0.275000          0.265474E-03
      0.280000          0.254460E-03
      0.285000          0.244552E-03
      0.290000          0.235832E-03
      0.295000          0.228302E-03
      0.300000          0.221894E-03
      0.305000          0.216485E-03
      0.310000          0.211918E-03
      0.315000          0.208015E-03
      0.320000          0.204591E-03
      0.325000          0.201468E-03
      0.330000          0.198480E-03
      0.335000          0.195482E-03
      0.340000          0.192351E-03
      0.345000          0.188990E-03
      0.350000          0.185326E-03
      0.355000          0.181315E-03
      0.360000          0.176932E-03
      0.365000          0.172180E-03
      0.370000          0.167082E-03
      0.375000          0.161681E-03
      0.380000          0.156039E-03
      0.385000          0.150232E-03
      0.390000          0.144348E-03
      0.395000          0.138486E-03
      0.400000          0.132746E-03
      0.405000          0.127228E-03
      0.410000          0.122029E-03
      0.415000          0.117233E-03
      0.420000          0.112913E-03
      0.425000          0.109122E-03
      0.430000          0.105893E-03
      0.435000          0.103237E-03
      0.440000          0.101144E-03
      0.445000          0.995805E-04
      0.450000          0.984933E-04
      0.455000          0.978134E-04
      0.460000          0.974585E-04
      0.465000          0.973385E-04
      0.470000          0.973598E-04
      0.475000          0.974310E-04
      0.480000          0.974675E-04
      0.485000          0.973956E-04
      0.490000          0.971563E-04
      0.495000          0.967082E-04
      0.500000          0.960284E-04
