 I_abs(s)[cm^-1]/c[mg/ml]
       0.00000          0.141404E-01
      0.500000E-02      0.140693E-01
      0.100000E-01      0.138586E-01
      0.150000E-01      0.135160E-01
      0.200000E-01      0.130539E-01
      0.250000E-01      0.124885E-01
      0.300000E-01      0.118389E-01
      0.350000E-01      0.111260E-01
      0.400000E-01      0.103712E-01
      0.450000E-01      0.959572E-02
      0.500000E-01      0.881889E-02
      0.550000E-01      0.805791E-02
      0.600000E-01      0.732702E-02
      0.650000E-01      0.663718E-02
      0.700000E-01      0.599600E-02
      0.750000E-01      0.540784E-02
      0.800000E-01      0.487418E-02
      0.850000E-01      0.439410E-02
      0.900000E-01      0.396478E-02
      0.950000E-01      0.358216E-02
      0.100000          0.324143E-02
      0.105000          0.293757E-02
      0.110000          0.266575E-02
      0.115000          0.242157E-02
      0.120000          0.220124E-02
      0.125000          0.200168E-02
      0.130000          0.182044E-02
      0.135000          0.165564E-02
      0.140000          0.150586E-02
      0.145000          0.136996E-02
      0.150000          0.124701E-02
      0.155000          0.113614E-02
      0.160000          0.103651E-02
      0.165000          0.947238E-03
      0.170000          0.867410E-03
      0.175000          0.796101E-03
      0.180000          0.732395E-03
      0.185000          0.675423E-03
      0.190000          0.624390E-03
      0.195000          0.578595E-03
      0.200000          0.537436E-03
      0.205000          0.500410E-03
      0.210000          0.467087E-03
      0.215000          0.437097E-03
      0.220000          0.410104E-03
      0.225000          0.385784E-03
      0.230000          0.363816E-03
      0.235000          0.343872E-03
      0.240000          0.325628E-03
      0.245000          0.308769E-03
      0.250000          0.293008E-03
      0.255000          0.278100E-03
      0.260000          0.263858E-03
      0.265000          0.250160E-03
      0.270000          0.236953E-03
      0.275000          0.224244E-03
      0.280000          0.212091E-03
      0.285000          0.200583E-03
      0.290000          0.189819E-03
      0.295000          0.179892E-03
      0.300000          0.170867E-03
      0.305000          0.162775E-03
      0.310000          0.155601E-03
      0.315000          0.149292E-03
      0.320000          0.143759E-03
      0.325000          0.138888E-03
      0.330000          0.134559E-03
      0.335000          0.130654E-03
      0.340000          0.127070E-03
      0.345000          0.123730E-03
      0.350000          0.120586E-03
      0.355000          0.117618E-03
      0.360000          0.114830E-03
      0.365000          0.112245E-03
      0.370000          0.109892E-03
      0.375000          0.107800E-03
      0.380000          0.105993E-03
      0.385000          0.104477E-03
      0.390000          0.103243E-03
      0.395000          0.102268E-03
      0.400000          0.101513E-03
      0.405000          0.100932E-03
      0.410000          0.100475E-03
      0.415000          0.100095E-03
      0.420000          0.997508E-04
      0.425000          0.994110E-04
      0.430000          0.990556E-04
      0.435000          0.986746E-04
      0.440000          0.982662E-04
      0.445000          0.978342E-04
      0.450000          0.973840E-04
      0.455000          0.969205E-04
      0.460000          0.964451E-04
      0.465000          0.959548E-04
      0.470000          0.954425E-04
      0.475000          0.948978E-04
      0.480000          0.943088E-04
      0.485000          0.936644E-04
      0.490000          0.929563E-04
      0.495000          0.921803E-04
      0.500000          0.913373E-04
