 I_abs(s)[cm^-1]/c[mg/ml]
       0.00000          0.145904E-01
      0.500000E-02      0.145420E-01
      0.100000E-01      0.143976E-01
      0.150000E-01      0.141601E-01
      0.200000E-01      0.138338E-01
      0.250000E-01      0.134251E-01
      0.300000E-01      0.129415E-01
      0.350000E-01      0.123917E-01
      0.400000E-01      0.117855E-01
      0.450000E-01      0.111335E-01
      0.500000E-01      0.104464E-01
      0.550000E-01      0.973532E-02
      0.600000E-01      0.901101E-02
      0.650000E-01      0.828394E-02
      0.700000E-01      0.756386E-02
      0.750000E-01      0.685971E-02
      0.800000E-01      0.617938E-02
      0.850000E-01      0.552966E-02
      0.900000E-01      0.491610E-02
      0.950000E-01      0.434301E-02
      0.100000          0.381345E-02
      0.105000          0.332927E-02
      0.110000          0.289121E-02
      0.115000          0.249898E-02
      0.120000          0.215141E-02
      0.125000          0.184656E-02
      0.130000          0.158188E-02
      0.135000          0.135439E-02
      0.140000          0.116079E-02
      0.145000          0.997620E-03
      0.150000          0.861364E-03
      0.155000          0.748580E-03
      0.160000          0.655982E-03
      0.165000          0.580505E-03
      0.170000          0.519362E-03
      0.175000          0.470068E-03
      0.180000          0.430464E-03
      0.185000          0.398705E-03
      0.190000          0.373253E-03
      0.195000          0.352851E-03
      0.200000          0.336490E-03
      0.205000          0.323379E-03
      0.210000          0.312899E-03
      0.215000          0.304575E-03
      0.220000          0.298039E-03
      0.225000          0.292997E-03
      0.230000          0.289207E-03
      0.235000          0.286456E-03
      0.240000          0.284547E-03
      0.245000          0.283287E-03
      0.250000          0.282485E-03
      0.255000          0.281946E-03
      0.260000          0.281479E-03
      0.265000          0.280896E-03
      0.270000          0.280024E-03
      0.275000          0.278701E-03
      0.280000          0.276793E-03
      0.285000          0.274192E-03
      0.290000          0.270822E-03
      0.295000          0.266641E-03
      0.300000          0.261642E-03
      0.305000          0.255850E-03
      0.310000          0.249321E-03
      0.315000          0.242139E-03
      0.320000          0.234409E-03
      0.325000          0.226251E-03
      0.330000          0.217795E-03
      0.335000          0.209176E-03
      0.340000          0.200524E-03
      0.345000          0.191967E-03
      0.350000          0.183617E-03
      0.355000          0.175573E-03
      0.360000          0.167917E-03
      0.365000          0.160712E-03
      0.370000          0.154002E-03
      0.375000          0.147812E-03
      0.380000          0.142151E-03
      0.385000          0.137009E-03
      0.390000          0.132368E-03
      0.395000          0.128193E-03
      0.400000          0.124444E-03
      0.405000          0.121077E-03
      0.410000          0.118042E-03
      0.415000          0.115289E-03
      0.420000          0.112771E-03
      0.425000          0.110441E-03
      0.430000          0.108259E-03
      0.435000          0.106189E-03
      0.440000          0.104200E-03
      0.445000          0.102269E-03
      0.450000          0.100375E-03
      0.455000          0.985076E-04
      0.460000          0.966578E-04
      0.465000          0.948225E-04
      0.470000          0.930025E-04
      0.475000          0.912018E-04
      0.480000          0.894269E-04
      0.485000          0.876858E-04
      0.490000          0.859880E-04
      0.495000          0.843434E-04
      0.500000          0.827619E-04
