 I_abs(s)[cm^-1]/c[mg/ml]
       0.00000          0.139530E-01
      0.500000E-02      0.138849E-01
      0.100000E-01      0.136827E-01
      0.150000E-01      0.133535E-01
      0.200000E-01      0.129083E-01
      0.250000E-01      0.123619E-01
      0.300000E-01      0.117317E-01
      0.350000E-01      0.110369E-01
      0.400000E-01      0.102974E-01
      0.450000E-01      0.953323E-02
      0.500000E-01      0.876297E-02
      0.550000E-01      0.800356E-02
      0.600000E-01      0.726946E-02
      0.650000E-01      0.657235E-02
      0.700000E-01      0.592090E-02
      0.750000E-01      0.532084E-02
      0.800000E-01      0.477512E-02
      0.850000E-01      0.428426E-02
      0.900000E-01      0.384680E-02
      0.950000E-01      0.345973E-02
      0.100000          0.311899E-02
      0.105000          0.281993E-02
      0.110000          0.255768E-02
      0.115000          0.232746E-02
      0.120000          0.212482E-02
      0.125000          0.194574E-02
      0.130000          0.178675E-02
      0.135000          0.164486E-02
      0.140000          0.151758E-02
      0.145000          0.140279E-02
      0.150000          0.129872E-02
      0.155000          0.120386E-02
      0.160000          0.111688E-02
      0.165000          0.103663E-02
      0.170000          0.962075E-03
      0.175000          0.892359E-03
      0.180000          0.826756E-03
      0.185000          0.764706E-03
      0.190000          0.705822E-03
      0.195000          0.649889E-03
      0.200000          0.596853E-03
      0.205000          0.546801E-03
      0.210000          0.499922E-03
      0.215000          0.456469E-03
      0.220000          0.416706E-03
      0.225000          0.380867E-03
      0.230000          0.349114E-03
      0.235000          0.321502E-03
      0.240000          0.297963E-03
      0.245000          0.278303E-03
      0.250000          0.262204E-03
      0.255000          0.249244E-03
      0.260000          0.238931E-03
      0.265000          0.230729E-03
      0.270000          0.224095E-03
      0.275000          0.218516E-03
      0.280000          0.213530E-03
      0.285000          0.208755E-03
      0.290000          0.203896E-03
      0.295000          0.198755E-03
      0.300000          0.193223E-03
      0.305000          0.187274E-03
      0.310000          0.180952E-03
      0.315000          0.174351E-03
      0.320000          0.167596E-03
      0.325000          0.160830E-03
      0.330000          0.154194E-03
      0.335000          0.147818E-03
      0.340000          0.141812E-03
      0.345000          0.136256E-03
      0.350000          0.131205E-03
      0.355000          0.126684E-03
      0.360000          0.122693E-03
      0.365000          0.119212E-03
      0.370000          0.116205E-03
      0.375000          0.113627E-03
      0.380000          0.111423E-03
      0.385000          0.109541E-03
      0.390000          0.107929E-03
      0.395000          0.106537E-03
      0.400000          0.105323E-03
      0.405000          0.104251E-03
      0.410000          0.103291E-03
      0.415000          0.102418E-03
      0.420000          0.101615E-03
      0.425000          0.100870E-03
      0.430000          0.100174E-03
      0.435000          0.995223E-04
      0.440000          0.989131E-04
      0.445000          0.983457E-04
      0.450000          0.978198E-04
      0.455000          0.973351E-04
      0.460000          0.968897E-04
      0.465000          0.964793E-04
      0.470000          0.960972E-04
      0.475000          0.957333E-04
      0.480000          0.953747E-04
      0.485000          0.950058E-04
      0.490000          0.946093E-04
      0.495000          0.941676E-04
      0.500000          0.936640E-04
