 I_abs(s)[cm^-1]/c[mg/ml]
       0.00000          0.141639E-01
      0.500000E-02      0.141084E-01
      0.100000E-01      0.139435E-01
      0.150000E-01      0.136735E-01
      0.200000E-01      0.133058E-01
      0.250000E-01      0.128500E-01
      0.300000E-01      0.123179E-01
      0.350000E-01      0.117223E-01
      0.400000E-01      0.110774E-01
      0.450000E-01      0.103975E-01
      0.500000E-01      0.969648E-02
      0.550000E-01      0.898779E-02
      0.600000E-01      0.828352E-02
      0.650000E-01      0.759432E-02
      0.700000E-01      0.692912E-02
      0.750000E-01      0.629502E-02
      0.800000E-01      0.569727E-02
      0.850000E-01      0.513937E-02
      0.900000E-01      0.462322E-02
      0.950000E-01      0.414934E-02
      0.100000          0.371708E-02
      0.105000          0.332496E-02
      0.110000          0.297087E-02
      0.115000          0.265229E-02
      0.120000          0.236655E-02
      0.125000          0.211094E-02
      0.130000          0.188285E-02
      0.135000          0.167982E-02
      0.140000          0.149961E-02
      0.145000          0.134017E-02
      0.150000          0.119962E-02
      0.155000          0.107626E-02
      0.160000          0.968473E-03
      0.165000          0.874755E-03
      0.170000          0.793639E-03
      0.175000          0.723707E-03
      0.180000          0.663578E-03
      0.185000          0.611917E-03
      0.190000          0.567450E-03
      0.195000          0.528989E-03
      0.200000          0.495449E-03
      0.205000          0.465870E-03
      0.210000          0.439435E-03
      0.215000          0.415471E-03
      0.220000          0.393456E-03
      0.225000          0.373003E-03
      0.230000          0.353850E-03
      0.235000          0.335831E-03
      0.240000          0.318862E-03
      0.245000          0.302904E-03
      0.250000          0.287950E-03
      0.255000          0.273998E-03
      0.260000          0.261041E-03
      0.265000          0.249053E-03
      0.270000          0.237988E-03
      0.275000          0.227781E-03
      0.280000          0.218349E-03
      0.285000          0.209602E-03
      0.290000          0.201449E-03
      0.295000          0.193806E-03
      0.300000          0.186601E-03
      0.305000          0.179781E-03
      0.310000          0.173309E-03
      0.315000          0.167168E-03
      0.320000          0.161354E-03
      0.325000          0.155874E-03
      0.330000          0.150739E-03
      0.335000          0.145959E-03
      0.340000          0.141540E-03
      0.345000          0.137480E-03
      0.350000          0.133765E-03
      0.355000          0.130373E-03
      0.360000          0.127271E-03
      0.365000          0.124424E-03
      0.370000          0.121790E-03
      0.375000          0.119332E-03
      0.380000          0.117016E-03
      0.385000          0.114815E-03
      0.390000          0.112713E-03
      0.395000          0.110701E-03
      0.400000          0.108781E-03
      0.405000          0.106961E-03
      0.410000          0.105253E-03
      0.415000          0.103674E-03
      0.420000          0.102235E-03
      0.425000          0.100949E-03
      0.430000          0.998174E-04
      0.435000          0.988383E-04
      0.440000          0.980005E-04
      0.445000          0.972858E-04
      0.450000          0.966698E-04
      0.455000          0.961240E-04
      0.460000          0.956173E-04
      0.465000          0.951191E-04
      0.470000          0.946007E-04
      0.475000          0.940374E-04
      0.480000          0.934099E-04
      0.485000          0.927049E-04
      0.490000          0.919152E-04
      0.495000          0.910391E-04
      0.500000          0.900803E-04
