 I_abs(s)[cm^-1]/c[mg/ml]
       0.00000          0.141561E-01
      0.500000E-02      0.140876E-01
      0.100000E-01      0.138845E-01
      0.150000E-01      0.135536E-01
      0.200000E-01      0.131060E-01
      0.250000E-01      0.125562E-01
      0.300000E-01      0.119216E-01
      0.350000E-01      0.112211E-01
      0.400000E-01      0.104748E-01
      0.450000E-01      0.970255E-02
      0.500000E-01      0.892305E-02
      0.550000E-01      0.815335E-02
      0.600000E-01      0.740810E-02
      0.650000E-01      0.669915E-02
      0.700000E-01      0.603540E-02
      0.750000E-01      0.542278E-02
      0.800000E-01      0.486441E-02
      0.850000E-01      0.436096E-02
      0.900000E-01      0.391103E-02
      0.950000E-01      0.351165E-02
      0.100000          0.315874E-02
      0.105000          0.284762E-02
      0.110000          0.257337E-02
      0.115000          0.233119E-02
      0.120000          0.211663E-02
      0.125000          0.192579E-02
      0.130000          0.175531E-02
      0.135000          0.160245E-02
      0.140000          0.146499E-02
      0.145000          0.134117E-02
      0.150000          0.122958E-02
      0.155000          0.112906E-02
      0.160000          0.103859E-02
      0.165000          0.957269E-03
      0.170000          0.884211E-03
      0.175000          0.818565E-03
      0.180000          0.759490E-03
      0.185000          0.706175E-03
      0.190000          0.657857E-03
      0.195000          0.613840E-03
      0.200000          0.573517E-03
      0.205000          0.536382E-03
      0.210000          0.502030E-03
      0.215000          0.470158E-03
      0.220000          0.440546E-03
      0.225000          0.413044E-03
      0.230000          0.387551E-03
      0.235000          0.363990E-03
      0.240000          0.342298E-03
      0.245000          0.322406E-03
      0.250000          0.304231E-03
      0.255000          0.287675E-03
      0.260000          0.272621E-03
      0.265000          0.258939E-03
      0.270000          0.246491E-03
      0.275000          0.235136E-03
      0.280000          0.224735E-03
      0.285000          0.215160E-03
      0.290000          0.206292E-03
      0.295000          0.198025E-03
      0.300000          0.190268E-03
      0.305000          0.182946E-03
      0.310000          0.175996E-03
      0.315000          0.169370E-03
      0.320000          0.163034E-03
      0.325000          0.156969E-03
      0.330000          0.151166E-03
      0.335000          0.145634E-03
      0.340000          0.140391E-03
      0.345000          0.135464E-03
      0.350000          0.130890E-03
      0.355000          0.126705E-03
      0.360000          0.122945E-03
      0.365000          0.119638E-03
      0.370000          0.116800E-03
      0.375000          0.114433E-03
      0.380000          0.112518E-03
      0.385000          0.111020E-03
      0.390000          0.109883E-03
      0.395000          0.109039E-03
      0.400000          0.108408E-03
      0.405000          0.107907E-03
      0.410000          0.107453E-03
      0.415000          0.106972E-03
      0.420000          0.106403E-03
      0.425000          0.105704E-03
      0.430000          0.104849E-03
      0.435000          0.103837E-03
      0.440000          0.102681E-03
      0.445000          0.101413E-03
      0.450000          0.100074E-03
      0.455000          0.987117E-04
      0.460000          0.973747E-04
      0.465000          0.961069E-04
      0.470000          0.949441E-04
      0.475000          0.939108E-04
      0.480000          0.930185E-04
      0.485000          0.922660E-04
      0.490000          0.916401E-04
      0.495000          0.911179E-04
      0.500000          0.906698E-04
