 I_abs(s)[cm^-1]/c[mg/ml]
       0.00000          0.146143E-01
      0.500000E-02      0.145663E-01
      0.100000E-01      0.144231E-01
      0.150000E-01      0.141878E-01
      0.200000E-01      0.138651E-01
      0.250000E-01      0.134615E-01
      0.300000E-01      0.129850E-01
      0.350000E-01      0.124448E-01
      0.400000E-01      0.118509E-01
      0.450000E-01      0.112141E-01
      0.500000E-01      0.105453E-01
      0.550000E-01      0.985552E-02
      0.600000E-01      0.915526E-02
      0.650000E-01      0.845459E-02
      0.700000E-01      0.776269E-02
      0.750000E-01      0.708776E-02
      0.800000E-01      0.643686E-02
      0.850000E-01      0.581585E-02
      0.900000E-01      0.522932E-02
      0.950000E-01      0.468067E-02
      0.100000          0.417208E-02
      0.105000          0.370469E-02
      0.110000          0.327865E-02
      0.115000          0.289328E-02
      0.120000          0.254721E-02
      0.125000          0.223853E-02
      0.130000          0.196493E-02
      0.135000          0.172383E-02
      0.140000          0.151249E-02
      0.145000          0.132815E-02
      0.150000          0.116806E-02
      0.155000          0.102958E-02
      0.160000          0.910213E-03
      0.165000          0.807644E-03
      0.170000          0.719746E-03
      0.175000          0.644590E-03
      0.180000          0.580443E-03
      0.185000          0.525756E-03
      0.190000          0.479151E-03
      0.195000          0.439410E-03
      0.200000          0.405459E-03
      0.205000          0.376352E-03
      0.210000          0.351266E-03
      0.215000          0.329487E-03
      0.220000          0.310403E-03
      0.225000          0.293498E-03
      0.230000          0.278346E-03
      0.235000          0.264605E-03
      0.240000          0.252010E-03
      0.245000          0.240370E-03
      0.250000          0.229553E-03
      0.255000          0.219483E-03
      0.260000          0.210127E-03
      0.265000          0.201486E-03
      0.270000          0.193580E-03
      0.275000          0.186443E-03
      0.280000          0.180109E-03
      0.285000          0.174604E-03
      0.290000          0.169939E-03
      0.295000          0.166104E-03
      0.300000          0.163065E-03
      0.305000          0.160765E-03
      0.310000          0.159120E-03
      0.315000          0.158028E-03
      0.320000          0.157367E-03
      0.325000          0.157006E-03
      0.330000          0.156808E-03
      0.335000          0.156636E-03
      0.340000          0.156361E-03
      0.345000          0.155869E-03
      0.350000          0.155060E-03
      0.355000          0.153858E-03
      0.360000          0.152211E-03
      0.365000          0.150091E-03
      0.370000          0.147496E-03
      0.375000          0.144446E-03
      0.380000          0.140984E-03
      0.385000          0.137168E-03
      0.390000          0.133073E-03
      0.395000          0.128781E-03
      0.400000          0.124381E-03
      0.405000          0.119961E-03
      0.410000          0.115607E-03
      0.415000          0.111399E-03
      0.420000          0.107405E-03
      0.425000          0.103685E-03
      0.430000          0.100281E-03
      0.435000          0.972256E-04
      0.440000          0.945342E-04
      0.445000          0.922101E-04
      0.450000          0.902442E-04
      0.455000          0.886166E-04
      0.460000          0.872990E-04
      0.465000          0.862562E-04
      0.470000          0.854490E-04
      0.475000          0.848359E-04
      0.480000          0.843753E-04
      0.485000          0.840275E-04
      0.490000          0.837558E-04
      0.495000          0.835284E-04
      0.500000          0.833186E-04
