 I_abs(s)[cm^-1]/c[mg/ml]
       0.00000          0.144001E-01
      0.500000E-02      0.143411E-01
      0.100000E-01      0.141658E-01
      0.150000E-01      0.138790E-01
      0.200000E-01      0.134883E-01
      0.250000E-01      0.130040E-01
      0.300000E-01      0.124387E-01
      0.350000E-01      0.118062E-01
      0.400000E-01      0.111218E-01
      0.450000E-01      0.104010E-01
      0.500000E-01      0.965898E-02
      0.550000E-01      0.891049E-02
      0.600000E-01      0.816892E-02
      0.650000E-01      0.744610E-02
      0.700000E-01      0.675202E-02
      0.750000E-01      0.609461E-02
      0.800000E-01      0.547970E-02
      0.850000E-01      0.491111E-02
      0.900000E-01      0.439071E-02
      0.950000E-01      0.391870E-02
      0.100000          0.349387E-02
      0.105000          0.311387E-02
      0.110000          0.277555E-02
      0.115000          0.247528E-02
      0.120000          0.220916E-02
      0.125000          0.197335E-02
      0.130000          0.176420E-02
      0.135000          0.157836E-02
      0.140000          0.141295E-02
      0.145000          0.126550E-02
      0.150000          0.113400E-02
      0.155000          0.101681E-02
      0.160000          0.912628E-03
      0.165000          0.820409E-03
      0.170000          0.739257E-03
      0.175000          0.668372E-03
      0.180000          0.606982E-03
      0.185000          0.554295E-03
      0.190000          0.509473E-03
      0.195000          0.471628E-03
      0.200000          0.439825E-03
      0.205000          0.413109E-03
      0.210000          0.390533E-03
      0.215000          0.371192E-03
      0.220000          0.354261E-03
      0.225000          0.339018E-03
      0.230000          0.324872E-03
      0.235000          0.311374E-03
      0.240000          0.298216E-03
      0.245000          0.285223E-03
      0.250000          0.272343E-03
      0.255000          0.259616E-03
      0.260000          0.247150E-03
      0.265000          0.235093E-03
      0.270000          0.223606E-03
      0.275000          0.212837E-03
      0.280000          0.202906E-03
      0.285000          0.193888E-03
      0.290000          0.185810E-03
      0.295000          0.178649E-03
      0.300000          0.172340E-03
      0.305000          0.166780E-03
      0.310000          0.161847E-03
      0.315000          0.157406E-03
      0.320000          0.153326E-03
      0.325000          0.149489E-03
      0.330000          0.145799E-03
      0.335000          0.142186E-03
      0.340000          0.138608E-03
      0.345000          0.135054E-03
      0.350000          0.131531E-03
      0.355000          0.128067E-03
      0.360000          0.124700E-03
      0.365000          0.121471E-03
      0.370000          0.118418E-03
      0.375000          0.115570E-03
      0.380000          0.112944E-03
      0.385000          0.110540E-03
      0.390000          0.108346E-03
      0.395000          0.106336E-03
      0.400000          0.104474E-03
      0.405000          0.102718E-03
      0.410000          0.101024E-03
      0.415000          0.993519E-04
      0.420000          0.976696E-04
      0.425000          0.959543E-04
      0.430000          0.941956E-04
      0.435000          0.923966E-04
      0.440000          0.905726E-04
      0.445000          0.887501E-04
      0.450000          0.869636E-04
      0.455000          0.852529E-04
      0.460000          0.836590E-04
      0.465000          0.822212E-04
      0.470000          0.809732E-04
      0.475000          0.799411E-04
      0.480000          0.791410E-04
      0.485000          0.785786E-04
      0.490000          0.782482E-04
      0.495000          0.781344E-04
      0.500000          0.782126E-04
