 I_abs(s)[cm^-1]/c[mg/ml]
       0.00000          0.137129E-01
      0.500000E-02      0.136230E-01
      0.100000E-01      0.133574E-01
      0.150000E-01      0.129276E-01
      0.200000E-01      0.123520E-01
      0.250000E-01      0.116546E-01
      0.300000E-01      0.108633E-01
      0.350000E-01      0.100085E-01
      0.400000E-01      0.912081E-02
      0.450000E-01      0.822953E-02
      0.500000E-01      0.736104E-02
      0.550000E-01      0.653755E-02
      0.600000E-01      0.577625E-02
      0.650000E-01      0.508890E-02
      0.700000E-01      0.448184E-02
      0.750000E-01      0.395634E-02
      0.800000E-01      0.350940E-02
      0.850000E-01      0.313457E-02
      0.900000E-01      0.282309E-02
      0.950000E-01      0.256488E-02
      0.100000          0.234959E-02
      0.105000          0.216741E-02
      0.110000          0.200967E-02
      0.115000          0.186933E-02
      0.120000          0.174105E-02
      0.125000          0.162126E-02
      0.130000          0.150790E-02
      0.135000          0.140015E-02
      0.140000          0.129803E-02
      0.145000          0.120208E-02
      0.150000          0.111297E-02
      0.155000          0.103125E-02
      0.160000          0.957206E-03
      0.165000          0.890730E-03
      0.170000          0.831344E-03
      0.175000          0.778260E-03
      0.180000          0.730498E-03
      0.185000          0.687012E-03
      0.190000          0.646820E-03
      0.195000          0.609110E-03
      0.200000          0.573306E-03
      0.205000          0.539097E-03
      0.210000          0.506422E-03
      0.215000          0.475425E-03
      0.220000          0.446382E-03
      0.225000          0.419619E-03
      0.230000          0.395437E-03
      0.235000          0.374042E-03
      0.240000          0.355504E-03
      0.245000          0.339734E-03
      0.250000          0.326485E-03
      0.255000          0.315384E-03
      0.260000          0.305966E-03
      0.265000          0.297727E-03
      0.270000          0.290175E-03
      0.275000          0.282869E-03
      0.280000          0.275458E-03
      0.285000          0.267702E-03
      0.290000          0.259473E-03
      0.295000          0.250751E-03
      0.300000          0.241605E-03
      0.305000          0.232171E-03
      0.310000          0.222621E-03
      0.315000          0.213138E-03
      0.320000          0.203895E-03
      0.325000          0.195036E-03
      0.330000          0.186670E-03
      0.335000          0.178864E-03
      0.340000          0.171650E-03
      0.345000          0.165031E-03
      0.350000          0.158988E-03
      0.355000          0.153493E-03
      0.360000          0.148518E-03
      0.365000          0.144037E-03
      0.370000          0.140033E-03
      0.375000          0.136500E-03
      0.380000          0.133434E-03
      0.385000          0.130839E-03
      0.390000          0.128714E-03
      0.395000          0.127053E-03
      0.400000          0.125839E-03
      0.405000          0.125041E-03
      0.410000          0.124613E-03
      0.415000          0.124494E-03
      0.420000          0.124612E-03
      0.425000          0.124881E-03
      0.430000          0.125210E-03
      0.435000          0.125507E-03
      0.440000          0.125680E-03
      0.445000          0.125645E-03
      0.450000          0.125328E-03
      0.455000          0.124667E-03
      0.460000          0.123617E-03
      0.465000          0.122153E-03
      0.470000          0.120264E-03
      0.475000          0.117963E-03
      0.480000          0.115278E-03
      0.485000          0.112252E-03
      0.490000          0.108947E-03
      0.495000          0.105432E-03
      0.500000          0.101784E-03
