 I_abs(s)[cm^-1]/c[mg/ml]
       0.00000          0.149104E-01
      0.500000E-02      0.148650E-01
      0.100000E-01      0.147294E-01
      0.150000E-01      0.145059E-01
      0.200000E-01      0.141981E-01
      0.250000E-01      0.138111E-01
      0.300000E-01      0.133509E-01
      0.350000E-01      0.128249E-01
      0.400000E-01      0.122412E-01
      0.450000E-01      0.116087E-01
      0.500000E-01      0.109368E-01
      0.550000E-01      0.102352E-01
      0.600000E-01      0.951354E-02
      0.650000E-01      0.878158E-02
      0.700000E-01      0.804863E-02
      0.750000E-01      0.732354E-02
      0.800000E-01      0.661452E-02
      0.850000E-01      0.592897E-02
      0.900000E-01      0.527340E-02
      0.950000E-01      0.465333E-02
      0.100000          0.407327E-02
      0.105000          0.353663E-02
      0.110000          0.304578E-02
      0.115000          0.260206E-02
      0.120000          0.220582E-02
      0.125000          0.185651E-02
      0.130000          0.155279E-02
      0.135000          0.129257E-02
      0.140000          0.107321E-02
      0.145000          0.891580E-03
      0.150000          0.744202E-03
      0.155000          0.627374E-03
      0.160000          0.537283E-03
      0.165000          0.470110E-03
      0.170000          0.422125E-03
      0.175000          0.389772E-03
      0.180000          0.369738E-03
      0.185000          0.359008E-03
      0.190000          0.354899E-03
      0.195000          0.355093E-03
      0.200000          0.357639E-03
      0.205000          0.360957E-03
      0.210000          0.363821E-03
      0.215000          0.365337E-03
      0.220000          0.364914E-03
      0.225000          0.362228E-03
      0.230000          0.357177E-03
      0.235000          0.349848E-03
      0.240000          0.340469E-03
      0.245000          0.329371E-03
      0.250000          0.316951E-03
      0.255000          0.303636E-03
      0.260000          0.289857E-03
      0.265000          0.276021E-03
      0.270000          0.262495E-03
      0.275000          0.249590E-03
      0.280000          0.237553E-03
      0.285000          0.226564E-03
      0.290000          0.216733E-03
      0.295000          0.208105E-03
      0.300000          0.200667E-03
      0.305000          0.194354E-03
      0.310000          0.189060E-03
      0.315000          0.184650E-03
      0.320000          0.180967E-03
      0.325000          0.177843E-03
      0.330000          0.175112E-03
      0.335000          0.172613E-03
      0.340000          0.170200E-03
      0.345000          0.167745E-03
      0.350000          0.165145E-03
      0.355000          0.162319E-03
      0.360000          0.159214E-03
      0.365000          0.155802E-03
      0.370000          0.152076E-03
      0.375000          0.148051E-03
      0.380000          0.143760E-03
      0.385000          0.139248E-03
      0.390000          0.134572E-03
      0.395000          0.129795E-03
      0.400000          0.124982E-03
      0.405000          0.120197E-03
      0.410000          0.115502E-03
      0.415000          0.110953E-03
      0.420000          0.106599E-03
      0.425000          0.102479E-03
      0.430000          0.986258E-04
      0.435000          0.950603E-04
      0.440000          0.917960E-04
      0.445000          0.888377E-04
      0.450000          0.861832E-04
      0.455000          0.838238E-04
      0.460000          0.817461E-04
      0.465000          0.799330E-04
      0.470000          0.783649E-04
      0.475000          0.770211E-04
      0.480000          0.758806E-04
      0.485000          0.749228E-04
      0.490000          0.741287E-04
      0.495000          0.734806E-04
      0.500000          0.729632E-04
