 I_abs(s)[cm^-1]/c[mg/ml]
       0.00000          0.139686E-01
      0.500000E-02      0.139013E-01
      0.100000E-01      0.137017E-01
      0.150000E-01      0.133762E-01
      0.200000E-01      0.129354E-01
      0.250000E-01      0.123929E-01
      0.300000E-01      0.117653E-01
      0.350000E-01      0.110709E-01
      0.400000E-01      0.103290E-01
      0.450000E-01      0.955882E-02
      0.500000E-01      0.877882E-02
      0.550000E-01      0.800596E-02
      0.600000E-01      0.725509E-02
      0.650000E-01      0.653854E-02
      0.700000E-01      0.586588E-02
      0.750000E-01      0.524388E-02
      0.800000E-01      0.467661E-02
      0.850000E-01      0.416567E-02
      0.900000E-01      0.371054E-02
      0.950000E-01      0.330899E-02
      0.100000          0.295748E-02
      0.105000          0.265162E-02
      0.110000          0.238654E-02
      0.115000          0.215724E-02
      0.120000          0.195881E-02
      0.125000          0.178671E-02
      0.130000          0.163681E-02
      0.135000          0.150550E-02
      0.140000          0.138967E-02
      0.145000          0.128673E-02
      0.150000          0.119449E-02
      0.155000          0.111116E-02
      0.160000          0.103526E-02
      0.165000          0.965561E-03
      0.170000          0.901053E-03
      0.175000          0.840904E-03
      0.180000          0.784442E-03
      0.185000          0.731140E-03
      0.190000          0.680610E-03
      0.195000          0.632592E-03
      0.200000          0.586951E-03
      0.205000          0.543657E-03
      0.210000          0.502771E-03
      0.215000          0.464421E-03
      0.220000          0.428772E-03
      0.225000          0.395999E-03
      0.230000          0.366259E-03
      0.235000          0.339666E-03
      0.240000          0.316268E-03
      0.245000          0.296036E-03
      0.250000          0.278857E-03
      0.255000          0.264539E-03
      0.260000          0.252812E-03
      0.265000          0.243350E-03
      0.270000          0.235785E-03
      0.275000          0.229728E-03
      0.280000          0.224792E-03
      0.285000          0.220607E-03
      0.290000          0.216840E-03
      0.295000          0.213209E-03
      0.300000          0.209487E-03
      0.305000          0.205513E-03
      0.310000          0.201186E-03
      0.315000          0.196465E-03
      0.320000          0.191360E-03
      0.325000          0.185926E-03
      0.330000          0.180249E-03
      0.335000          0.174438E-03
      0.340000          0.168614E-03
      0.345000          0.162899E-03
      0.350000          0.157405E-03
      0.355000          0.152233E-03
      0.360000          0.147462E-03
      0.365000          0.143146E-03
      0.370000          0.139317E-03
      0.375000          0.135981E-03
      0.380000          0.133119E-03
      0.385000          0.130693E-03
      0.390000          0.128649E-03
      0.395000          0.126918E-03
      0.400000          0.125426E-03
      0.405000          0.124096E-03
      0.410000          0.122853E-03
      0.415000          0.121629E-03
      0.420000          0.120365E-03
      0.425000          0.119014E-03
      0.430000          0.117543E-03
      0.435000          0.115935E-03
      0.440000          0.114189E-03
      0.445000          0.112313E-03
      0.450000          0.110333E-03
      0.455000          0.108280E-03
      0.460000          0.106193E-03
      0.465000          0.104117E-03
      0.470000          0.102095E-03
      0.475000          0.100170E-03
      0.480000          0.983772E-04
      0.485000          0.967475E-04
      0.490000          0.953014E-04
      0.495000          0.940502E-04
      0.500000          0.929942E-04
