 I_abs(s)[cm^-1]/c[mg/ml]
       0.00000          0.146542E-01
      0.500000E-02      0.146085E-01
      0.100000E-01      0.144725E-01
      0.150000E-01      0.142484E-01
      0.200000E-01      0.139403E-01
      0.250000E-01      0.135535E-01
      0.300000E-01      0.130948E-01
      0.350000E-01      0.125718E-01
      0.400000E-01      0.119933E-01
      0.450000E-01      0.113687E-01
      0.500000E-01      0.107076E-01
      0.550000E-01      0.100203E-01
      0.600000E-01      0.931652E-02
      0.650000E-01      0.860610E-02
      0.700000E-01      0.789825E-02
      0.750000E-01      0.720156E-02
      0.800000E-01      0.652380E-02
      0.850000E-01      0.587180E-02
      0.900000E-01      0.525138E-02
      0.950000E-01      0.466727E-02
      0.100000          0.412307E-02
      0.105000          0.362130E-02
      0.110000          0.316342E-02
      0.115000          0.274989E-02
      0.120000          0.238027E-02
      0.125000          0.205332E-02
      0.130000          0.176712E-02
      0.135000          0.151921E-02
      0.140000          0.130668E-02
      0.145000          0.112634E-02
      0.150000          0.974819E-03
      0.155000          0.848689E-03
      0.160000          0.744553E-03
      0.165000          0.659136E-03
      0.170000          0.589359E-03
      0.175000          0.532392E-03
      0.180000          0.485693E-03
      0.185000          0.447032E-03
      0.190000          0.414504E-03
      0.195000          0.386525E-03
      0.200000          0.361819E-03
      0.205000          0.339399E-03
      0.210000          0.318539E-03
      0.215000          0.298740E-03
      0.220000          0.279700E-03
      0.225000          0.261273E-03
      0.230000          0.243437E-03
      0.235000          0.226262E-03
      0.240000          0.209877E-03
      0.245000          0.194444E-03
      0.250000          0.180136E-03
      0.255000          0.167119E-03
      0.260000          0.155534E-03
      0.265000          0.145492E-03
      0.270000          0.137061E-03
      0.275000          0.130270E-03
      0.280000          0.125102E-03
      0.285000          0.121498E-03
      0.290000          0.119364E-03
      0.295000          0.118571E-03
      0.300000          0.118967E-03
      0.305000          0.120377E-03
      0.310000          0.122618E-03
      0.315000          0.125498E-03
      0.320000          0.128826E-03
      0.325000          0.132418E-03
      0.330000          0.136102E-03
      0.335000          0.139720E-03
      0.340000          0.143134E-03
      0.345000          0.146226E-03
      0.350000          0.148899E-03
      0.355000          0.151082E-03
      0.360000          0.152723E-03
      0.365000          0.153796E-03
      0.370000          0.154290E-03
      0.375000          0.154217E-03
      0.380000          0.153602E-03
      0.385000          0.152482E-03
      0.390000          0.150909E-03
      0.395000          0.148939E-03
      0.400000          0.146633E-03
      0.405000          0.144056E-03
      0.410000          0.141272E-03
      0.415000          0.138343E-03
      0.420000          0.135328E-03
      0.425000          0.132280E-03
      0.430000          0.129246E-03
      0.435000          0.126265E-03
      0.440000          0.123372E-03
      0.445000          0.120592E-03
      0.450000          0.117943E-03
      0.455000          0.115438E-03
      0.460000          0.113084E-03
      0.465000          0.110881E-03
      0.470000          0.108827E-03
      0.475000          0.106916E-03
      0.480000          0.105138E-03
      0.485000          0.103484E-03
      0.490000          0.101941E-03
      0.495000          0.100499E-03
      0.500000          0.991442E-04
