 I_abs(s)[cm^-1]/c[mg/ml]
       0.00000          0.147180E-01
      0.500000E-02      0.146670E-01
      0.100000E-01      0.145149E-01
      0.150000E-01      0.142652E-01
      0.200000E-01      0.139230E-01
      0.250000E-01      0.134958E-01
      0.300000E-01      0.129922E-01
      0.350000E-01      0.124224E-01
      0.400000E-01      0.117975E-01
      0.450000E-01      0.111292E-01
      0.500000E-01      0.104294E-01
      0.550000E-01      0.970977E-02
      0.600000E-01      0.898173E-02
      0.650000E-01      0.825584E-02
      0.700000E-01      0.754171E-02
      0.750000E-01      0.684777E-02
      0.800000E-01      0.618119E-02
      0.850000E-01      0.554778E-02
      0.900000E-01      0.495201E-02
      0.950000E-01      0.439702E-02
      0.100000          0.388474E-02
      0.105000          0.341597E-02
      0.110000          0.299056E-02
      0.115000          0.260754E-02
      0.120000          0.226529E-02
      0.125000          0.196166E-02
      0.130000          0.169419E-02
      0.135000          0.146017E-02
      0.140000          0.125678E-02
      0.145000          0.108120E-02
      0.150000          0.930650E-03
      0.155000          0.802447E-03
      0.160000          0.694064E-03
      0.165000          0.603132E-03
      0.170000          0.527458E-03
      0.175000          0.465026E-03
      0.180000          0.413997E-03
      0.185000          0.372697E-03
      0.190000          0.339619E-03
      0.195000          0.313409E-03
      0.200000          0.292862E-03
      0.205000          0.276917E-03
      0.210000          0.264648E-03
      0.215000          0.255264E-03
      0.220000          0.248094E-03
      0.225000          0.242590E-03
      0.230000          0.238308E-03
      0.235000          0.234903E-03
      0.240000          0.232117E-03
      0.245000          0.229760E-03
      0.250000          0.227704E-03
      0.255000          0.225860E-03
      0.260000          0.224170E-03
      0.265000          0.222593E-03
      0.270000          0.221093E-03
      0.275000          0.219635E-03
      0.280000          0.218173E-03
      0.285000          0.216655E-03
      0.290000          0.215019E-03
      0.295000          0.213195E-03
      0.300000          0.211112E-03
      0.305000          0.208701E-03
      0.310000          0.205901E-03
      0.315000          0.202667E-03
      0.320000          0.198970E-03
      0.325000          0.194807E-03
      0.330000          0.190194E-03
      0.335000          0.185177E-03
      0.340000          0.179821E-03
      0.345000          0.174211E-03
      0.350000          0.168446E-03
      0.355000          0.162637E-03
      0.360000          0.156894E-03
      0.365000          0.151328E-03
      0.370000          0.146038E-03
      0.375000          0.141111E-03
      0.380000          0.136616E-03
      0.385000          0.132602E-03
      0.390000          0.129097E-03
      0.395000          0.126106E-03
      0.400000          0.123616E-03
      0.405000          0.121595E-03
      0.410000          0.119997E-03
      0.415000          0.118764E-03
      0.420000          0.117832E-03
      0.425000          0.117133E-03
      0.430000          0.116599E-03
      0.435000          0.116167E-03
      0.440000          0.115778E-03
      0.445000          0.115383E-03
      0.450000          0.114941E-03
      0.455000          0.114420E-03
      0.460000          0.113799E-03
      0.465000          0.113064E-03
      0.470000          0.112211E-03
      0.475000          0.111242E-03
      0.480000          0.110164E-03
      0.485000          0.108988E-03
      0.490000          0.107729E-03
      0.495000          0.106401E-03
      0.500000          0.105021E-03
