 I_abs(s)[cm^-1]/c[mg/ml]
       0.00000          0.139608E-01
      0.500000E-02      0.138934E-01
      0.100000E-01      0.136935E-01
      0.150000E-01      0.133678E-01
      0.200000E-01      0.129269E-01
      0.250000E-01      0.123851E-01
      0.300000E-01      0.117593E-01
      0.350000E-01      0.110684E-01
      0.400000E-01      0.103320E-01
      0.450000E-01      0.956999E-02
      0.500000E-01      0.880123E-02
      0.550000E-01      0.804298E-02
      0.600000E-01      0.731022E-02
      0.650000E-01      0.661520E-02
      0.700000E-01      0.596716E-02
      0.750000E-01      0.537228E-02
      0.800000E-01      0.483380E-02
      0.850000E-01      0.435223E-02
      0.900000E-01      0.392581E-02
      0.950000E-01      0.355094E-02
      0.100000          0.322271E-02
      0.105000          0.293542E-02
      0.110000          0.268305E-02
      0.115000          0.245973E-02
      0.120000          0.226003E-02
      0.125000          0.207923E-02
      0.130000          0.191346E-02
      0.135000          0.175976E-02
      0.140000          0.161605E-02
      0.145000          0.148102E-02
      0.150000          0.135403E-02
      0.155000          0.123489E-02
      0.160000          0.112372E-02
      0.165000          0.102081E-02
      0.170000          0.926437E-03
      0.175000          0.840791E-03
      0.180000          0.763892E-03
      0.185000          0.695558E-03
      0.190000          0.635404E-03
      0.195000          0.582858E-03
      0.200000          0.537208E-03
      0.205000          0.497649E-03
      0.210000          0.463342E-03
      0.215000          0.433458E-03
      0.220000          0.407227E-03
      0.225000          0.383964E-03
      0.230000          0.363094E-03
      0.235000          0.344152E-03
      0.240000          0.326783E-03
      0.245000          0.310731E-03
      0.250000          0.295819E-03
      0.255000          0.281934E-03
      0.260000          0.269004E-03
      0.265000          0.256981E-03
      0.270000          0.245829E-03
      0.275000          0.235510E-03
      0.280000          0.225983E-03
      0.285000          0.217195E-03
      0.290000          0.209083E-03
      0.295000          0.201576E-03
      0.300000          0.194597E-03
      0.305000          0.188067E-03
      0.310000          0.181907E-03
      0.315000          0.176040E-03
      0.320000          0.170396E-03
      0.325000          0.164912E-03
      0.330000          0.159535E-03
      0.335000          0.154223E-03
      0.340000          0.148946E-03
      0.345000          0.143689E-03
      0.350000          0.138450E-03
      0.355000          0.133242E-03
      0.360000          0.128091E-03
      0.365000          0.123038E-03
      0.370000          0.118133E-03
      0.375000          0.113435E-03
      0.380000          0.109005E-03
      0.385000          0.104904E-03
      0.390000          0.101187E-03
      0.395000          0.978976E-04
      0.400000          0.950656E-04
      0.405000          0.927032E-04
      0.410000          0.908031E-04
      0.415000          0.893384E-04
      0.420000          0.882640E-04
      0.425000          0.875191E-04
      0.430000          0.870314E-04
      0.435000          0.867223E-04
      0.440000          0.865114E-04
      0.445000          0.863225E-04
      0.450000          0.860882E-04
      0.455000          0.857537E-04
      0.460000          0.852796E-04
      0.465000          0.846434E-04
      0.470000          0.838396E-04
      0.475000          0.828784E-04
      0.480000          0.817837E-04
      0.485000          0.805895E-04
      0.490000          0.793368E-04
      0.495000          0.780698E-04
      0.500000          0.768323E-04
