 I_abs(s)[cm^-1]/c[mg/ml]
       0.00000          0.146064E-01
      0.500000E-02      0.145476E-01
      0.100000E-01      0.143729E-01
      0.150000E-01      0.140871E-01
      0.200000E-01      0.136978E-01
      0.250000E-01      0.132152E-01
      0.300000E-01      0.126516E-01
      0.350000E-01      0.120211E-01
      0.400000E-01      0.113384E-01
      0.450000E-01      0.106187E-01
      0.500000E-01      0.987707E-02
      0.550000E-01      0.912774E-02
      0.600000E-01      0.838372E-02
      0.650000E-01      0.765646E-02
      0.700000E-01      0.695559E-02
      0.750000E-01      0.628880E-02
      0.800000E-01      0.566177E-02
      0.850000E-01      0.507829E-02
      0.900000E-01      0.454038E-02
      0.950000E-01      0.404854E-02
      0.100000          0.360199E-02
      0.105000          0.319895E-02
      0.110000          0.283693E-02
      0.115000          0.251299E-02
      0.120000          0.222396E-02
      0.125000          0.196665E-02
      0.130000          0.173798E-02
      0.135000          0.153508E-02
      0.140000          0.135537E-02
      0.145000          0.119654E-02
      0.150000          0.105656E-02
      0.155000          0.933662E-03
      0.160000          0.826284E-03
      0.165000          0.733027E-03
      0.170000          0.652611E-03
      0.175000          0.583838E-03
      0.180000          0.525565E-03
      0.185000          0.476688E-03
      0.190000          0.436131E-03
      0.195000          0.402853E-03
      0.200000          0.375850E-03
      0.205000          0.354171E-03
      0.210000          0.336927E-03
      0.215000          0.323304E-03
      0.220000          0.312571E-03
      0.225000          0.304084E-03
      0.230000          0.297288E-03
      0.235000          0.291713E-03
      0.240000          0.286969E-03
      0.245000          0.282736E-03
      0.250000          0.278760E-03
      0.255000          0.274838E-03
      0.260000          0.270811E-03
      0.265000          0.266560E-03
      0.270000          0.261999E-03
      0.275000          0.257067E-03
      0.280000          0.251732E-03
      0.285000          0.245980E-03
      0.290000          0.239824E-03
      0.295000          0.233291E-03
      0.300000          0.226432E-03
      0.305000          0.219306E-03
      0.310000          0.211989E-03
      0.315000          0.204564E-03
      0.320000          0.197114E-03
      0.325000          0.189726E-03
      0.330000          0.182480E-03
      0.335000          0.175445E-03
      0.340000          0.168681E-03
      0.345000          0.162232E-03
      0.350000          0.156126E-03
      0.355000          0.150379E-03
      0.360000          0.144988E-03
      0.365000          0.139942E-03
      0.370000          0.135218E-03
      0.375000          0.130786E-03
      0.380000          0.126616E-03
      0.385000          0.122674E-03
      0.390000          0.118932E-03
      0.395000          0.115367E-03
      0.400000          0.111961E-03
      0.405000          0.108706E-03
      0.410000          0.105603E-03
      0.415000          0.102659E-03
      0.420000          0.998875E-04
      0.425000          0.973074E-04
      0.430000          0.949389E-04
      0.435000          0.928021E-04
      0.440000          0.909139E-04
      0.445000          0.892860E-04
      0.450000          0.879228E-04
      0.455000          0.868200E-04
      0.460000          0.859639E-04
      0.465000          0.853316E-04
      0.470000          0.848919E-04
      0.475000          0.846065E-04
      0.480000          0.844322E-04
      0.485000          0.843237E-04
      0.490000          0.842360E-04
      0.495000          0.841270E-04
      0.500000          0.839606E-04
