 I_abs(s)[cm^-1]/c[mg/ml]
       0.00000          0.137592E-01
      0.500000E-02      0.136859E-01
      0.100000E-01      0.134690E-01
      0.150000E-01      0.131163E-01
      0.200000E-01      0.126409E-01
      0.250000E-01      0.120598E-01
      0.300000E-01      0.113930E-01
      0.350000E-01      0.106624E-01
      0.400000E-01      0.989067E-02
      0.450000E-01      0.910007E-02
      0.500000E-01      0.831124E-02
      0.550000E-01      0.754244E-02
      0.600000E-01      0.680890E-02
      0.650000E-01      0.612234E-02
      0.700000E-01      0.549093E-02
      0.750000E-01      0.491931E-02
      0.800000E-01      0.440894E-02
      0.850000E-01      0.395855E-02
      0.900000E-01      0.356471E-02
      0.950000E-01      0.322243E-02
      0.100000          0.292579E-02
      0.105000          0.266845E-02
      0.110000          0.244416E-02
      0.115000          0.224707E-02
      0.120000          0.207202E-02
      0.125000          0.191465E-02
      0.130000          0.177147E-02
      0.135000          0.163978E-02
      0.140000          0.151762E-02
      0.145000          0.140360E-02
      0.150000          0.129684E-02
      0.155000          0.119676E-02
      0.160000          0.110302E-02
      0.165000          0.101540E-02
      0.170000          0.933761E-03
      0.175000          0.857960E-03
      0.180000          0.787860E-03
      0.185000          0.723301E-03
      0.190000          0.664101E-03
      0.195000          0.610055E-03
      0.200000          0.560937E-03
      0.205000          0.516504E-03
      0.210000          0.476493E-03
      0.215000          0.440626E-03
      0.220000          0.408606E-03
      0.225000          0.380120E-03
      0.230000          0.354846E-03
      0.235000          0.332452E-03
      0.240000          0.312610E-03
      0.245000          0.295003E-03
      0.250000          0.279332E-03
      0.255000          0.265324E-03
      0.260000          0.252738E-03
      0.265000          0.241369E-03
      0.270000          0.231048E-03
      0.275000          0.221640E-03
      0.280000          0.213041E-03
      0.285000          0.205170E-03
      0.290000          0.197970E-03
      0.295000          0.191397E-03
      0.300000          0.185421E-03
      0.305000          0.180018E-03
      0.310000          0.175170E-03
      0.315000          0.170863E-03
      0.320000          0.167082E-03
      0.325000          0.163812E-03
      0.330000          0.161032E-03
      0.335000          0.158711E-03
      0.340000          0.156809E-03
      0.345000          0.155268E-03
      0.350000          0.154012E-03
      0.355000          0.152950E-03
      0.360000          0.151971E-03
      0.365000          0.150954E-03
      0.370000          0.149772E-03
      0.375000          0.148299E-03
      0.380000          0.146424E-03
      0.385000          0.144057E-03
      0.390000          0.141138E-03
      0.395000          0.137646E-03
      0.400000          0.133601E-03
      0.405000          0.129065E-03
      0.410000          0.124139E-03
      0.415000          0.118955E-03
      0.420000          0.113668E-03
      0.425000          0.108442E-03
      0.430000          0.103438E-03
      0.435000          0.988009E-04
      0.440000          0.946522E-04
      0.445000          0.910776E-04
      0.450000          0.881246E-04
      0.455000          0.858009E-04
      0.460000          0.840762E-04
      0.465000          0.828878E-04
      0.470000          0.821486E-04
      0.475000          0.817552E-04
      0.480000          0.815985E-04
      0.485000          0.815718E-04
      0.490000          0.815793E-04
      0.495000          0.815415E-04
      0.500000          0.813989E-04
