 I_abs(s)[cm^-1]/c[mg/ml]
       0.00000          0.139764E-01
      0.500000E-02      0.138992E-01
      0.100000E-01      0.136706E-01
      0.150000E-01      0.132996E-01
      0.200000E-01      0.128007E-01
      0.250000E-01      0.121926E-01
      0.300000E-01      0.114974E-01
      0.350000E-01      0.107390E-01
      0.400000E-01      0.994164E-02
      0.450000E-01      0.912889E-02
      0.500000E-01      0.832218E-02
      0.550000E-01      0.753997E-02
      0.600000E-01      0.679713E-02
      0.650000E-01      0.610459E-02
      0.700000E-01      0.546937E-02
      0.750000E-01      0.489482E-02
      0.800000E-01      0.438110E-02
      0.850000E-01      0.392584E-02
      0.900000E-01      0.352481E-02
      0.950000E-01      0.317265E-02
      0.100000          0.286348E-02
      0.105000          0.259148E-02
      0.110000          0.235126E-02
      0.115000          0.213809E-02
      0.120000          0.194807E-02
      0.125000          0.177807E-02
      0.130000          0.162565E-02
      0.135000          0.148891E-02
      0.140000          0.136636E-02
      0.145000          0.125669E-02
      0.150000          0.115871E-02
      0.155000          0.107121E-02
      0.160000          0.992988E-03
      0.165000          0.922791E-03
      0.170000          0.859395E-03
      0.175000          0.801647E-03
      0.180000          0.748528E-03
      0.185000          0.699203E-03
      0.190000          0.653054E-03
      0.195000          0.609688E-03
      0.200000          0.568923E-03
      0.205000          0.530747E-03
      0.210000          0.495268E-03
      0.215000          0.462652E-03
      0.220000          0.433066E-03
      0.225000          0.406624E-03
      0.230000          0.383352E-03
      0.235000          0.363169E-03
      0.240000          0.345877E-03
      0.245000          0.331182E-03
      0.250000          0.318708E-03
      0.255000          0.308030E-03
      0.260000          0.298711E-03
      0.265000          0.290327E-03
      0.270000          0.282497E-03
      0.275000          0.274900E-03
      0.280000          0.267289E-03
      0.285000          0.259492E-03
      0.290000          0.251412E-03
      0.295000          0.243016E-03
      0.300000          0.234329E-03
      0.305000          0.225418E-03
      0.310000          0.216380E-03
      0.315000          0.207333E-03
      0.320000          0.198401E-03
      0.325000          0.189706E-03
      0.330000          0.181362E-03
      0.335000          0.173465E-03
      0.340000          0.166089E-03
      0.345000          0.159284E-03
      0.350000          0.153070E-03
      0.355000          0.147441E-03
      0.360000          0.142364E-03
      0.365000          0.137784E-03
      0.370000          0.133631E-03
      0.375000          0.129823E-03
      0.380000          0.126279E-03
      0.385000          0.122920E-03
      0.390000          0.119683E-03
      0.395000          0.116521E-03
      0.400000          0.113405E-03
      0.405000          0.110330E-03
      0.410000          0.107307E-03
      0.415000          0.104361E-03
      0.420000          0.101526E-03
      0.425000          0.988393E-04
      0.430000          0.963326E-04
      0.435000          0.940302E-04
      0.440000          0.919446E-04
      0.445000          0.900752E-04
      0.450000          0.884091E-04
      0.455000          0.869241E-04
      0.460000          0.855923E-04
      0.465000          0.843847E-04
      0.470000          0.832754E-04
      0.475000          0.822452E-04
      0.480000          0.812836E-04
      0.485000          0.803896E-04
      0.490000          0.795699E-04
      0.495000          0.788370E-04
      0.500000          0.782046E-04
