 I_abs(s)[cm^-1]/c[mg/ml]
       0.00000          0.143843E-01
      0.500000E-02      0.143384E-01
      0.100000E-01      0.142014E-01
      0.150000E-01      0.139761E-01
      0.200000E-01      0.136665E-01
      0.250000E-01      0.132785E-01
      0.300000E-01      0.128192E-01
      0.350000E-01      0.122966E-01
      0.400000E-01      0.117201E-01
      0.450000E-01      0.110994E-01
      0.500000E-01      0.104447E-01
      0.550000E-01      0.976643E-02
      0.600000E-01      0.907470E-02
      0.650000E-01      0.837941E-02
      0.700000E-01      0.768981E-02
      0.750000E-01      0.701437E-02
      0.800000E-01      0.636062E-02
      0.850000E-01      0.573503E-02
      0.900000E-01      0.514291E-02
      0.950000E-01      0.458841E-02
      0.100000          0.407450E-02
      0.105000          0.360297E-02
      0.110000          0.317456E-02
      0.115000          0.278902E-02
      0.120000          0.244524E-02
      0.125000          0.214138E-02
      0.130000          0.187501E-02
      0.135000          0.164327E-02
      0.140000          0.144300E-02
      0.145000          0.127088E-02
      0.150000          0.112358E-02
      0.155000          0.997835E-03
      0.160000          0.890538E-03
      0.165000          0.798839E-03
      0.170000          0.720175E-03
      0.175000          0.652307E-03
      0.180000          0.593332E-03
      0.185000          0.541682E-03
      0.190000          0.496101E-03
      0.195000          0.455623E-03
      0.200000          0.419529E-03
      0.205000          0.387306E-03
      0.210000          0.358607E-03
      0.215000          0.333199E-03
      0.220000          0.310930E-03
      0.225000          0.291686E-03
      0.230000          0.275362E-03
      0.235000          0.261838E-03
      0.240000          0.250964E-03
      0.245000          0.242545E-03
      0.250000          0.236343E-03
      0.255000          0.232076E-03
      0.260000          0.229425E-03
      0.265000          0.228046E-03
      0.270000          0.227583E-03
      0.275000          0.227683E-03
      0.280000          0.228005E-03
      0.285000          0.228240E-03
      0.290000          0.228118E-03
      0.295000          0.227416E-03
      0.300000          0.225968E-03
      0.305000          0.223664E-03
      0.310000          0.220449E-03
      0.315000          0.216326E-03
      0.320000          0.211344E-03
      0.325000          0.205594E-03
      0.330000          0.199201E-03
      0.335000          0.192311E-03
      0.340000          0.185087E-03
      0.345000          0.177693E-03
      0.350000          0.170292E-03
      0.355000          0.163033E-03
      0.360000          0.156046E-03
      0.365000          0.149442E-03
      0.370000          0.143304E-03
      0.375000          0.137687E-03
      0.380000          0.132621E-03
      0.385000          0.128112E-03
      0.390000          0.124141E-03
      0.395000          0.120671E-03
      0.400000          0.117651E-03
      0.405000          0.115017E-03
      0.410000          0.112702E-03
      0.415000          0.110635E-03
      0.420000          0.108748E-03
      0.425000          0.106978E-03
      0.430000          0.105268E-03
      0.435000          0.103576E-03
      0.440000          0.101865E-03
      0.445000          0.100114E-03
      0.450000          0.983123E-04
      0.455000          0.964599E-04
      0.460000          0.945666E-04
      0.465000          0.926507E-04
      0.470000          0.907364E-04
      0.475000          0.888528E-04
      0.480000          0.870312E-04
      0.485000          0.853036E-04
      0.490000          0.837007E-04
      0.495000          0.822505E-04
      0.500000          0.809769E-04
