 I_abs(s)[cm^-1]/c[mg/ml]
       0.00000          0.147820E-01
      0.500000E-02      0.147339E-01
      0.100000E-01      0.145906E-01
      0.150000E-01      0.143550E-01
      0.200000E-01      0.140320E-01
      0.250000E-01      0.136281E-01
      0.300000E-01      0.131511E-01
      0.350000E-01      0.126104E-01
      0.400000E-01      0.120159E-01
      0.450000E-01      0.113784E-01
      0.500000E-01      0.107088E-01
      0.550000E-01      0.100180E-01
      0.600000E-01      0.931659E-02
      0.650000E-01      0.861445E-02
      0.700000E-01      0.792070E-02
      0.750000E-01      0.724342E-02
      0.800000E-01      0.658955E-02
      0.850000E-01      0.596481E-02
      0.900000E-01      0.537366E-02
      0.950000E-01      0.481933E-02
      0.100000          0.430392E-02
      0.105000          0.382842E-02
      0.110000          0.339291E-02
      0.115000          0.299669E-02
      0.120000          0.263838E-02
      0.125000          0.231615E-02
      0.130000          0.202780E-02
      0.135000          0.177093E-02
      0.140000          0.154306E-02
      0.145000          0.134169E-02
      0.150000          0.116443E-02
      0.155000          0.100900E-02
      0.160000          0.873303E-03
      0.165000          0.755398E-03
      0.170000          0.653539E-03
      0.175000          0.566143E-03
      0.180000          0.491775E-03
      0.185000          0.429121E-03
      0.190000          0.376970E-03
      0.195000          0.334189E-03
      0.200000          0.299704E-03
      0.205000          0.272493E-03
      0.210000          0.251571E-03
      0.215000          0.235998E-03
      0.220000          0.224874E-03
      0.225000          0.217355E-03
      0.230000          0.212658E-03
      0.235000          0.210069E-03
      0.240000          0.208962E-03
      0.245000          0.208795E-03
      0.250000          0.209125E-03
      0.255000          0.209602E-03
      0.260000          0.209969E-03
      0.265000          0.210056E-03
      0.270000          0.209768E-03
      0.275000          0.209070E-03
      0.280000          0.207980E-03
      0.285000          0.206543E-03
      0.290000          0.204828E-03
      0.295000          0.202904E-03
      0.300000          0.200836E-03
      0.305000          0.198672E-03
      0.310000          0.196438E-03
      0.315000          0.194141E-03
      0.320000          0.191760E-03
      0.325000          0.189258E-03
      0.330000          0.186583E-03
      0.335000          0.183674E-03
      0.340000          0.180472E-03
      0.345000          0.176923E-03
      0.350000          0.172988E-03
      0.355000          0.168645E-03
      0.360000          0.163896E-03
      0.365000          0.158767E-03
      0.370000          0.153307E-03
      0.375000          0.147588E-03
      0.380000          0.141699E-03
      0.385000          0.135744E-03
      0.390000          0.129831E-03
      0.395000          0.124072E-03
      0.400000          0.118573E-03
      0.405000          0.113428E-03
      0.410000          0.108718E-03
      0.415000          0.104502E-03
      0.420000          0.100819E-03
      0.425000          0.976846E-04
      0.430000          0.950941E-04
      0.435000          0.930213E-04
      0.440000          0.914227E-04
      0.445000          0.902414E-04
      0.450000          0.894105E-04
      0.455000          0.888575E-04
      0.460000          0.885091E-04
      0.465000          0.882943E-04
      0.470000          0.881485E-04
      0.475000          0.880155E-04
      0.480000          0.878500E-04
      0.485000          0.876182E-04
      0.490000          0.872984E-04
      0.495000          0.868801E-04
      0.500000          0.863636E-04
