 I_abs(s)[cm^-1]/c[mg/ml]
       0.00000          0.137592E-01
      0.500000E-02      0.136866E-01
      0.100000E-01      0.134715E-01
      0.150000E-01      0.131216E-01
      0.200000E-01      0.126492E-01
      0.250000E-01      0.120707E-01
      0.300000E-01      0.114054E-01
      0.350000E-01      0.106745E-01
      0.400000E-01      0.990024E-02
      0.450000E-01      0.910441E-02
      0.500000E-01      0.830758E-02
      0.550000E-01      0.752816E-02
      0.600000E-01      0.678172E-02
      0.650000E-01      0.608055E-02
      0.700000E-01      0.543349E-02
      0.750000E-01      0.484593E-02
      0.800000E-01      0.432004E-02
      0.850000E-01      0.385523E-02
      0.900000E-01      0.344860E-02
      0.950000E-01      0.309556E-02
      0.100000          0.279042E-02
      0.105000          0.252696E-02
      0.110000          0.229891E-02
      0.115000          0.210035E-02
      0.120000          0.192600E-02
      0.125000          0.177138E-02
      0.130000          0.163289E-02
      0.135000          0.150775E-02
      0.140000          0.139393E-02
      0.145000          0.129001E-02
      0.150000          0.119502E-02
      0.155000          0.110827E-02
      0.160000          0.102923E-02
      0.165000          0.957426E-03
      0.170000          0.892344E-03
      0.175000          0.833418E-03
      0.180000          0.780017E-03
      0.185000          0.731465E-03
      0.190000          0.687078E-03
      0.195000          0.646204E-03
      0.200000          0.608261E-03
      0.205000          0.572769E-03
      0.210000          0.539361E-03
      0.215000          0.507791E-03
      0.220000          0.477919E-03
      0.225000          0.449689E-03
      0.230000          0.423104E-03
      0.235000          0.398191E-03
      0.240000          0.374979E-03
      0.245000          0.353469E-03
      0.250000          0.333629E-03
      0.255000          0.315379E-03
      0.260000          0.298603E-03
      0.265000          0.283152E-03
      0.270000          0.268863E-03
      0.275000          0.255574E-03
      0.280000          0.243139E-03
      0.285000          0.231444E-03
      0.290000          0.220411E-03
      0.295000          0.210003E-03
      0.300000          0.200222E-03
      0.305000          0.191101E-03
      0.310000          0.182690E-03
      0.315000          0.175048E-03
      0.320000          0.168228E-03
      0.325000          0.162264E-03
      0.330000          0.157163E-03
      0.335000          0.152904E-03
      0.340000          0.149428E-03
      0.345000          0.146649E-03
      0.350000          0.144455E-03
      0.355000          0.142717E-03
      0.360000          0.141300E-03
      0.365000          0.140070E-03
      0.370000          0.138904E-03
      0.375000          0.137695E-03
      0.380000          0.136361E-03
      0.385000          0.134845E-03
      0.390000          0.133114E-03
      0.395000          0.131161E-03
      0.400000          0.128999E-03
      0.405000          0.126656E-03
      0.410000          0.124174E-03
      0.415000          0.121601E-03
      0.420000          0.118987E-03
      0.425000          0.116381E-03
      0.430000          0.113828E-03
      0.435000          0.111364E-03
      0.440000          0.109020E-03
      0.445000          0.106817E-03
      0.450000          0.104768E-03
      0.455000          0.102878E-03
      0.460000          0.101141E-03
      0.465000          0.995471E-04
      0.470000          0.980789E-04
      0.475000          0.967136E-04
      0.480000          0.954246E-04
      0.485000          0.941830E-04
      0.490000          0.929590E-04
      0.495000          0.917237E-04
      0.500000          0.904511E-04
