 I_abs(s)[cm^-1]/c[mg/ml]
       0.00000          0.136743E-01
      0.500000E-02      0.135728E-01
      0.100000E-01      0.132736E-01
      0.150000E-01      0.127929E-01
      0.200000E-01      0.121561E-01
      0.250000E-01      0.113955E-01
      0.300000E-01      0.105479E-01
      0.350000E-01      0.965144E-02
      0.400000E-01      0.874305E-02
      0.450000E-01      0.785564E-02
      0.500000E-01      0.701623E-02
      0.550000E-01      0.624469E-02
      0.600000E-01      0.555325E-02
      0.650000E-01      0.494673E-02
      0.700000E-01      0.442354E-02
      0.750000E-01      0.397697E-02
      0.800000E-01      0.359693E-02
      0.850000E-01      0.327161E-02
      0.900000E-01      0.298910E-02
      0.950000E-01      0.273863E-02
      0.100000          0.251147E-02
      0.105000          0.230136E-02
      0.110000          0.210455E-02
      0.115000          0.191950E-02
      0.120000          0.174631E-02
      0.125000          0.158606E-02
      0.130000          0.144016E-02
      0.135000          0.130978E-02
      0.140000          0.119542E-02
      0.145000          0.109674E-02
      0.150000          0.101253E-02
      0.155000          0.940877E-03
      0.160000          0.879403E-03
      0.165000          0.825606E-03
      0.170000          0.777152E-03
      0.175000          0.732120E-03
      0.180000          0.689158E-03
      0.185000          0.647531E-03
      0.190000          0.607077E-03
      0.195000          0.568077E-03
      0.200000          0.531087E-03
      0.205000          0.496752E-03
      0.210000          0.465642E-03
      0.215000          0.438125E-03
      0.220000          0.414298E-03
      0.225000          0.393976E-03
      0.230000          0.376730E-03
      0.235000          0.361963E-03
      0.240000          0.349004E-03
      0.245000          0.337199E-03
      0.250000          0.325990E-03
      0.255000          0.314967E-03
      0.260000          0.303890E-03
      0.265000          0.292681E-03
      0.270000          0.281394E-03
      0.275000          0.270170E-03
      0.280000          0.259190E-03
      0.285000          0.248630E-03
      0.290000          0.238624E-03
      0.295000          0.229254E-03
      0.300000          0.220539E-03
      0.305000          0.212447E-03
      0.310000          0.204916E-03
      0.315000          0.197869E-03
      0.320000          0.191240E-03
      0.325000          0.184983E-03
      0.330000          0.179084E-03
      0.335000          0.173557E-03
      0.340000          0.168438E-03
      0.345000          0.163775E-03
      0.350000          0.159611E-03
      0.355000          0.155975E-03
      0.360000          0.152871E-03
      0.365000          0.150273E-03
      0.370000          0.148126E-03
      0.375000          0.146348E-03
      0.380000          0.144842E-03
      0.385000          0.143499E-03
      0.390000          0.142213E-03
      0.395000          0.140885E-03
      0.400000          0.139434E-03
      0.405000          0.137794E-03
      0.410000          0.135924E-03
      0.415000          0.133800E-03
      0.420000          0.131416E-03
      0.425000          0.128780E-03
      0.430000          0.125913E-03
      0.435000          0.122842E-03
      0.440000          0.119602E-03
      0.445000          0.116229E-03
      0.450000          0.112761E-03
      0.455000          0.109239E-03
      0.460000          0.105701E-03
      0.465000          0.102187E-03
      0.470000          0.987329E-04
      0.475000          0.953754E-04
      0.480000          0.921473E-04
      0.485000          0.890795E-04
      0.490000          0.861999E-04
      0.495000          0.835335E-04
      0.500000          0.811017E-04
