 I_abs(s)[cm^-1]/c[mg/ml]
       0.00000          0.143764E-01
      0.500000E-02      0.143286E-01
      0.100000E-01      0.141860E-01
      0.150000E-01      0.139517E-01
      0.200000E-01      0.136305E-01
      0.250000E-01      0.132286E-01
      0.300000E-01      0.127542E-01
      0.350000E-01      0.122162E-01
      0.400000E-01      0.116249E-01
      0.450000E-01      0.109908E-01
      0.500000E-01      0.103252E-01
      0.550000E-01      0.963884E-02
      0.600000E-01      0.894260E-02
      0.650000E-01      0.824661E-02
      0.700000E-01      0.756020E-02
      0.750000E-01      0.689175E-02
      0.800000E-01      0.624844E-02
      0.850000E-01      0.563625E-02
      0.900000E-01      0.505985E-02
      0.950000E-01      0.452264E-02
      0.100000          0.402676E-02
      0.105000          0.357323E-02
      0.110000          0.316199E-02
      0.115000          0.279212E-02
      0.120000          0.246191E-02
      0.125000          0.216911E-02
      0.130000          0.191103E-02
      0.135000          0.168469E-02
      0.140000          0.148700E-02
      0.145000          0.131486E-02
      0.150000          0.116527E-02
      0.155000          0.103539E-02
      0.160000          0.922625E-03
      0.165000          0.824651E-03
      0.170000          0.739421E-03
      0.175000          0.665174E-03
      0.180000          0.600421E-03
      0.185000          0.543914E-03
      0.190000          0.494621E-03
      0.195000          0.451686E-03
      0.200000          0.414394E-03
      0.205000          0.382138E-03
      0.210000          0.354388E-03
      0.215000          0.330667E-03
      0.220000          0.310530E-03
      0.225000          0.293554E-03
      0.230000          0.279328E-03
      0.235000          0.267451E-03
      0.240000          0.257535E-03
      0.245000          0.249207E-03
      0.250000          0.242115E-03
      0.255000          0.235938E-03
      0.260000          0.230388E-03
      0.265000          0.225218E-03
      0.270000          0.220223E-03
      0.275000          0.215245E-03
      0.280000          0.210168E-03
      0.285000          0.204919E-03
      0.290000          0.199463E-03
      0.295000          0.193796E-03
      0.300000          0.187940E-03
      0.305000          0.181935E-03
      0.310000          0.175837E-03
      0.315000          0.169705E-03
      0.320000          0.163601E-03
      0.325000          0.157584E-03
      0.330000          0.151708E-03
      0.335000          0.146017E-03
      0.340000          0.140548E-03
      0.345000          0.135330E-03
      0.350000          0.130383E-03
      0.355000          0.125719E-03
      0.360000          0.121348E-03
      0.365000          0.117273E-03
      0.370000          0.113496E-03
      0.375000          0.110019E-03
      0.380000          0.106840E-03
      0.385000          0.103961E-03
      0.390000          0.101381E-03
      0.395000          0.991013E-04
      0.400000          0.971200E-04
      0.405000          0.954354E-04
      0.410000          0.940431E-04
      0.415000          0.929360E-04
      0.420000          0.921035E-04
      0.425000          0.915307E-04
      0.430000          0.911989E-04
      0.435000          0.910851E-04
      0.440000          0.911622E-04
      0.445000          0.913999E-04
      0.450000          0.917651E-04
      0.455000          0.922227E-04
      0.460000          0.927369E-04
      0.465000          0.932718E-04
      0.470000          0.937930E-04
      0.475000          0.942678E-04
      0.480000          0.946670E-04
      0.485000          0.949648E-04
      0.490000          0.951403E-04
      0.495000          0.951774E-04
      0.500000          0.950650E-04
