 I_abs(s)[cm^-1]/c[mg/ml]
       0.00000          0.144634E-01
      0.500000E-02      0.144144E-01
      0.100000E-01      0.142685E-01
      0.150000E-01      0.140286E-01
      0.200000E-01      0.136999E-01
      0.250000E-01      0.132890E-01
      0.300000E-01      0.128043E-01
      0.350000E-01      0.122552E-01
      0.400000E-01      0.116524E-01
      0.450000E-01      0.110070E-01
      0.500000E-01      0.103304E-01
      0.550000E-01      0.963406E-02
      0.600000E-01      0.892911E-02
      0.650000E-01      0.822598E-02
      0.700000E-01      0.753426E-02
      0.750000E-01      0.686247E-02
      0.800000E-01      0.621787E-02
      0.850000E-01      0.560643E-02
      0.900000E-01      0.503273E-02
      0.950000E-01      0.450000E-02
      0.100000          0.401018E-02
      0.105000          0.356396E-02
      0.110000          0.316100E-02
      0.115000          0.280000E-02
      0.120000          0.247892E-02
      0.125000          0.219512E-02
      0.130000          0.194558E-02
      0.135000          0.172700E-02
      0.140000          0.153601E-02
      0.145000          0.136930E-02
      0.150000          0.122366E-02
      0.155000          0.109616E-02
      0.160000          0.984139E-03
      0.165000          0.885260E-03
      0.170000          0.797536E-03
      0.175000          0.719313E-03
      0.180000          0.649251E-03
      0.185000          0.586294E-03
      0.190000          0.529626E-03
      0.195000          0.478627E-03
      0.200000          0.432833E-03
      0.205000          0.391885E-03
      0.210000          0.355495E-03
      0.215000          0.323411E-03
      0.220000          0.295393E-03
      0.225000          0.271191E-03
      0.230000          0.250533E-03
      0.235000          0.233122E-03
      0.240000          0.218636E-03
      0.245000          0.206729E-03
      0.250000          0.197044E-03
      0.255000          0.189217E-03
      0.260000          0.182893E-03
      0.265000          0.177734E-03
      0.270000          0.173427E-03
      0.275000          0.169697E-03
      0.280000          0.166306E-03
      0.285000          0.163063E-03
      0.290000          0.159819E-03
      0.295000          0.156473E-03
      0.300000          0.152964E-03
      0.305000          0.149268E-03
      0.310000          0.145395E-03
      0.315000          0.141378E-03
      0.320000          0.137272E-03
      0.325000          0.133144E-03
      0.330000          0.129065E-03
      0.335000          0.125111E-03
      0.340000          0.121349E-03
      0.345000          0.117841E-03
      0.350000          0.114636E-03
      0.355000          0.111769E-03
      0.360000          0.109260E-03
      0.365000          0.107116E-03
      0.370000          0.105327E-03
      0.375000          0.103873E-03
      0.380000          0.102719E-03
      0.385000          0.101824E-03
      0.390000          0.101142E-03
      0.395000          0.100623E-03
      0.400000          0.100215E-03
      0.405000          0.998725E-04
      0.410000          0.995513E-04
      0.415000          0.992163E-04
      0.420000          0.988400E-04
      0.425000          0.984047E-04
      0.430000          0.979022E-04
      0.435000          0.973335E-04
      0.440000          0.967087E-04
      0.445000          0.960449E-04
      0.450000          0.953648E-04
      0.455000          0.946948E-04
      0.460000          0.940627E-04
      0.465000          0.934956E-04
      0.470000          0.930176E-04
      0.475000          0.926483E-04
      0.480000          0.924010E-04
      0.485000          0.922818E-04
      0.490000          0.922889E-04
      0.495000          0.924127E-04
      0.500000          0.926360E-04
