 I_abs(s)[cm^-1]/c[mg/ml]
       0.00000          0.142896E-01
      0.500000E-02      0.142418E-01
      0.100000E-01      0.140994E-01
      0.150000E-01      0.138653E-01
      0.200000E-01      0.135446E-01
      0.250000E-01      0.131439E-01
      0.300000E-01      0.126714E-01
      0.350000E-01      0.121365E-01
      0.400000E-01      0.115496E-01
      0.450000E-01      0.109217E-01
      0.500000E-01      0.102639E-01
      0.550000E-01      0.958763E-02
      0.600000E-01      0.890358E-02
      0.650000E-01      0.822198E-02
      0.700000E-01      0.755213E-02
      0.750000E-01      0.690224E-02
      0.800000E-01      0.627928E-02
      0.850000E-01      0.568889E-02
      0.900000E-01      0.513536E-02
      0.950000E-01      0.462161E-02
      0.100000          0.414928E-02
      0.105000          0.371884E-02
      0.110000          0.332969E-02
      0.115000          0.298034E-02
      0.120000          0.266862E-02
      0.125000          0.239177E-02
      0.130000          0.214673E-02
      0.135000          0.193022E-02
      0.140000          0.173893E-02
      0.145000          0.156963E-02
      0.150000          0.141932E-02
      0.155000          0.128524E-02
      0.160000          0.116498E-02
      0.165000          0.105648E-02
      0.170000          0.958040E-03
      0.175000          0.868305E-03
      0.180000          0.786233E-03
      0.185000          0.711052E-03
      0.190000          0.642213E-03
      0.195000          0.579339E-03
      0.200000          0.522168E-03
      0.205000          0.470510E-03
      0.210000          0.424207E-03
      0.215000          0.383093E-03
      0.220000          0.346975E-03
      0.225000          0.315615E-03
      0.230000          0.288722E-03
      0.235000          0.265953E-03
      0.240000          0.246922E-03
      0.245000          0.231203E-03
      0.250000          0.218355E-03
      0.255000          0.207930E-03
      0.260000          0.199490E-03
      0.265000          0.192623E-03
      0.270000          0.186954E-03
      0.275000          0.182155E-03
      0.280000          0.177948E-03
      0.285000          0.174111E-03
      0.290000          0.170476E-03
      0.295000          0.166922E-03
      0.300000          0.163376E-03
      0.305000          0.159800E-03
      0.310000          0.156186E-03
      0.315000          0.152546E-03
      0.320000          0.148905E-03
      0.325000          0.145295E-03
      0.330000          0.141747E-03
      0.335000          0.138289E-03
      0.340000          0.134939E-03
      0.345000          0.131709E-03
      0.350000          0.128602E-03
      0.355000          0.125613E-03
      0.360000          0.122730E-03
      0.365000          0.119940E-03
      0.370000          0.117226E-03
      0.375000          0.114574E-03
      0.380000          0.111972E-03
      0.385000          0.109414E-03
      0.390000          0.106899E-03
      0.395000          0.104433E-03
      0.400000          0.102026E-03
      0.405000          0.996937E-04
      0.410000          0.974564E-04
      0.415000          0.953353E-04
      0.420000          0.933519E-04
      0.425000          0.915265E-04
      0.430000          0.898760E-04
      0.435000          0.884129E-04
      0.440000          0.871443E-04
      0.445000          0.860716E-04
      0.450000          0.851897E-04
      0.455000          0.844881E-04
      0.460000          0.839511E-04
      0.465000          0.835591E-04
      0.470000          0.832894E-04
      0.475000          0.831181E-04
      0.480000          0.830208E-04
      0.485000          0.829745E-04
      0.490000          0.829581E-04
      0.495000          0.829537E-04
      0.500000          0.829470E-04
