 I_abs(s)[cm^-1]/c[mg/ml]
       0.00000          0.146143E-01
      0.500000E-02      0.145660E-01
      0.100000E-01      0.144220E-01
      0.150000E-01      0.141853E-01
      0.200000E-01      0.138605E-01
      0.250000E-01      0.134540E-01
      0.300000E-01      0.129735E-01
      0.350000E-01      0.124283E-01
      0.400000E-01      0.118281E-01
      0.450000E-01      0.111838E-01
      0.500000E-01      0.105062E-01
      0.550000E-01      0.980647E-02
      0.600000E-01      0.909535E-02
      0.650000E-01      0.838310E-02
      0.700000E-01      0.767927E-02
      0.750000E-01      0.699243E-02
      0.800000E-01      0.633007E-02
      0.850000E-01      0.569849E-02
      0.900000E-01      0.510274E-02
      0.950000E-01      0.454658E-02
      0.100000          0.403256E-02
      0.105000          0.356205E-02
      0.110000          0.313538E-02
      0.115000          0.275191E-02
      0.120000          0.241020E-02
      0.125000          0.210818E-02
      0.130000          0.184326E-02
      0.135000          0.161251E-02
      0.140000          0.141276E-02
      0.145000          0.124080E-02
      0.150000          0.109340E-02
      0.155000          0.967441E-03
      0.160000          0.860010E-03
      0.165000          0.768406E-03
      0.170000          0.690200E-03
      0.175000          0.623242E-03
      0.180000          0.565667E-03
      0.185000          0.515888E-03
      0.190000          0.472576E-03
      0.195000          0.434638E-03
      0.200000          0.401189E-03
      0.205000          0.371527E-03
      0.210000          0.345097E-03
      0.215000          0.321473E-03
      0.220000          0.300326E-03
      0.225000          0.281406E-03
      0.230000          0.264523E-03
      0.235000          0.249526E-03
      0.240000          0.236298E-03
      0.245000          0.224740E-03
      0.250000          0.214762E-03
      0.255000          0.206280E-03
      0.260000          0.199209E-03
      0.265000          0.193460E-03
      0.270000          0.188935E-03
      0.275000          0.185525E-03
      0.280000          0.183115E-03
      0.285000          0.181573E-03
      0.290000          0.180761E-03
      0.295000          0.180531E-03
      0.300000          0.180728E-03
      0.305000          0.181194E-03
      0.310000          0.181772E-03
      0.315000          0.182309E-03
      0.320000          0.182661E-03
      0.325000          0.182700E-03
      0.330000          0.182314E-03
      0.335000          0.181412E-03
      0.340000          0.179931E-03
      0.345000          0.177832E-03
      0.350000          0.175104E-03
      0.355000          0.171763E-03
      0.360000          0.167852E-03
      0.365000          0.163435E-03
      0.370000          0.158595E-03
      0.375000          0.153432E-03
      0.380000          0.148054E-03
      0.385000          0.142573E-03
      0.390000          0.137102E-03
      0.395000          0.131746E-03
      0.400000          0.126604E-03
      0.405000          0.121757E-03
      0.410000          0.117272E-03
      0.415000          0.113198E-03
      0.420000          0.109563E-03
      0.425000          0.106380E-03
      0.430000          0.103639E-03
      0.435000          0.101320E-03
      0.440000          0.993850E-04
      0.445000          0.977882E-04
      0.450000          0.964751E-04
      0.455000          0.953874E-04
      0.460000          0.944654E-04
      0.465000          0.936509E-04
      0.470000          0.928898E-04
      0.475000          0.921338E-04
      0.480000          0.913420E-04
      0.485000          0.904821E-04
      0.490000          0.895303E-04
      0.495000          0.884717E-04
      0.500000          0.872999E-04
