 I_abs(s)[cm^-1]/c[mg/ml]
       0.00000          0.142346E-01
      0.500000E-02      0.141546E-01
      0.100000E-01      0.139176E-01
      0.150000E-01      0.135323E-01
      0.200000E-01      0.130128E-01
      0.250000E-01      0.123776E-01
      0.300000E-01      0.116485E-01
      0.350000E-01      0.108500E-01
      0.400000E-01      0.100071E-01
      0.450000E-01      0.914487E-02
      0.500000E-01      0.828678E-02
      0.550000E-01      0.745377E-02
      0.600000E-01      0.666350E-02
      0.650000E-01      0.592971E-02
      0.700000E-01      0.526196E-02
      0.750000E-01      0.466564E-02
      0.800000E-01      0.414216E-02
      0.850000E-01      0.368949E-02
      0.900000E-01      0.330271E-02
      0.950000E-01      0.297480E-02
      0.100000          0.269740E-02
      0.105000          0.246162E-02
      0.110000          0.225865E-02
      0.115000          0.208043E-02
      0.120000          0.192005E-02
      0.125000          0.177203E-02
      0.130000          0.163247E-02
      0.135000          0.149898E-02
      0.140000          0.137054E-02
      0.145000          0.124726E-02
      0.150000          0.113006E-02
      0.155000          0.102034E-02
      0.160000          0.919645E-03
      0.165000          0.829369E-03
      0.170000          0.750553E-03
      0.175000          0.683714E-03
      0.180000          0.628774E-03
      0.185000          0.585060E-03
      0.190000          0.551374E-03
      0.195000          0.526107E-03
      0.200000          0.507389E-03
      0.205000          0.493257E-03
      0.210000          0.481812E-03
      0.215000          0.471355E-03
      0.220000          0.460501E-03
      0.225000          0.448244E-03
      0.230000          0.433987E-03
      0.235000          0.417526E-03
      0.240000          0.399008E-03
      0.245000          0.378859E-03
      0.250000          0.357696E-03
      0.255000          0.336231E-03
      0.260000          0.315189E-03
      0.265000          0.295223E-03
      0.270000          0.276863E-03
      0.275000          0.260471E-03
      0.280000          0.246229E-03
      0.285000          0.234142E-03
      0.290000          0.224063E-03
      0.295000          0.215723E-03
      0.300000          0.208779E-03
      0.305000          0.202852E-03
      0.310000          0.197572E-03
      0.315000          0.192615E-03
      0.320000          0.187722E-03
      0.325000          0.182719E-03
      0.330000          0.177522E-03
      0.335000          0.172125E-03
      0.340000          0.166592E-03
      0.345000          0.161036E-03
      0.350000          0.155600E-03
      0.355000          0.150430E-03
      0.360000          0.145662E-03
      0.365000          0.141403E-03
      0.370000          0.137722E-03
      0.375000          0.134645E-03
      0.380000          0.132157E-03
      0.385000          0.130202E-03
      0.390000          0.128698E-03
      0.395000          0.127542E-03
      0.400000          0.126619E-03
      0.405000          0.125821E-03
      0.410000          0.125046E-03
      0.415000          0.124209E-03
      0.420000          0.123246E-03
      0.425000          0.122114E-03
      0.430000          0.120793E-03
      0.435000          0.119278E-03
      0.440000          0.117582E-03
      0.445000          0.115727E-03
      0.450000          0.113742E-03
      0.455000          0.111659E-03
      0.460000          0.109510E-03
      0.465000          0.107326E-03
      0.470000          0.105134E-03
      0.475000          0.102962E-03
      0.480000          0.100832E-03
      0.485000          0.987698E-04
      0.490000          0.967970E-04
      0.495000          0.949370E-04
      0.500000          0.932128E-04
