 I_abs(s)[cm^-1]/c[mg/ml]
       0.00000          0.138056E-01
      0.500000E-02      0.137258E-01
      0.100000E-01      0.134894E-01
      0.150000E-01      0.131056E-01
      0.200000E-01      0.125889E-01
      0.250000E-01      0.119586E-01
      0.300000E-01      0.112373E-01
      0.350000E-01      0.104500E-01
      0.400000E-01      0.962260E-02
      0.450000E-01      0.878035E-02
      0.500000E-01      0.794688E-02
      0.550000E-01      0.714299E-02
      0.600000E-01      0.638583E-02
      0.650000E-01      0.568839E-02
      0.700000E-01      0.505921E-02
      0.750000E-01      0.450249E-02
      0.800000E-01      0.401838E-02
      0.850000E-01      0.360355E-02
      0.900000E-01      0.325190E-02
      0.950000E-01      0.295538E-02
      0.100000          0.270487E-02
      0.105000          0.249093E-02
      0.110000          0.230458E-02
      0.115000          0.213784E-02
      0.120000          0.198415E-02
      0.125000          0.183860E-02
      0.130000          0.169802E-02
      0.135000          0.156084E-02
      0.140000          0.142687E-02
      0.145000          0.129702E-02
      0.150000          0.117289E-02
      0.155000          0.105644E-02
      0.160000          0.949599E-03
      0.165000          0.853987E-03
      0.170000          0.770713E-03
      0.175000          0.700229E-03
      0.180000          0.642298E-03
      0.185000          0.596026E-03
      0.190000          0.559976E-03
      0.195000          0.532317E-03
      0.200000          0.511002E-03
      0.205000          0.493959E-03
      0.210000          0.479252E-03
      0.215000          0.465227E-03
      0.220000          0.450608E-03
      0.225000          0.434547E-03
      0.230000          0.416636E-03
      0.235000          0.396866E-03
      0.240000          0.375563E-03
      0.245000          0.353293E-03
      0.250000          0.330768E-03
      0.255000          0.308734E-03
      0.260000          0.287890E-03
      0.265000          0.268811E-03
      0.270000          0.251898E-03
      0.275000          0.237355E-03
      0.280000          0.225190E-03
      0.285000          0.215235E-03
      0.290000          0.207180E-03
      0.295000          0.200628E-03
      0.300000          0.195138E-03
      0.305000          0.190280E-03
      0.310000          0.185675E-03
      0.315000          0.181024E-03
      0.320000          0.176133E-03
      0.325000          0.170912E-03
      0.330000          0.165372E-03
      0.335000          0.159607E-03
      0.340000          0.153771E-03
      0.345000          0.148048E-03
      0.350000          0.142630E-03
      0.355000          0.137685E-03
      0.360000          0.133340E-03
      0.365000          0.129670E-03
      0.370000          0.126691E-03
      0.375000          0.124360E-03
      0.380000          0.122587E-03
      0.385000          0.121243E-03
      0.390000          0.120182E-03
      0.395000          0.119254E-03
      0.400000          0.118322E-03
      0.405000          0.117274E-03
      0.410000          0.116037E-03
      0.415000          0.114574E-03
      0.420000          0.112892E-03
      0.425000          0.111033E-03
      0.430000          0.109065E-03
      0.435000          0.107077E-03
      0.440000          0.105159E-03
      0.445000          0.103398E-03
      0.450000          0.101862E-03
      0.455000          0.100597E-03
      0.460000          0.996174E-04
      0.465000          0.989088E-04
      0.470000          0.984275E-04
      0.475000          0.981068E-04
      0.480000          0.978634E-04
      0.485000          0.976075E-04
      0.490000          0.972507E-04
      0.495000          0.967158E-04
      0.500000          0.959437E-04
