 I_abs(s)[cm^-1]/c[mg/ml]
       0.00000          0.143369E-01
      0.500000E-02      0.142851E-01
      0.100000E-01      0.141309E-01
      0.150000E-01      0.138777E-01
      0.200000E-01      0.135308E-01
      0.250000E-01      0.130977E-01
      0.300000E-01      0.125874E-01
      0.350000E-01      0.120104E-01
      0.400000E-01      0.113781E-01
      0.450000E-01      0.107029E-01
      0.500000E-01      0.999713E-02
      0.550000E-01      0.927331E-02
      0.600000E-01      0.854349E-02
      0.650000E-01      0.781901E-02
      0.700000E-01      0.711020E-02
      0.750000E-01      0.642618E-02
      0.800000E-01      0.577465E-02
      0.850000E-01      0.516183E-02
      0.900000E-01      0.459237E-02
      0.950000E-01      0.406936E-02
      0.100000          0.359442E-02
      0.105000          0.316780E-02
      0.110000          0.278851E-02
      0.115000          0.245453E-02
      0.120000          0.216301E-02
      0.125000          0.191044E-02
      0.130000          0.169292E-02
      0.135000          0.150632E-02
      0.140000          0.134649E-02
      0.145000          0.120939E-02
      0.150000          0.109126E-02
      0.155000          0.988689E-03
      0.160000          0.898711E-03
      0.165000          0.818831E-03
      0.170000          0.747036E-03
      0.175000          0.681785E-03
      0.180000          0.621965E-03
      0.185000          0.566840E-03
      0.190000          0.515987E-03
      0.195000          0.469221E-03
      0.200000          0.426526E-03
      0.205000          0.387982E-03
      0.210000          0.353704E-03
      0.215000          0.323789E-03
      0.220000          0.298274E-03
      0.225000          0.277106E-03
      0.230000          0.260124E-03
      0.235000          0.247061E-03
      0.240000          0.237542E-03
      0.245000          0.231104E-03
      0.250000          0.227215E-03
      0.255000          0.225302E-03
      0.260000          0.224777E-03
      0.265000          0.225068E-03
      0.270000          0.225641E-03
      0.275000          0.226025E-03
      0.280000          0.225828E-03
      0.285000          0.224751E-03
      0.290000          0.222591E-03
      0.295000          0.219244E-03
      0.300000          0.214698E-03
      0.305000          0.209028E-03
      0.310000          0.202374E-03
      0.315000          0.194936E-03
      0.320000          0.186950E-03
      0.325000          0.178670E-03
      0.330000          0.170356E-03
      0.335000          0.162255E-03
      0.340000          0.154590E-03
      0.345000          0.147548E-03
      0.350000          0.141275E-03
      0.355000          0.135867E-03
      0.360000          0.131376E-03
      0.365000          0.127806E-03
      0.370000          0.125119E-03
      0.375000          0.123240E-03
      0.380000          0.122064E-03
      0.385000          0.121466E-03
      0.390000          0.121308E-03
      0.395000          0.121447E-03
      0.400000          0.121742E-03
      0.405000          0.122062E-03
      0.410000          0.122290E-03
      0.415000          0.122329E-03
      0.420000          0.122103E-03
      0.425000          0.121559E-03
      0.430000          0.120668E-03
      0.435000          0.119422E-03
      0.440000          0.117832E-03
      0.445000          0.115928E-03
      0.450000          0.113753E-03
      0.455000          0.111361E-03
      0.460000          0.108811E-03
      0.465000          0.106167E-03
      0.470000          0.103491E-03
      0.475000          0.100842E-03
      0.480000          0.982746E-04
      0.485000          0.958345E-04
      0.490000          0.935593E-04
      0.495000          0.914768E-04
      0.500000          0.896049E-04
