 I_abs(s)[cm^-1]/c[mg/ml]
       0.00000          0.143764E-01
      0.500000E-02      0.143273E-01
      0.100000E-01      0.141810E-01
      0.150000E-01      0.139408E-01
      0.200000E-01      0.136117E-01
      0.250000E-01      0.132007E-01
      0.300000E-01      0.127163E-01
      0.350000E-01      0.121684E-01
      0.400000E-01      0.115676E-01
      0.450000E-01      0.109255E-01
      0.500000E-01      0.102535E-01
      0.550000E-01      0.956341E-02
      0.600000E-01      0.886628E-02
      0.650000E-01      0.817258E-02
      0.700000E-01      0.749184E-02
      0.750000E-01      0.683240E-02
      0.800000E-01      0.620131E-02
      0.850000E-01      0.560424E-02
      0.900000E-01      0.504544E-02
      0.950000E-01      0.452775E-02
      0.100000          0.405270E-02
      0.105000          0.362060E-02
      0.110000          0.323072E-02
      0.115000          0.288142E-02
      0.120000          0.257037E-02
      0.125000          0.229472E-02
      0.130000          0.205128E-02
      0.135000          0.183672E-02
      0.140000          0.164768E-02
      0.145000          0.148093E-02
      0.150000          0.133345E-02
      0.155000          0.120254E-02
      0.160000          0.108581E-02
      0.165000          0.981230E-03
      0.170000          0.887144E-03
      0.175000          0.802215E-03
      0.180000          0.725402E-03
      0.185000          0.655916E-03
      0.190000          0.593164E-03
      0.195000          0.536698E-03
      0.200000          0.486162E-03
      0.205000          0.441254E-03
      0.210000          0.401682E-03
      0.215000          0.367141E-03
      0.220000          0.337293E-03
      0.225000          0.311760E-03
      0.230000          0.290122E-03
      0.235000          0.271924E-03
      0.240000          0.256689E-03
      0.245000          0.243930E-03
      0.250000          0.233173E-03
      0.255000          0.223965E-03
      0.260000          0.215898E-03
      0.265000          0.208616E-03
      0.270000          0.201823E-03
      0.275000          0.195291E-03
      0.280000          0.188858E-03
      0.285000          0.182429E-03
      0.290000          0.175962E-03
      0.295000          0.169467E-03
      0.300000          0.162991E-03
      0.305000          0.156606E-03
      0.310000          0.150402E-03
      0.315000          0.144470E-03
      0.320000          0.138901E-03
      0.325000          0.133769E-03
      0.330000          0.129133E-03
      0.335000          0.125031E-03
      0.340000          0.121478E-03
      0.345000          0.118468E-03
      0.350000          0.115974E-03
      0.355000          0.113957E-03
      0.360000          0.112361E-03
      0.365000          0.111126E-03
      0.370000          0.110186E-03
      0.375000          0.109475E-03
      0.380000          0.108932E-03
      0.385000          0.108501E-03
      0.390000          0.108132E-03
      0.395000          0.107785E-03
      0.400000          0.107427E-03
      0.405000          0.107033E-03
      0.410000          0.106585E-03
      0.415000          0.106068E-03
      0.420000          0.105476E-03
      0.425000          0.104801E-03
      0.430000          0.104042E-03
      0.435000          0.103194E-03
      0.440000          0.102259E-03
      0.445000          0.101237E-03
      0.450000          0.100130E-03
      0.455000          0.989432E-04
      0.460000          0.976833E-04
      0.465000          0.963616E-04
      0.470000          0.949927E-04
      0.475000          0.935956E-04
      0.480000          0.921931E-04
      0.485000          0.908119E-04
      0.490000          0.894815E-04
      0.495000          0.882331E-04
      0.500000          0.870983E-04
