 I_abs(s)[cm^-1]/c[mg/ml]
       0.00000          0.146861E-01
      0.500000E-02      0.146364E-01
      0.100000E-01      0.144885E-01
      0.150000E-01      0.142455E-01
      0.200000E-01      0.139125E-01
      0.250000E-01      0.134964E-01
      0.300000E-01      0.130059E-01
      0.350000E-01      0.124506E-01
      0.400000E-01      0.118412E-01
      0.450000E-01      0.111890E-01
      0.500000E-01      0.105056E-01
      0.550000E-01      0.980232E-02
      0.600000E-01      0.909025E-02
      0.650000E-01      0.837966E-02
      0.700000E-01      0.767989E-02
      0.750000E-01      0.699918E-02
      0.800000E-01      0.634449E-02
      0.850000E-01      0.572146E-02
      0.900000E-01      0.513441E-02
      0.950000E-01      0.458633E-02
      0.100000          0.407900E-02
      0.105000          0.361312E-02
      0.110000          0.318840E-02
      0.115000          0.280379E-02
      0.120000          0.245761E-02
      0.125000          0.214769E-02
      0.130000          0.187161E-02
      0.135000          0.162676E-02
      0.140000          0.141052E-02
      0.145000          0.122030E-02
      0.150000          0.105367E-02
      0.155000          0.908372E-03
      0.160000          0.782337E-03
      0.165000          0.673724E-03
      0.170000          0.580883E-03
      0.175000          0.502340E-03
      0.180000          0.436770E-03
      0.185000          0.382960E-03
      0.190000          0.339780E-03
      0.195000          0.306150E-03
      0.200000          0.281022E-03
      0.205000          0.263361E-03
      0.210000          0.252137E-03
      0.215000          0.246324E-03
      0.220000          0.244906E-03
      0.225000          0.246890E-03
      0.230000          0.251318E-03
      0.235000          0.257288E-03
      0.240000          0.263970E-03
      0.245000          0.270621E-03
      0.250000          0.276605E-03
      0.255000          0.281398E-03
      0.260000          0.284595E-03
      0.265000          0.285916E-03
      0.270000          0.285197E-03
      0.275000          0.282389E-03
      0.280000          0.277542E-03
      0.285000          0.270793E-03
      0.290000          0.262353E-03
      0.295000          0.252485E-03
      0.300000          0.241489E-03
      0.305000          0.229687E-03
      0.310000          0.217404E-03
      0.315000          0.204954E-03
      0.320000          0.192632E-03
      0.325000          0.180702E-03
      0.330000          0.169390E-03
      0.335000          0.158880E-03
      0.340000          0.149312E-03
      0.345000          0.140781E-03
      0.350000          0.133341E-03
      0.355000          0.127005E-03
      0.360000          0.121752E-03
      0.365000          0.117531E-03
      0.370000          0.114266E-03
      0.375000          0.111863E-03
      0.380000          0.110216E-03
      0.385000          0.109208E-03
      0.390000          0.108724E-03
      0.395000          0.108649E-03
      0.400000          0.108873E-03
      0.405000          0.109297E-03
      0.410000          0.109831E-03
      0.415000          0.110399E-03
      0.420000          0.110939E-03
      0.425000          0.111402E-03
      0.430000          0.111754E-03
      0.435000          0.111971E-03
      0.440000          0.112043E-03
      0.445000          0.111969E-03
      0.450000          0.111755E-03
      0.455000          0.111412E-03
      0.460000          0.110957E-03
      0.465000          0.110408E-03
      0.470000          0.109783E-03
      0.475000          0.109099E-03
      0.480000          0.108371E-03
      0.485000          0.107610E-03
      0.490000          0.106824E-03
      0.495000          0.106016E-03
      0.500000          0.105188E-03
