 I_abs(s)[cm^-1]/c[mg/ml]
       0.00000          0.140310E-01
      0.500000E-02      0.139556E-01
      0.100000E-01      0.137322E-01
      0.150000E-01      0.133689E-01
      0.200000E-01      0.128787E-01
      0.250000E-01      0.122784E-01
      0.300000E-01      0.115886E-01
      0.350000E-01      0.108314E-01
      0.400000E-01      0.100304E-01
      0.450000E-01      0.920872E-02
      0.500000E-01      0.838813E-02
      0.550000E-01      0.758827E-02
      0.600000E-01      0.682576E-02
      0.650000E-01      0.611366E-02
      0.700000E-01      0.546127E-02
      0.750000E-01      0.487406E-02
      0.800000E-01      0.435389E-02
      0.850000E-01      0.389941E-02
      0.900000E-01      0.350662E-02
      0.950000E-01      0.316950E-02
      0.100000          0.288075E-02
      0.105000          0.263243E-02
      0.110000          0.241660E-02
      0.115000          0.222584E-02
      0.120000          0.205367E-02
      0.125000          0.189482E-02
      0.130000          0.174534E-02
      0.135000          0.160263E-02
      0.140000          0.146533E-02
      0.145000          0.133310E-02
      0.150000          0.120641E-02
      0.155000          0.108628E-02
      0.160000          0.973956E-03
      0.165000          0.870718E-03
      0.170000          0.777653E-03
      0.175000          0.695519E-03
      0.180000          0.624649E-03
      0.185000          0.564923E-03
      0.190000          0.515789E-03
      0.195000          0.476322E-03
      0.200000          0.445314E-03
      0.205000          0.421377E-03
      0.210000          0.403054E-03
      0.215000          0.388915E-03
      0.220000          0.377642E-03
      0.225000          0.368094E-03
      0.230000          0.359345E-03
      0.235000          0.350696E-03
      0.240000          0.341678E-03
      0.245000          0.332026E-03
      0.250000          0.321646E-03
      0.255000          0.310579E-03
      0.260000          0.298960E-03
      0.265000          0.286977E-03
      0.270000          0.274844E-03
      0.275000          0.262770E-03
      0.280000          0.250945E-03
      0.285000          0.239531E-03
      0.290000          0.228655E-03
      0.295000          0.218410E-03
      0.300000          0.208864E-03
      0.305000          0.200059E-03
      0.310000          0.192021E-03
      0.315000          0.184763E-03
      0.320000          0.178287E-03
      0.325000          0.172588E-03
      0.330000          0.167649E-03
      0.335000          0.163445E-03
      0.340000          0.159936E-03
      0.345000          0.157070E-03
      0.350000          0.154778E-03
      0.355000          0.152977E-03
      0.360000          0.151570E-03
      0.365000          0.150450E-03
      0.370000          0.149505E-03
      0.375000          0.148619E-03
      0.380000          0.147682E-03
      0.385000          0.146593E-03
      0.390000          0.145265E-03
      0.395000          0.143631E-03
      0.400000          0.141644E-03
      0.405000          0.139281E-03
      0.410000          0.136542E-03
      0.415000          0.133450E-03
      0.420000          0.130047E-03
      0.425000          0.126392E-03
      0.430000          0.122555E-03
      0.435000          0.118615E-03
      0.440000          0.114652E-03
      0.445000          0.110747E-03
      0.450000          0.106972E-03
      0.455000          0.103392E-03
      0.460000          0.100058E-03
      0.465000          0.970079E-04
      0.470000          0.942632E-04
      0.475000          0.918311E-04
      0.480000          0.897045E-04
      0.485000          0.878635E-04
      0.490000          0.862782E-04
      0.495000          0.849113E-04
      0.500000          0.837211E-04
