 I_abs(s)[cm^-1]/c[mg/ml]
       0.00000          0.139764E-01
      0.500000E-02      0.139093E-01
      0.100000E-01      0.137103E-01
      0.150000E-01      0.133859E-01
      0.200000E-01      0.129465E-01
      0.250000E-01      0.124062E-01
      0.300000E-01      0.117813E-01
      0.350000E-01      0.110903E-01
      0.400000E-01      0.103523E-01
      0.450000E-01      0.958663E-02
      0.500000E-01      0.881157E-02
      0.550000E-01      0.804389E-02
      0.600000E-01      0.729818E-02
      0.650000E-01      0.658647E-02
      0.700000E-01      0.591798E-02
      0.750000E-01      0.529911E-02
      0.800000E-01      0.473358E-02
      0.850000E-01      0.422264E-02
      0.900000E-01      0.376550E-02
      0.950000E-01      0.335974E-02
      0.100000          0.300171E-02
      0.105000          0.268705E-02
      0.110000          0.241101E-02
      0.115000          0.216883E-02
      0.120000          0.195596E-02
      0.125000          0.176830E-02
      0.130000          0.160221E-02
      0.135000          0.145464E-02
      0.140000          0.132302E-02
      0.145000          0.120529E-02
      0.150000          0.109976E-02
      0.155000          0.100506E-02
      0.160000          0.920033E-03
      0.165000          0.843711E-03
      0.170000          0.775218E-03
      0.175000          0.713766E-03
      0.180000          0.658627E-03
      0.185000          0.609129E-03
      0.190000          0.564665E-03
      0.195000          0.524690E-03
      0.200000          0.488730E-03
      0.205000          0.456385E-03
      0.210000          0.427322E-03
      0.215000          0.401265E-03
      0.220000          0.377986E-03
      0.225000          0.357287E-03
      0.230000          0.338987E-03
      0.235000          0.322908E-03
      0.240000          0.308866E-03
      0.245000          0.296667E-03
      0.250000          0.286107E-03
      0.255000          0.276977E-03
      0.260000          0.269069E-03
      0.265000          0.262181E-03
      0.270000          0.256131E-03
      0.275000          0.250756E-03
      0.280000          0.245922E-03
      0.285000          0.241516E-03
      0.290000          0.237450E-03
      0.295000          0.233653E-03
      0.300000          0.230064E-03
      0.305000          0.226625E-03
      0.310000          0.223280E-03
      0.315000          0.219966E-03
      0.320000          0.216613E-03
      0.325000          0.213150E-03
      0.330000          0.209503E-03
      0.335000          0.205606E-03
      0.340000          0.201402E-03
      0.345000          0.196858E-03
      0.350000          0.191959E-03
      0.355000          0.186722E-03
      0.360000          0.181188E-03
      0.365000          0.175425E-03
      0.370000          0.169521E-03
      0.375000          0.163578E-03
      0.380000          0.157701E-03
      0.385000          0.151995E-03
      0.390000          0.146551E-03
      0.395000          0.141444E-03
      0.400000          0.136723E-03
      0.405000          0.132413E-03
      0.410000          0.128513E-03
      0.415000          0.124996E-03
      0.420000          0.121817E-03
      0.425000          0.118915E-03
      0.430000          0.116221E-03
      0.435000          0.113663E-03
      0.440000          0.111173E-03
      0.445000          0.108690E-03
      0.450000          0.106165E-03
      0.455000          0.103563E-03
      0.460000          0.100865E-03
      0.465000          0.980663E-04
      0.470000          0.951751E-04
      0.475000          0.922124E-04
      0.480000          0.892082E-04
      0.485000          0.861991E-04
      0.490000          0.832259E-04
      0.495000          0.803307E-04
      0.500000          0.775548E-04
