 I_abs(s)[cm^-1]/c[mg/ml]
       0.00000          0.146223E-01
      0.500000E-02      0.145703E-01
      0.100000E-01      0.144155E-01
      0.150000E-01      0.141609E-01
      0.200000E-01      0.138113E-01
      0.250000E-01      0.133734E-01
      0.300000E-01      0.128556E-01
      0.350000E-01      0.122673E-01
      0.400000E-01      0.116193E-01
      0.450000E-01      0.109229E-01
      0.500000E-01      0.101901E-01
      0.550000E-01      0.943293E-02
      0.600000E-01      0.866327E-02
      0.650000E-01      0.789260E-02
      0.700000E-01      0.713173E-02
      0.750000E-01      0.639050E-02
      0.800000E-01      0.567770E-02
      0.850000E-01      0.500084E-02
      0.900000E-01      0.436611E-02
      0.950000E-01      0.377829E-02
      0.100000          0.324079E-02
      0.105000          0.275564E-02
      0.110000          0.232358E-02
      0.115000          0.194419E-02
      0.120000          0.161598E-02
      0.125000          0.133657E-02
      0.130000          0.110285E-02
      0.135000          0.911129E-03
      0.140000          0.757332E-03
      0.145000          0.637134E-03
      0.150000          0.546123E-03
      0.155000          0.479926E-03
      0.160000          0.434329E-03
      0.165000          0.405368E-03
      0.170000          0.389403E-03
      0.175000          0.383169E-03
      0.180000          0.383809E-03
      0.185000          0.388886E-03
      0.190000          0.396381E-03
      0.195000          0.404676E-03
      0.200000          0.412524E-03
      0.205000          0.419018E-03
      0.210000          0.423542E-03
      0.215000          0.425735E-03
      0.220000          0.425441E-03
      0.225000          0.422667E-03
      0.230000          0.417541E-03
      0.235000          0.410280E-03
      0.240000          0.401154E-03
      0.245000          0.390461E-03
      0.250000          0.378508E-03
      0.255000          0.365591E-03
      0.260000          0.351990E-03
      0.265000          0.337956E-03
      0.270000          0.323709E-03
      0.275000          0.309440E-03
      0.280000          0.295309E-03
      0.285000          0.281450E-03
      0.290000          0.267970E-03
      0.295000          0.254959E-03
      0.300000          0.242488E-03
      0.305000          0.230615E-03
      0.310000          0.219386E-03
      0.315000          0.208838E-03
      0.320000          0.198999E-03
      0.325000          0.189889E-03
      0.330000          0.181522E-03
      0.335000          0.173902E-03
      0.340000          0.167025E-03
      0.345000          0.160877E-03
      0.350000          0.155437E-03
      0.355000          0.150671E-03
      0.360000          0.146539E-03
      0.365000          0.142989E-03
      0.370000          0.139963E-03
      0.375000          0.137397E-03
      0.380000          0.135218E-03
      0.385000          0.133355E-03
      0.390000          0.131734E-03
      0.395000          0.130281E-03
      0.400000          0.128929E-03
      0.405000          0.127612E-03
      0.410000          0.126276E-03
      0.415000          0.124874E-03
      0.420000          0.123368E-03
      0.425000          0.121733E-03
      0.430000          0.119953E-03
      0.435000          0.118025E-03
      0.440000          0.115954E-03
      0.445000          0.113757E-03
      0.450000          0.111457E-03
      0.455000          0.109084E-03
      0.460000          0.106674E-03
      0.465000          0.104265E-03
      0.470000          0.101896E-03
      0.475000          0.996076E-04
      0.480000          0.974362E-04
      0.485000          0.954163E-04
      0.490000          0.935777E-04
      0.495000          0.919450E-04
      0.500000          0.905369E-04
