 I_abs(s)[cm^-1]/c[mg/ml]
       0.00000          0.146861E-01
      0.500000E-02      0.146395E-01
      0.100000E-01      0.145007E-01
      0.150000E-01      0.142721E-01
      0.200000E-01      0.139580E-01
      0.250000E-01      0.135640E-01
      0.300000E-01      0.130971E-01
      0.350000E-01      0.125655E-01
      0.400000E-01      0.119781E-01
      0.450000E-01      0.113447E-01
      0.500000E-01      0.106755E-01
      0.550000E-01      0.998069E-02
      0.600000E-01      0.927054E-02
      0.650000E-01      0.855492E-02
      0.700000E-01      0.784314E-02
      0.750000E-01      0.714381E-02
      0.800000E-01      0.646463E-02
      0.850000E-01      0.581229E-02
      0.900000E-01      0.519240E-02
      0.950000E-01      0.460945E-02
      0.100000          0.406677E-02
      0.105000          0.356660E-02
      0.110000          0.311010E-02
      0.115000          0.269748E-02
      0.120000          0.232810E-02
      0.125000          0.200055E-02
      0.130000          0.171282E-02
      0.135000          0.146242E-02
      0.140000          0.124652E-02
      0.145000          0.106203E-02
      0.150000          0.905795E-03
      0.155000          0.774624E-03
      0.160000          0.665416E-03
      0.165000          0.575221E-03
      0.170000          0.501295E-03
      0.175000          0.441135E-03
      0.180000          0.392506E-03
      0.185000          0.353443E-03
      0.190000          0.322254E-03
      0.195000          0.297503E-03
      0.200000          0.277990E-03
      0.205000          0.262726E-03
      0.210000          0.250908E-03
      0.215000          0.241883E-03
      0.220000          0.235126E-03
      0.225000          0.230212E-03
      0.230000          0.226793E-03
      0.235000          0.224575E-03
      0.240000          0.223311E-03
      0.245000          0.222779E-03
      0.250000          0.222784E-03
      0.255000          0.223143E-03
      0.260000          0.223693E-03
      0.265000          0.224283E-03
      0.270000          0.224778E-03
      0.275000          0.225062E-03
      0.280000          0.225037E-03
      0.285000          0.224627E-03
      0.290000          0.223777E-03
      0.295000          0.222456E-03
      0.300000          0.220652E-03
      0.305000          0.218375E-03
      0.310000          0.215651E-03
      0.315000          0.212521E-03
      0.320000          0.209035E-03
      0.325000          0.205253E-03
      0.330000          0.201235E-03
      0.335000          0.197042E-03
      0.340000          0.192731E-03
      0.345000          0.188353E-03
      0.350000          0.183952E-03
      0.355000          0.179561E-03
      0.360000          0.175205E-03
      0.365000          0.170899E-03
      0.370000          0.166649E-03
      0.375000          0.162456E-03
      0.380000          0.158311E-03
      0.385000          0.154204E-03
      0.390000          0.150123E-03
      0.395000          0.146055E-03
      0.400000          0.141989E-03
      0.405000          0.137916E-03
      0.410000          0.133832E-03
      0.415000          0.129738E-03
      0.420000          0.125641E-03
      0.425000          0.121551E-03
      0.430000          0.117486E-03
      0.435000          0.113466E-03
      0.440000          0.109516E-03
      0.445000          0.105663E-03
      0.450000          0.101934E-03
      0.455000          0.983578E-04
      0.460000          0.949608E-04
      0.465000          0.917671E-04
      0.470000          0.887972E-04
      0.475000          0.860671E-04
      0.480000          0.835878E-04
      0.485000          0.813648E-04
      0.490000          0.793980E-04
      0.495000          0.776818E-04
      0.500000          0.762053E-04
