 I_abs(s)[cm^-1]/c[mg/ml]
       0.00000          0.145189E-01
      0.500000E-02      0.144719E-01
      0.100000E-01      0.143318E-01
      0.150000E-01      0.141014E-01
      0.200000E-01      0.137850E-01
      0.250000E-01      0.133887E-01
      0.300000E-01      0.129198E-01
      0.350000E-01      0.123870E-01
      0.400000E-01      0.117997E-01
      0.450000E-01      0.111683E-01
      0.500000E-01      0.105033E-01
      0.550000E-01      0.981544E-02
      0.600000E-01      0.911530E-02
      0.650000E-01      0.841302E-02
      0.700000E-01      0.771809E-02
      0.750000E-01      0.703916E-02
      0.800000E-01      0.638385E-02
      0.850000E-01      0.575864E-02
      0.900000E-01      0.516880E-02
      0.950000E-01      0.461835E-02
      0.100000          0.411005E-02
      0.105000          0.364546E-02
      0.110000          0.322502E-02
      0.115000          0.284817E-02
      0.120000          0.251344E-02
      0.125000          0.221865E-02
      0.130000          0.196103E-02
      0.135000          0.173739E-02
      0.140000          0.154430E-02
      0.145000          0.137818E-02
      0.150000          0.123550E-02
      0.155000          0.111285E-02
      0.160000          0.100703E-02
      0.165000          0.915167E-03
      0.170000          0.834710E-03
      0.175000          0.763492E-03
      0.180000          0.699727E-03
      0.185000          0.642001E-03
      0.190000          0.589243E-03
      0.195000          0.540692E-03
      0.200000          0.495848E-03
      0.205000          0.454422E-03
      0.210000          0.416284E-03
      0.215000          0.381412E-03
      0.220000          0.349845E-03
      0.225000          0.321636E-03
      0.230000          0.296826E-03
      0.235000          0.275411E-03
      0.240000          0.257325E-03
      0.245000          0.242434E-03
      0.250000          0.230529E-03
      0.255000          0.221333E-03
      0.260000          0.214513E-03
      0.265000          0.209691E-03
      0.270000          0.206460E-03
      0.275000          0.204406E-03
      0.280000          0.203125E-03
      0.285000          0.202236E-03
      0.290000          0.201399E-03
      0.295000          0.200325E-03
      0.300000          0.198786E-03
      0.305000          0.196614E-03
      0.310000          0.193709E-03
      0.315000          0.190032E-03
      0.320000          0.185601E-03
      0.325000          0.180483E-03
      0.330000          0.174784E-03
      0.335000          0.168641E-03
      0.340000          0.162209E-03
      0.345000          0.155652E-03
      0.350000          0.149130E-03
      0.355000          0.142795E-03
      0.360000          0.136780E-03
      0.365000          0.131195E-03
      0.370000          0.126124E-03
      0.375000          0.121623E-03
      0.380000          0.117717E-03
      0.385000          0.114407E-03
      0.390000          0.111667E-03
      0.395000          0.109453E-03
      0.400000          0.107701E-03
      0.405000          0.106339E-03
      0.410000          0.105285E-03
      0.415000          0.104456E-03
      0.420000          0.103773E-03
      0.425000          0.103159E-03
      0.430000          0.102548E-03
      0.435000          0.101884E-03
      0.440000          0.101124E-03
      0.445000          0.100237E-03
      0.450000          0.992072E-04
      0.455000          0.980288E-04
      0.460000          0.967085E-04
      0.465000          0.952624E-04
      0.470000          0.937147E-04
      0.475000          0.920952E-04
      0.480000          0.904377E-04
      0.485000          0.887778E-04
      0.490000          0.871511E-04
      0.495000          0.855915E-04
      0.500000          0.841298E-04
