 I_abs(s)[cm^-1]/c[mg/ml]
       0.00000          0.137360E-01
      0.500000E-02      0.136504E-01
      0.100000E-01      0.133973E-01
      0.150000E-01      0.129876E-01
      0.200000E-01      0.124388E-01
      0.250000E-01      0.117736E-01
      0.300000E-01      0.110185E-01
      0.350000E-01      0.102021E-01
      0.400000E-01      0.935327E-02
      0.450000E-01      0.849942E-02
      0.500000E-01      0.766526E-02
      0.550000E-01      0.687146E-02
      0.600000E-01      0.613396E-02
      0.650000E-01      0.546359E-02
      0.700000E-01      0.486613E-02
      0.750000E-01      0.434274E-02
      0.800000E-01      0.389059E-02
      0.850000E-01      0.350382E-02
      0.900000E-01      0.317445E-02
      0.950000E-01      0.289343E-02
      0.100000          0.265148E-02
      0.105000          0.243987E-02
      0.110000          0.225098E-02
      0.115000          0.207862E-02
      0.120000          0.191823E-02
      0.125000          0.176677E-02
      0.130000          0.162261E-02
      0.135000          0.148523E-02
      0.140000          0.135489E-02
      0.145000          0.123230E-02
      0.150000          0.111838E-02
      0.155000          0.101392E-02
      0.160000          0.919507E-03
      0.165000          0.835351E-03
      0.170000          0.761300E-03
      0.175000          0.696845E-03
      0.180000          0.641184E-03
      0.185000          0.593314E-03
      0.190000          0.552123E-03
      0.195000          0.516475E-03
      0.200000          0.485290E-03
      0.205000          0.457600E-03
      0.210000          0.432579E-03
      0.215000          0.409567E-03
      0.220000          0.388067E-03
      0.225000          0.367734E-03
      0.230000          0.348359E-03
      0.235000          0.329841E-03
      0.240000          0.312168E-03
      0.245000          0.295389E-03
      0.250000          0.279592E-03
      0.255000          0.264881E-03
      0.260000          0.251360E-03
      0.265000          0.239115E-03
      0.270000          0.228198E-03
      0.275000          0.218624E-03
      0.280000          0.210359E-03
      0.285000          0.203321E-03
      0.290000          0.197384E-03
      0.295000          0.192387E-03
      0.300000          0.188141E-03
      0.305000          0.184445E-03
      0.310000          0.181104E-03
      0.315000          0.177938E-03
      0.320000          0.174795E-03
      0.325000          0.171563E-03
      0.330000          0.168172E-03
      0.335000          0.164596E-03
      0.340000          0.160849E-03
      0.345000          0.156975E-03
      0.350000          0.153044E-03
      0.355000          0.149136E-03
      0.360000          0.145334E-03
      0.365000          0.141714E-03
      0.370000          0.138335E-03
      0.375000          0.135240E-03
      0.380000          0.132448E-03
      0.385000          0.129959E-03
      0.390000          0.127753E-03
      0.395000          0.125798E-03
      0.400000          0.124047E-03
      0.405000          0.122452E-03
      0.410000          0.120961E-03
      0.415000          0.119523E-03
      0.420000          0.118094E-03
      0.425000          0.116635E-03
      0.430000          0.115116E-03
      0.435000          0.113514E-03
      0.440000          0.111817E-03
      0.445000          0.110021E-03
      0.450000          0.108131E-03
      0.455000          0.106161E-03
      0.460000          0.104131E-03
      0.465000          0.102071E-03
      0.470000          0.100012E-03
      0.475000          0.979894E-04
      0.480000          0.960401E-04
      0.485000          0.941975E-04
      0.490000          0.924905E-04
      0.495000          0.909408E-04
      0.500000          0.895609E-04
