 I_abs(s)[cm^-1]/c[mg/ml]
       0.00000          0.144555E-01
      0.500000E-02      0.143974E-01
      0.100000E-01      0.142247E-01
      0.150000E-01      0.139423E-01
      0.200000E-01      0.135578E-01
      0.250000E-01      0.130815E-01
      0.300000E-01      0.125259E-01
      0.350000E-01      0.119047E-01
      0.400000E-01      0.112329E-01
      0.450000E-01      0.105256E-01
      0.500000E-01      0.979767E-02
      0.550000E-01      0.906315E-02
      0.600000E-01      0.833483E-02
      0.650000E-01      0.762384E-02
      0.700000E-01      0.693946E-02
      0.750000E-01      0.628900E-02
      0.800000E-01      0.567778E-02
      0.850000E-01      0.510923E-02
      0.900000E-01      0.458504E-02
      0.950000E-01      0.410546E-02
      0.100000          0.366951E-02
      0.105000          0.327531E-02
      0.110000          0.292034E-02
      0.115000          0.260171E-02
      0.120000          0.231639E-02
      0.125000          0.206137E-02
      0.130000          0.183377E-02
      0.135000          0.163096E-02
      0.140000          0.145056E-02
      0.145000          0.129047E-02
      0.150000          0.114879E-02
      0.155000          0.102384E-02
      0.160000          0.914102E-03
      0.165000          0.818137E-03
      0.170000          0.734590E-03
      0.175000          0.662154E-03
      0.180000          0.599558E-03
      0.185000          0.545574E-03
      0.190000          0.499030E-03
      0.195000          0.458828E-03
      0.200000          0.423966E-03
      0.205000          0.393560E-03
      0.210000          0.366856E-03
      0.215000          0.343241E-03
      0.220000          0.322236E-03
      0.225000          0.303490E-03
      0.230000          0.286758E-03
      0.235000          0.271879E-03
      0.240000          0.258744E-03
      0.245000          0.247274E-03
      0.250000          0.237392E-03
      0.255000          0.229001E-03
      0.260000          0.221976E-03
      0.265000          0.216150E-03
      0.270000          0.211324E-03
      0.275000          0.207266E-03
      0.280000          0.203731E-03
      0.285000          0.200473E-03
      0.290000          0.197261E-03
      0.295000          0.193898E-03
      0.300000          0.190233E-03
      0.305000          0.186168E-03
      0.310000          0.181664E-03
      0.315000          0.176740E-03
      0.320000          0.171466E-03
      0.325000          0.165955E-03
      0.330000          0.160347E-03
      0.335000          0.154799E-03
      0.340000          0.149466E-03
      0.345000          0.144492E-03
      0.350000          0.139997E-03
      0.355000          0.136069E-03
      0.360000          0.132760E-03
      0.365000          0.130085E-03
      0.370000          0.128022E-03
      0.375000          0.126519E-03
      0.380000          0.125502E-03
      0.385000          0.124876E-03
      0.390000          0.124541E-03
      0.395000          0.124393E-03
      0.400000          0.124335E-03
      0.405000          0.124281E-03
      0.410000          0.124158E-03
      0.415000          0.123908E-03
      0.420000          0.123492E-03
      0.425000          0.122883E-03
      0.430000          0.122070E-03
      0.435000          0.121053E-03
      0.440000          0.119839E-03
      0.445000          0.118443E-03
      0.450000          0.116884E-03
      0.455000          0.115180E-03
      0.460000          0.113356E-03
      0.465000          0.111432E-03
      0.470000          0.109433E-03
      0.475000          0.107381E-03
      0.480000          0.105302E-03
      0.485000          0.103220E-03
      0.490000          0.101163E-03
      0.495000          0.991586E-04
      0.500000          0.972340E-04
