 I_abs(s)[cm^-1]/c[mg/ml]
       0.00000          0.144159E-01
      0.500000E-02      0.143593E-01
      0.100000E-01      0.141907E-01
      0.150000E-01      0.139142E-01
      0.200000E-01      0.135361E-01
      0.250000E-01      0.130653E-01
      0.300000E-01      0.125121E-01
      0.350000E-01      0.118889E-01
      0.400000E-01      0.112088E-01
      0.450000E-01      0.104857E-01
      0.500000E-01      0.973377E-02
      0.550000E-01      0.896681E-02
      0.600000E-01      0.819802E-02
      0.650000E-01      0.743960E-02
      0.700000E-01      0.670243E-02
      0.750000E-01      0.599586E-02
      0.800000E-01      0.532759E-02
      0.850000E-01      0.470356E-02
      0.900000E-01      0.412797E-02
      0.950000E-01      0.360337E-02
      0.100000          0.313073E-02
      0.105000          0.270969E-02
      0.110000          0.233870E-02
      0.115000          0.201525E-02
      0.120000          0.173616E-02
      0.125000          0.149770E-02
      0.130000          0.129589E-02
      0.135000          0.112663E-02
      0.140000          0.985892E-03
      0.145000          0.869801E-03
      0.150000          0.774766E-03
      0.155000          0.697518E-03
      0.160000          0.635151E-03
      0.165000          0.585124E-03
      0.170000          0.545251E-03
      0.175000          0.513675E-03
      0.180000          0.488827E-03
      0.185000          0.469397E-03
      0.190000          0.454281E-03
      0.195000          0.442552E-03
      0.200000          0.433424E-03
      0.205000          0.426228E-03
      0.210000          0.420389E-03
      0.215000          0.415415E-03
      0.220000          0.410885E-03
      0.225000          0.406450E-03
      0.230000          0.401827E-03
      0.235000          0.396796E-03
      0.240000          0.391205E-03
      0.245000          0.384961E-03
      0.250000          0.378028E-03
      0.255000          0.370423E-03
      0.260000          0.362201E-03
      0.265000          0.353451E-03
      0.270000          0.344283E-03
      0.275000          0.334816E-03
      0.280000          0.325167E-03
      0.285000          0.315443E-03
      0.290000          0.305732E-03
      0.295000          0.296102E-03
      0.300000          0.286592E-03
      0.305000          0.277220E-03
      0.310000          0.267979E-03
      0.315000          0.258847E-03
      0.320000          0.249787E-03
      0.325000          0.240761E-03
      0.330000          0.231730E-03
      0.335000          0.222665E-03
      0.340000          0.213549E-03
      0.345000          0.204384E-03
      0.350000          0.195188E-03
      0.355000          0.186001E-03
      0.360000          0.176880E-03
      0.365000          0.167897E-03
      0.370000          0.159133E-03
      0.375000          0.150676E-03
      0.380000          0.142611E-03
      0.385000          0.135021E-03
      0.390000          0.127976E-03
      0.395000          0.121531E-03
      0.400000          0.115723E-03
      0.405000          0.110572E-03
      0.410000          0.106075E-03
      0.415000          0.102212E-03
      0.420000          0.989441E-04
      0.425000          0.962203E-04
      0.430000          0.939779E-04
      0.435000          0.921478E-04
      0.440000          0.906583E-04
      0.445000          0.894391E-04
      0.450000          0.884246E-04
      0.455000          0.875564E-04
      0.460000          0.867855E-04
      0.465000          0.860734E-04
      0.470000          0.853922E-04
      0.475000          0.847242E-04
      0.480000          0.840612E-04
      0.485000          0.834023E-04
      0.490000          0.827522E-04
      0.495000          0.821195E-04
      0.500000          0.815141E-04
