 I_abs(s)[cm^-1]/c[mg/ml]
       0.00000          0.143685E-01
      0.500000E-02      0.143160E-01
      0.100000E-01      0.141598E-01
      0.150000E-01      0.139035E-01
      0.200000E-01      0.135530E-01
      0.250000E-01      0.131160E-01
      0.300000E-01      0.126022E-01
      0.350000E-01      0.120227E-01
      0.400000E-01      0.113895E-01
      0.450000E-01      0.107151E-01
      0.500000E-01      0.100124E-01
      0.550000E-01      0.929396E-02
      0.600000E-01      0.857176E-02
      0.650000E-01      0.785687E-02
      0.700000E-01      0.715921E-02
      0.750000E-01      0.648731E-02
      0.800000E-01      0.584819E-02
      0.850000E-01      0.524731E-02
      0.900000E-01      0.468857E-02
      0.950000E-01      0.417438E-02
      0.100000          0.370575E-02
      0.105000          0.328251E-02
      0.110000          0.290341E-02
      0.115000          0.256638E-02
      0.120000          0.226873E-02
      0.125000          0.200732E-02
      0.130000          0.177879E-02
      0.135000          0.157969E-02
      0.140000          0.140662E-02
      0.145000          0.125636E-02
      0.150000          0.112590E-02
      0.155000          0.101257E-02
      0.160000          0.913980E-03
      0.165000          0.828066E-03
      0.170000          0.753068E-03
      0.175000          0.687496E-03
      0.180000          0.630100E-03
      0.185000          0.579827E-03
      0.190000          0.535783E-03
      0.195000          0.497200E-03
      0.200000          0.463406E-03
      0.205000          0.433799E-03
      0.210000          0.407832E-03
      0.215000          0.385005E-03
      0.220000          0.364855E-03
      0.225000          0.346957E-03
      0.230000          0.330930E-03
      0.235000          0.316432E-03
      0.240000          0.303169E-03
      0.245000          0.290895E-03
      0.250000          0.279412E-03
      0.255000          0.268570E-03
      0.260000          0.258260E-03
      0.265000          0.248413E-03
      0.270000          0.238988E-03
      0.275000          0.229969E-03
      0.280000          0.221354E-03
      0.285000          0.213150E-03
      0.290000          0.205364E-03
      0.295000          0.197999E-03
      0.300000          0.191053E-03
      0.305000          0.184514E-03
      0.310000          0.178360E-03
      0.315000          0.172561E-03
      0.320000          0.167083E-03
      0.325000          0.161887E-03
      0.330000          0.156937E-03
      0.335000          0.152198E-03
      0.340000          0.147642E-03
      0.345000          0.143250E-03
      0.350000          0.139011E-03
      0.355000          0.134927E-03
      0.360000          0.131005E-03
      0.365000          0.127264E-03
      0.370000          0.123726E-03
      0.375000          0.120421E-03
      0.380000          0.117375E-03
      0.385000          0.114617E-03
      0.390000          0.112169E-03
      0.395000          0.110047E-03
      0.400000          0.108261E-03
      0.405000          0.106809E-03
      0.410000          0.105680E-03
      0.415000          0.104853E-03
      0.420000          0.104299E-03
      0.425000          0.103977E-03
      0.430000          0.103841E-03
      0.435000          0.103841E-03
      0.440000          0.103922E-03
      0.445000          0.104029E-03
      0.450000          0.104106E-03
      0.455000          0.104104E-03
      0.460000          0.103976E-03
      0.465000          0.103683E-03
      0.470000          0.103196E-03
      0.475000          0.102493E-03
      0.480000          0.101561E-03
      0.485000          0.100399E-03
      0.490000          0.990132E-04
      0.495000          0.974201E-04
      0.500000          0.956424E-04
