 I_abs(s)[cm^-1]/c[mg/ml]
       0.00000          0.141013E-01
      0.500000E-02      0.140207E-01
      0.100000E-01      0.137822E-01
      0.150000E-01      0.133946E-01
      0.200000E-01      0.128725E-01
      0.250000E-01      0.122351E-01
      0.300000E-01      0.115047E-01
      0.350000E-01      0.107064E-01
      0.400000E-01      0.986599E-02
      0.450000E-01      0.900874E-02
      0.500000E-01      0.815844E-02
      0.550000E-01      0.733613E-02
      0.600000E-01      0.655929E-02
      0.650000E-01      0.584134E-02
      0.700000E-01      0.519132E-02
      0.750000E-01      0.461394E-02
      0.800000E-01      0.410989E-02
      0.850000E-01      0.367636E-02
      0.900000E-01      0.330767E-02
      0.950000E-01      0.299612E-02
      0.100000          0.273278E-02
      0.105000          0.250830E-02
      0.110000          0.231360E-02
      0.115000          0.214046E-02
      0.120000          0.198198E-02
      0.125000          0.183281E-02
      0.130000          0.168925E-02
      0.135000          0.154924E-02
      0.140000          0.141212E-02
      0.145000          0.127839E-02
      0.150000          0.114940E-02
      0.155000          0.102694E-02
      0.160000          0.913002E-03
      0.165000          0.809392E-03
      0.170000          0.717563E-03
      0.175000          0.638438E-03
      0.180000          0.572328E-03
      0.185000          0.518932E-03
      0.190000          0.477387E-03
      0.195000          0.446376E-03
      0.200000          0.424258E-03
      0.205000          0.409217E-03
      0.210000          0.399409E-03
      0.215000          0.393086E-03
      0.220000          0.388701E-03
      0.225000          0.384981E-03
      0.230000          0.380960E-03
      0.235000          0.375989E-03
      0.240000          0.369716E-03
      0.245000          0.362037E-03
      0.250000          0.353051E-03
      0.255000          0.342989E-03
      0.260000          0.332162E-03
      0.265000          0.320904E-03
      0.270000          0.309526E-03
      0.275000          0.298292E-03
      0.280000          0.287394E-03
      0.285000          0.276948E-03
      0.290000          0.267002E-03
      0.295000          0.257540E-03
      0.300000          0.248504E-03
      0.305000          0.239810E-03
      0.310000          0.231362E-03
      0.315000          0.223074E-03
      0.320000          0.214874E-03
      0.325000          0.206719E-03
      0.330000          0.198592E-03
      0.335000          0.190505E-03
      0.340000          0.182499E-03
      0.345000          0.174632E-03
      0.350000          0.166980E-03
      0.355000          0.159622E-03
      0.360000          0.152642E-03
      0.365000          0.146116E-03
      0.370000          0.140107E-03
      0.375000          0.134666E-03
      0.380000          0.129823E-03
      0.385000          0.125589E-03
      0.390000          0.121953E-03
      0.395000          0.118884E-03
      0.400000          0.116332E-03
      0.405000          0.114231E-03
      0.410000          0.112504E-03
      0.415000          0.111065E-03
      0.420000          0.109826E-03
      0.425000          0.108702E-03
      0.430000          0.107616E-03
      0.435000          0.106504E-03
      0.440000          0.105319E-03
      0.445000          0.104034E-03
      0.450000          0.102645E-03
      0.455000          0.101166E-03
      0.460000          0.996323E-04
      0.465000          0.980950E-04
      0.470000          0.966157E-04
      0.475000          0.952612E-04
      0.480000          0.940969E-04
      0.485000          0.931809E-04
      0.490000          0.925577E-04
      0.495000          0.922538E-04
      0.500000          0.922744E-04
