 I_abs(s)[cm^-1]/c[mg/ml]
       0.00000          0.137052E-01
      0.500000E-02      0.136315E-01
      0.100000E-01      0.134133E-01
      0.150000E-01      0.130593E-01
      0.200000E-01      0.125834E-01
      0.250000E-01      0.120033E-01
      0.300000E-01      0.113402E-01
      0.350000E-01      0.106169E-01
      0.400000E-01      0.985660E-02
      0.450000E-01      0.908164E-02
      0.500000E-01      0.831239E-02
      0.550000E-01      0.756637E-02
      0.600000E-01      0.685764E-02
      0.650000E-01      0.619651E-02
      0.700000E-01      0.558954E-02
      0.750000E-01      0.503982E-02
      0.800000E-01      0.454741E-02
      0.850000E-01      0.410994E-02
      0.900000E-01      0.372327E-02
      0.950000E-01      0.338216E-02
      0.100000          0.308090E-02
      0.105000          0.281375E-02
      0.110000          0.257539E-02
      0.115000          0.236113E-02
      0.120000          0.216705E-02
      0.125000          0.199003E-02
      0.130000          0.182769E-02
      0.135000          0.167825E-02
      0.140000          0.154045E-02
      0.145000          0.141336E-02
      0.150000          0.129629E-02
      0.155000          0.118870E-02
      0.160000          0.109010E-02
      0.165000          0.100006E-02
      0.170000          0.918112E-03
      0.175000          0.843817E-03
      0.180000          0.776712E-03
      0.185000          0.716330E-03
      0.190000          0.662189E-03
      0.195000          0.613793E-03
      0.200000          0.570626E-03
      0.205000          0.532145E-03
      0.210000          0.497788E-03
      0.215000          0.466982E-03
      0.220000          0.439153E-03
      0.225000          0.413754E-03
      0.230000          0.390285E-03
      0.235000          0.368320E-03
      0.240000          0.347526E-03
      0.245000          0.327679E-03
      0.250000          0.308662E-03
      0.255000          0.290461E-03
      0.260000          0.273143E-03
      0.265000          0.256833E-03
      0.270000          0.241680E-03
      0.275000          0.227823E-03
      0.280000          0.215369E-03
      0.285000          0.204364E-03
      0.290000          0.194788E-03
      0.295000          0.186549E-03
      0.300000          0.179492E-03
      0.305000          0.173417E-03
      0.310000          0.168099E-03
      0.315000          0.163311E-03
      0.320000          0.158847E-03
      0.325000          0.154537E-03
      0.330000          0.150258E-03
      0.335000          0.145941E-03
      0.340000          0.141567E-03
      0.345000          0.137156E-03
      0.350000          0.132760E-03
      0.355000          0.128445E-03
      0.360000          0.124280E-03
      0.365000          0.120327E-03
      0.370000          0.116631E-03
      0.375000          0.113220E-03
      0.380000          0.110103E-03
      0.385000          0.107270E-03
      0.390000          0.104705E-03
      0.395000          0.102385E-03
      0.400000          0.100287E-03
      0.405000          0.983946E-04
      0.410000          0.966971E-04
      0.415000          0.951908E-04
      0.420000          0.938771E-04
      0.425000          0.927594E-04
      0.430000          0.918393E-04
      0.435000          0.911132E-04
      0.440000          0.905692E-04
      0.445000          0.901857E-04
      0.450000          0.899311E-04
      0.455000          0.897654E-04
      0.460000          0.896425E-04
      0.465000          0.895140E-04
      0.470000          0.893331E-04
      0.475000          0.890585E-04
      0.480000          0.886577E-04
      0.485000          0.881096E-04
      0.490000          0.874055E-04
      0.495000          0.865500E-04
      0.500000          0.855593E-04
