 I_abs(s)[cm^-1]/c[mg/ml]
       0.00000          0.141561E-01
      0.500000E-02      0.140890E-01
      0.100000E-01      0.138900E-01
      0.150000E-01      0.135660E-01
      0.200000E-01      0.131278E-01
      0.250000E-01      0.125897E-01
      0.300000E-01      0.119689E-01
      0.350000E-01      0.112841E-01
      0.400000E-01      0.105548E-01
      0.450000E-01      0.980049E-02
      0.500000E-01      0.903932E-02
      0.550000E-01      0.828778E-02
      0.600000E-01      0.755991E-02
      0.650000E-01      0.686697E-02
      0.700000E-01      0.621724E-02
      0.750000E-01      0.561612E-02
      0.800000E-01      0.506628E-02
      0.850000E-01      0.456799E-02
      0.900000E-01      0.411963E-02
      0.950000E-01      0.371811E-02
      0.100000          0.335938E-02
      0.105000          0.303893E-02
      0.110000          0.275214E-02
      0.115000          0.249462E-02
      0.120000          0.226246E-02
      0.125000          0.205228E-02
      0.130000          0.186138E-02
      0.135000          0.168759E-02
      0.140000          0.152930E-02
      0.145000          0.138529E-02
      0.150000          0.125462E-02
      0.155000          0.113651E-02
      0.160000          0.103027E-02
      0.165000          0.935169E-03
      0.170000          0.850466E-03
      0.175000          0.775337E-03
      0.180000          0.708908E-03
      0.185000          0.650268E-03
      0.190000          0.598508E-03
      0.195000          0.552753E-03
      0.200000          0.512190E-03
      0.205000          0.476092E-03
      0.210000          0.443831E-03
      0.215000          0.414879E-03
      0.220000          0.388799E-03
      0.225000          0.365234E-03
      0.230000          0.343890E-03
      0.235000          0.324518E-03
      0.240000          0.306900E-03
      0.245000          0.290835E-03
      0.250000          0.276139E-03
      0.255000          0.262637E-03
      0.260000          0.250170E-03
      0.265000          0.238593E-03
      0.270000          0.227787E-03
      0.275000          0.217656E-03
      0.280000          0.208134E-03
      0.285000          0.199183E-03
      0.290000          0.190786E-03
      0.295000          0.182949E-03
      0.300000          0.175684E-03
      0.305000          0.169008E-03
      0.310000          0.162934E-03
      0.315000          0.157462E-03
      0.320000          0.152577E-03
      0.325000          0.148246E-03
      0.330000          0.144421E-03
      0.335000          0.141038E-03
      0.340000          0.138024E-03
      0.345000          0.135303E-03
      0.350000          0.132798E-03
      0.355000          0.130439E-03
      0.360000          0.128168E-03
      0.365000          0.125939E-03
      0.370000          0.123719E-03
      0.375000          0.121492E-03
      0.380000          0.119254E-03
      0.385000          0.117013E-03
      0.390000          0.114784E-03
      0.395000          0.112588E-03
      0.400000          0.110448E-03
      0.405000          0.108389E-03
      0.410000          0.106433E-03
      0.415000          0.104598E-03
      0.420000          0.102898E-03
      0.425000          0.101343E-03
      0.430000          0.999368E-04
      0.435000          0.986784E-04
      0.440000          0.975622E-04
      0.445000          0.965782E-04
      0.450000          0.957130E-04
      0.455000          0.949505E-04
      0.460000          0.942728E-04
      0.465000          0.936614E-04
      0.470000          0.930980E-04
      0.475000          0.925657E-04
      0.480000          0.920499E-04
      0.485000          0.915391E-04
      0.490000          0.910255E-04
      0.495000          0.905050E-04
      0.500000          0.899774E-04
