 I_abs(s)[cm^-1]/c[mg/ml]
       0.00000          0.144951E-01
      0.500000E-02      0.144356E-01
      0.100000E-01      0.142589E-01
      0.150000E-01      0.139701E-01
      0.200000E-01      0.135773E-01
      0.250000E-01      0.130916E-01
      0.300000E-01      0.125260E-01
      0.350000E-01      0.118951E-01
      0.400000E-01      0.112142E-01
      0.450000E-01      0.104990E-01
      0.500000E-01      0.976447E-02
      0.550000E-01      0.902474E-02
      0.600000E-01      0.829236E-02
      0.650000E-01      0.757813E-02
      0.700000E-01      0.689086E-02
      0.750000E-01      0.623737E-02
      0.800000E-01      0.562248E-02
      0.850000E-01      0.504924E-02
      0.900000E-01      0.451912E-02
      0.950000E-01      0.403228E-02
      0.100000          0.358788E-02
      0.105000          0.318435E-02
      0.110000          0.281964E-02
      0.115000          0.249143E-02
      0.120000          0.219730E-02
      0.125000          0.193481E-02
      0.130000          0.170165E-02
      0.135000          0.149555E-02
      0.140000          0.131441E-02
      0.145000          0.115617E-02
      0.150000          0.101886E-02
      0.155000          0.900574E-03
      0.160000          0.799421E-03
      0.165000          0.713551E-03
      0.170000          0.641157E-03
      0.175000          0.580493E-03
      0.180000          0.529897E-03
      0.185000          0.487817E-03
      0.190000          0.452839E-03
      0.195000          0.423699E-03
      0.200000          0.399298E-03
      0.205000          0.378700E-03
      0.210000          0.361125E-03
      0.215000          0.345936E-03
      0.220000          0.332616E-03
      0.225000          0.320748E-03
      0.230000          0.309990E-03
      0.235000          0.300062E-03
      0.240000          0.290728E-03
      0.245000          0.281788E-03
      0.250000          0.273075E-03
      0.255000          0.264452E-03
      0.260000          0.255821E-03
      0.265000          0.247118E-03
      0.270000          0.238324E-03
      0.275000          0.229458E-03
      0.280000          0.220577E-03
      0.285000          0.211772E-03
      0.290000          0.203152E-03
      0.295000          0.194839E-03
      0.300000          0.186950E-03
      0.305000          0.179590E-03
      0.310000          0.172838E-03
      0.315000          0.166740E-03
      0.320000          0.161309E-03
      0.325000          0.156524E-03
      0.330000          0.152331E-03
      0.335000          0.148656E-03
      0.340000          0.145411E-03
      0.345000          0.142501E-03
      0.350000          0.139842E-03
      0.355000          0.137358E-03
      0.360000          0.134996E-03
      0.365000          0.132720E-03
      0.370000          0.130520E-03
      0.375000          0.128400E-03
      0.380000          0.126382E-03
      0.385000          0.124494E-03
      0.390000          0.122766E-03
      0.395000          0.121227E-03
      0.400000          0.119899E-03
      0.405000          0.118790E-03
      0.410000          0.117900E-03
      0.415000          0.117218E-03
      0.420000          0.116722E-03
      0.425000          0.116386E-03
      0.430000          0.116180E-03
      0.435000          0.116071E-03
      0.440000          0.116034E-03
      0.445000          0.116042E-03
      0.450000          0.116076E-03
      0.455000          0.116122E-03
      0.460000          0.116168E-03
      0.465000          0.116204E-03
      0.470000          0.116223E-03
      0.475000          0.116212E-03
      0.480000          0.116163E-03
      0.485000          0.116058E-03
      0.490000          0.115883E-03
      0.495000          0.115619E-03
      0.500000          0.115247E-03
