 I_abs(s)[cm^-1]/c[mg/ml]
       0.00000          0.140778E-01
      0.500000E-02      0.140130E-01
      0.100000E-01      0.138206E-01
      0.150000E-01      0.135062E-01
      0.200000E-01      0.130791E-01
      0.250000E-01      0.125515E-01
      0.300000E-01      0.119382E-01
      0.350000E-01      0.112559E-01
      0.400000E-01      0.105223E-01
      0.450000E-01      0.975559E-02
      0.500000E-01      0.897349E-02
      0.550000E-01      0.819276E-02
      0.600000E-01      0.742855E-02
      0.650000E-01      0.669394E-02
      0.700000E-01      0.599962E-02
      0.750000E-01      0.535373E-02
      0.800000E-01      0.476178E-02
      0.850000E-01      0.422680E-02
      0.900000E-01      0.374949E-02
      0.950000E-01      0.332858E-02
      0.100000          0.296113E-02
      0.105000          0.264299E-02
      0.110000          0.236916E-02
      0.115000          0.213423E-02
      0.120000          0.193267E-02
      0.125000          0.175917E-02
      0.130000          0.160887E-02
      0.135000          0.147746E-02
      0.140000          0.136135E-02
      0.145000          0.125762E-02
      0.150000          0.116405E-02
      0.155000          0.107899E-02
      0.160000          0.100129E-02
      0.165000          0.930175E-03
      0.170000          0.865147E-03
      0.175000          0.805846E-03
      0.180000          0.751981E-03
      0.185000          0.703253E-03
      0.190000          0.659316E-03
      0.195000          0.619756E-03
      0.200000          0.584092E-03
      0.205000          0.551795E-03
      0.210000          0.522322E-03
      0.215000          0.495142E-03
      0.220000          0.469779E-03
      0.225000          0.445838E-03
      0.230000          0.423025E-03
      0.235000          0.401157E-03
      0.240000          0.380163E-03
      0.245000          0.360068E-03
      0.250000          0.340979E-03
      0.255000          0.323048E-03
      0.260000          0.306452E-03
      0.265000          0.291358E-03
      0.270000          0.277897E-03
      0.275000          0.266144E-03
      0.280000          0.256105E-03
      0.285000          0.247709E-03
      0.290000          0.240812E-03
      0.295000          0.235205E-03
      0.300000          0.230630E-03
      0.305000          0.226799E-03
      0.310000          0.223416E-03
      0.315000          0.220197E-03
      0.320000          0.216886E-03
      0.325000          0.213276E-03
      0.330000          0.209217E-03
      0.335000          0.204619E-03
      0.340000          0.199454E-03
      0.345000          0.193755E-03
      0.350000          0.187600E-03
      0.355000          0.181107E-03
      0.360000          0.174417E-03
      0.365000          0.167681E-03
      0.370000          0.161047E-03
      0.375000          0.154649E-03
      0.380000          0.148597E-03
      0.385000          0.142972E-03
      0.390000          0.137823E-03
      0.395000          0.133166E-03
      0.400000          0.128987E-03
      0.405000          0.125247E-03
      0.410000          0.121887E-03
      0.415000          0.118837E-03
      0.420000          0.116023E-03
      0.425000          0.113370E-03
      0.430000          0.110813E-03
      0.435000          0.108296E-03
      0.440000          0.105780E-03
      0.445000          0.103240E-03
      0.450000          0.100668E-03
      0.455000          0.980689E-04
      0.460000          0.954610E-04
      0.465000          0.928705E-04
      0.470000          0.903293E-04
      0.475000          0.878715E-04
      0.480000          0.855300E-04
      0.485000          0.833342E-04
      0.490000          0.813076E-04
      0.495000          0.794669E-04
      0.500000          0.778212E-04
