 I_abs(s)[cm^-1]/c[mg/ml]
       0.00000          0.143922E-01
      0.500000E-02      0.143180E-01
      0.100000E-01      0.140981E-01
      0.150000E-01      0.137410E-01
      0.200000E-01      0.132598E-01
      0.250000E-01      0.126718E-01
      0.300000E-01      0.119971E-01
      0.350000E-01      0.112576E-01
      0.400000E-01      0.104753E-01
      0.450000E-01      0.967157E-02
      0.500000E-01      0.886584E-02
      0.550000E-01      0.807503E-02
      0.600000E-01      0.731299E-02
      0.650000E-01      0.659034E-02
      0.700000E-01      0.591451E-02
      0.750000E-01      0.529000E-02
      0.800000E-01      0.471879E-02
      0.850000E-01      0.420083E-02
      0.900000E-01      0.373452E-02
      0.950000E-01      0.331719E-02
      0.100000          0.294554E-02
      0.105000          0.261591E-02
      0.110000          0.232454E-02
      0.115000          0.206774E-02
      0.120000          0.184198E-02
      0.125000          0.164392E-02
      0.130000          0.147044E-02
      0.135000          0.131867E-02
      0.140000          0.118595E-02
      0.145000          0.106988E-02
      0.150000          0.968272E-03
      0.155000          0.879202E-03
      0.160000          0.800976E-03
      0.165000          0.732134E-03
      0.170000          0.671436E-03
      0.175000          0.617835E-03
      0.180000          0.570453E-03
      0.185000          0.528553E-03
      0.190000          0.491511E-03
      0.195000          0.458792E-03
      0.200000          0.429936E-03
      0.205000          0.404538E-03
      0.210000          0.382247E-03
      0.215000          0.362751E-03
      0.220000          0.345775E-03
      0.225000          0.331072E-03
      0.230000          0.318415E-03
      0.235000          0.307587E-03
      0.240000          0.298368E-03
      0.245000          0.290535E-03
      0.250000          0.283851E-03
      0.255000          0.278069E-03
      0.260000          0.272936E-03
      0.265000          0.268205E-03
      0.270000          0.263645E-03
      0.275000          0.259054E-03
      0.280000          0.254274E-03
      0.285000          0.249190E-03
      0.290000          0.243744E-03
      0.295000          0.237923E-03
      0.300000          0.231757E-03
      0.305000          0.225309E-03
      0.310000          0.218658E-03
      0.315000          0.211894E-03
      0.320000          0.205104E-03
      0.325000          0.198364E-03
      0.330000          0.191739E-03
      0.335000          0.185277E-03
      0.340000          0.179015E-03
      0.345000          0.172982E-03
      0.350000          0.167195E-03
      0.355000          0.161671E-03
      0.360000          0.156421E-03
      0.365000          0.151452E-03
      0.370000          0.146768E-03
      0.375000          0.142367E-03
      0.380000          0.138240E-03
      0.385000          0.134373E-03
      0.390000          0.130745E-03
      0.395000          0.127335E-03
      0.400000          0.124121E-03
      0.405000          0.121086E-03
      0.410000          0.118217E-03
      0.415000          0.115513E-03
      0.420000          0.112977E-03
      0.425000          0.110623E-03
      0.430000          0.108466E-03
      0.435000          0.106522E-03
      0.440000          0.104802E-03
      0.445000          0.103311E-03
      0.450000          0.102041E-03
      0.455000          0.100975E-03
      0.460000          0.100084E-03
      0.465000          0.993318E-04
      0.470000          0.986746E-04
      0.475000          0.980691E-04
      0.480000          0.974745E-04
      0.485000          0.968565E-04
      0.490000          0.961899E-04
      0.495000          0.954598E-04
      0.500000          0.946620E-04
