 I_abs(s)[cm^-1]/c[mg/ml]
       0.00000          0.144793E-01
      0.500000E-02      0.144262E-01
      0.100000E-01      0.142682E-01
      0.150000E-01      0.140087E-01
      0.200000E-01      0.136534E-01
      0.250000E-01      0.132098E-01
      0.300000E-01      0.126873E-01
      0.350000E-01      0.120967E-01
      0.400000E-01      0.114497E-01
      0.450000E-01      0.107587E-01
      0.500000E-01      0.100366E-01
      0.550000E-01      0.929608E-02
      0.600000E-01      0.854924E-02
      0.650000E-01      0.780759E-02
      0.700000E-01      0.708155E-02
      0.750000E-01      0.638028E-02
      0.800000E-01      0.571153E-02
      0.850000E-01      0.508156E-02
      0.900000E-01      0.449506E-02
      0.950000E-01      0.395524E-02
      0.100000          0.346384E-02
      0.105000          0.302130E-02
      0.110000          0.262691E-02
      0.115000          0.227894E-02
      0.120000          0.197489E-02
      0.125000          0.171166E-02
      0.130000          0.148574E-02
      0.135000          0.129339E-02
      0.140000          0.113081E-02
      0.145000          0.994251E-03
      0.150000          0.880137E-03
      0.155000          0.785149E-03
      0.160000          0.706275E-03
      0.165000          0.640842E-03
      0.170000          0.586525E-03
      0.175000          0.541338E-03
      0.180000          0.503612E-03
      0.185000          0.471966E-03
      0.190000          0.445268E-03
      0.195000          0.422594E-03
      0.200000          0.403195E-03
      0.205000          0.386460E-03
      0.210000          0.371887E-03
      0.215000          0.359056E-03
      0.220000          0.347612E-03
      0.225000          0.337252E-03
      0.230000          0.327717E-03
      0.235000          0.318781E-03
      0.240000          0.310256E-03
      0.245000          0.301987E-03
      0.250000          0.293849E-03
      0.255000          0.285750E-03
      0.260000          0.277631E-03
      0.265000          0.269456E-03
      0.270000          0.261218E-03
      0.275000          0.252928E-03
      0.280000          0.244613E-03
      0.285000          0.236309E-03
      0.290000          0.228061E-03
      0.295000          0.219912E-03
      0.300000          0.211903E-03
      0.305000          0.204071E-03
      0.310000          0.196446E-03
      0.315000          0.189053E-03
      0.320000          0.181910E-03
      0.325000          0.175029E-03
      0.330000          0.168421E-03
      0.335000          0.162095E-03
      0.340000          0.156062E-03
      0.345000          0.150334E-03
      0.350000          0.144925E-03
      0.355000          0.139853E-03
      0.360000          0.135137E-03
      0.365000          0.130798E-03
      0.370000          0.126854E-03
      0.375000          0.123323E-03
      0.380000          0.120215E-03
      0.385000          0.117535E-03
      0.390000          0.115279E-03
      0.395000          0.113434E-03
      0.400000          0.111976E-03
      0.405000          0.110875E-03
      0.410000          0.110089E-03
      0.415000          0.109571E-03
      0.420000          0.109272E-03
      0.425000          0.109138E-03
      0.430000          0.109119E-03
      0.435000          0.109165E-03
      0.440000          0.109234E-03
      0.445000          0.109291E-03
      0.450000          0.109310E-03
      0.455000          0.109272E-03
      0.460000          0.109170E-03
      0.465000          0.109002E-03
      0.470000          0.108775E-03
      0.475000          0.108501E-03
      0.480000          0.108192E-03
      0.485000          0.107865E-03
      0.490000          0.107534E-03
      0.495000          0.107210E-03
      0.500000          0.106899E-03
