 I_abs(s)[cm^-1]/c[mg/ml]
       0.00000          0.142032E-01
      0.500000E-02      0.141409E-01
      0.100000E-01      0.139559E-01
      0.150000E-01      0.136535E-01
      0.200000E-01      0.132423E-01
      0.250000E-01      0.127337E-01
      0.300000E-01      0.121415E-01
      0.350000E-01      0.114812E-01
      0.400000E-01      0.107697E-01
      0.450000E-01      0.100239E-01
      0.500000E-01      0.926068E-02
      0.550000E-01      0.849605E-02
      0.600000E-01      0.774453E-02
      0.650000E-01      0.701884E-02
      0.700000E-01      0.632950E-02
      0.750000E-01      0.568467E-02
      0.800000E-01      0.509011E-02
      0.850000E-01      0.454918E-02
      0.900000E-01      0.406309E-02
      0.950000E-01      0.363105E-02
      0.100000          0.325070E-02
      0.105000          0.291838E-02
      0.110000          0.262954E-02
      0.115000          0.237910E-02
      0.120000          0.216179E-02
      0.125000          0.197243E-02
      0.130000          0.180619E-02
      0.135000          0.165874E-02
      0.140000          0.152637E-02
      0.145000          0.140607E-02
      0.150000          0.129550E-02
      0.155000          0.119294E-02
      0.160000          0.109724E-02
      0.165000          0.100773E-02
      0.170000          0.924050E-03
      0.175000          0.846114E-03
      0.180000          0.773955E-03
      0.185000          0.707659E-03
      0.190000          0.647289E-03
      0.195000          0.592837E-03
      0.200000          0.544192E-03
      0.205000          0.501127E-03
      0.210000          0.463308E-03
      0.215000          0.430305E-03
      0.220000          0.401619E-03
      0.225000          0.376710E-03
      0.230000          0.355024E-03
      0.235000          0.336025E-03
      0.240000          0.319213E-03
      0.245000          0.304144E-03
      0.250000          0.290441E-03
      0.255000          0.277796E-03
      0.260000          0.265972E-03
      0.265000          0.254798E-03
      0.270000          0.244161E-03
      0.275000          0.233992E-03
      0.280000          0.224259E-03
      0.285000          0.214956E-03
      0.290000          0.206089E-03
      0.295000          0.197671E-03
      0.300000          0.189717E-03
      0.305000          0.182237E-03
      0.310000          0.175231E-03
      0.315000          0.168696E-03
      0.320000          0.162617E-03
      0.325000          0.156977E-03
      0.330000          0.151749E-03
      0.335000          0.146909E-03
      0.340000          0.142427E-03
      0.345000          0.138275E-03
      0.350000          0.134426E-03
      0.355000          0.130857E-03
      0.360000          0.127544E-03
      0.365000          0.124469E-03
      0.370000          0.121611E-03
      0.375000          0.118955E-03
      0.380000          0.116484E-03
      0.385000          0.114183E-03
      0.390000          0.112037E-03
      0.395000          0.110029E-03
      0.400000          0.108145E-03
      0.405000          0.106369E-03
      0.410000          0.104685E-03
      0.415000          0.103079E-03
      0.420000          0.101538E-03
      0.425000          0.100051E-03
      0.430000          0.986071E-04
      0.435000          0.972003E-04
      0.440000          0.958256E-04
      0.445000          0.944805E-04
      0.450000          0.931653E-04
      0.455000          0.918818E-04
      0.460000          0.906338E-04
      0.465000          0.894261E-04
      0.470000          0.882642E-04
      0.475000          0.871536E-04
      0.480000          0.860992E-04
      0.485000          0.851052E-04
      0.490000          0.841744E-04
      0.495000          0.833079E-04
      0.500000          0.825052E-04
