 I_abs(s)[cm^-1]/c[mg/ml]
       0.00000          0.141483E-01
      0.500000E-02      0.140831E-01
      0.100000E-01      0.138895E-01
      0.150000E-01      0.135735E-01
      0.200000E-01      0.131445E-01
      0.250000E-01      0.126153E-01
      0.300000E-01      0.120008E-01
      0.350000E-01      0.113183E-01
      0.400000E-01      0.105856E-01
      0.450000E-01      0.982107E-02
      0.500000E-01      0.904245E-02
      0.550000E-01      0.826630E-02
      0.600000E-01      0.750746E-02
      0.650000E-01      0.677854E-02
      0.700000E-01      0.608970E-02
      0.750000E-01      0.544849E-02
      0.800000E-01      0.485989E-02
      0.850000E-01      0.432642E-02
      0.900000E-01      0.384847E-02
      0.950000E-01      0.342454E-02
      0.100000          0.305173E-02
      0.105000          0.272606E-02
      0.110000          0.244291E-02
      0.115000          0.219738E-02
      0.120000          0.198457E-02
      0.125000          0.179984E-02
      0.130000          0.163899E-02
      0.135000          0.149833E-02
      0.140000          0.137476E-02
      0.145000          0.126572E-02
      0.150000          0.116916E-02
      0.155000          0.108345E-02
      0.160000          0.100727E-02
      0.165000          0.939525E-03
      0.170000          0.879279E-03
      0.175000          0.825652E-03
      0.180000          0.777791E-03
      0.185000          0.734838E-03
      0.190000          0.695928E-03
      0.195000          0.660196E-03
      0.200000          0.626812E-03
      0.205000          0.595005E-03
      0.210000          0.564104E-03
      0.215000          0.533571E-03
      0.220000          0.503022E-03
      0.225000          0.472244E-03
      0.230000          0.441199E-03
      0.235000          0.410012E-03
      0.240000          0.378953E-03
      0.245000          0.348405E-03
      0.250000          0.318828E-03
      0.255000          0.290718E-03
      0.260000          0.264566E-03
      0.265000          0.240821E-03
      0.270000          0.219855E-03
      0.275000          0.201935E-03
      0.280000          0.187210E-03
      0.285000          0.175697E-03
      0.290000          0.167286E-03
      0.295000          0.161746E-03
      0.300000          0.158744E-03
      0.305000          0.157867E-03
      0.310000          0.158646E-03
      0.315000          0.160587E-03
      0.320000          0.163198E-03
      0.325000          0.166016E-03
      0.330000          0.168626E-03
      0.335000          0.170683E-03
      0.340000          0.171925E-03
      0.345000          0.172174E-03
      0.350000          0.171342E-03
      0.355000          0.169423E-03
      0.360000          0.166484E-03
      0.365000          0.162653E-03
      0.370000          0.158103E-03
      0.375000          0.153033E-03
      0.380000          0.147657E-03
      0.385000          0.142181E-03
      0.390000          0.136795E-03
      0.395000          0.131664E-03
      0.400000          0.126914E-03
      0.405000          0.122634E-03
      0.410000          0.118874E-03
      0.415000          0.115647E-03
      0.420000          0.112932E-03
      0.425000          0.110682E-03
      0.430000          0.108831E-03
      0.435000          0.107300E-03
      0.440000          0.106008E-03
      0.445000          0.104873E-03
      0.450000          0.103821E-03
      0.455000          0.102790E-03
      0.460000          0.101729E-03
      0.465000          0.100602E-03
      0.470000          0.993858E-04
      0.475000          0.980714E-04
      0.480000          0.966586E-04
      0.485000          0.951558E-04
      0.490000          0.935767E-04
      0.495000          0.919385E-04
      0.500000          0.902597E-04
