 I_abs(s)[cm^-1]/c[mg/ml]
       0.00000          0.147980E-01
      0.500000E-02      0.147369E-01
      0.100000E-01      0.145552E-01
      0.150000E-01      0.142579E-01
      0.200000E-01      0.138529E-01
      0.250000E-01      0.133510E-01
      0.300000E-01      0.127652E-01
      0.350000E-01      0.121102E-01
      0.400000E-01      0.114016E-01
      0.450000E-01      0.106557E-01
      0.500000E-01      0.988854E-02
      0.550000E-01      0.911544E-02
      0.600000E-01      0.835044E-02
      0.650000E-01      0.760593E-02
      0.700000E-01      0.689234E-02
      0.750000E-01      0.621790E-02
      0.800000E-01      0.558861E-02
      0.850000E-01      0.500824E-02
      0.900000E-01      0.447850E-02
      0.950000E-01      0.399928E-02
      0.100000          0.356887E-02
      0.105000          0.318439E-02
      0.110000          0.284205E-02
      0.115000          0.253755E-02
      0.120000          0.226639E-02
      0.125000          0.202415E-02
      0.130000          0.180671E-02
      0.135000          0.161046E-02
      0.140000          0.143235E-02
      0.145000          0.126995E-02
      0.150000          0.112149E-02
      0.155000          0.985741E-03
      0.160000          0.861954E-03
      0.165000          0.749744E-03
      0.170000          0.648968E-03
      0.175000          0.559595E-03
      0.180000          0.481602E-03
      0.185000          0.414878E-03
      0.190000          0.359154E-03
      0.195000          0.313966E-03
      0.200000          0.278635E-03
      0.205000          0.252278E-03
      0.210000          0.233840E-03
      0.215000          0.222139E-03
      0.220000          0.215918E-03
      0.225000          0.213911E-03
      0.230000          0.214895E-03
      0.235000          0.217744E-03
      0.240000          0.221471E-03
      0.245000          0.225253E-03
      0.250000          0.228454E-03
      0.255000          0.230620E-03
      0.260000          0.231476E-03
      0.265000          0.230905E-03
      0.270000          0.228923E-03
      0.275000          0.225649E-03
      0.280000          0.221275E-03
      0.285000          0.216036E-03
      0.290000          0.210182E-03
      0.295000          0.203960E-03
      0.300000          0.197593E-03
      0.305000          0.191270E-03
      0.310000          0.185145E-03
      0.315000          0.179329E-03
      0.320000          0.173901E-03
      0.325000          0.168903E-03
      0.330000          0.164357E-03
      0.335000          0.160263E-03
      0.340000          0.156610E-03
      0.345000          0.153379E-03
      0.350000          0.150546E-03
      0.355000          0.148085E-03
      0.360000          0.145966E-03
      0.365000          0.144158E-03
      0.370000          0.142628E-03
      0.375000          0.141335E-03
      0.380000          0.140235E-03
      0.385000          0.139282E-03
      0.390000          0.138422E-03
      0.395000          0.137603E-03
      0.400000          0.136771E-03
      0.405000          0.135877E-03
      0.410000          0.134881E-03
      0.415000          0.133751E-03
      0.420000          0.132468E-03
      0.425000          0.131026E-03
      0.430000          0.129434E-03
      0.435000          0.127717E-03
      0.440000          0.125906E-03
      0.445000          0.124046E-03
      0.450000          0.122183E-03
      0.455000          0.120365E-03
      0.460000          0.118636E-03
      0.465000          0.117031E-03
      0.470000          0.115576E-03
      0.475000          0.114281E-03
      0.480000          0.113145E-03
      0.485000          0.112149E-03
      0.490000          0.111263E-03
      0.495000          0.110445E-03
      0.500000          0.109648E-03
