 I_abs(s)[cm^-1]/c[mg/ml]
       0.00000          0.142582E-01
      0.500000E-02      0.141891E-01
      0.100000E-01      0.139841E-01
      0.150000E-01      0.136494E-01
      0.200000E-01      0.131953E-01
      0.250000E-01      0.126354E-01
      0.300000E-01      0.119861E-01
      0.350000E-01      0.112657E-01
      0.400000E-01      0.104938E-01
      0.450000E-01      0.969025E-02
      0.500000E-01      0.887440E-02
      0.550000E-01      0.806439E-02
      0.600000E-01      0.727646E-02
      0.650000E-01      0.652449E-02
      0.700000E-01      0.581962E-02
      0.750000E-01      0.517007E-02
      0.800000E-01      0.458117E-02
      0.850000E-01      0.405543E-02
      0.900000E-01      0.359280E-02
      0.950000E-01      0.319108E-02
      0.100000          0.284628E-02
      0.105000          0.255308E-02
      0.110000          0.230536E-02
      0.115000          0.209657E-02
      0.120000          0.192013E-02
      0.125000          0.176979E-02
      0.130000          0.163990E-02
      0.135000          0.152550E-02
      0.140000          0.142252E-02
      0.145000          0.132775E-02
      0.150000          0.123882E-02
      0.155000          0.115413E-02
      0.160000          0.107274E-02
      0.165000          0.994239E-03
      0.170000          0.918610E-03
      0.175000          0.846101E-03
      0.180000          0.777114E-03
      0.185000          0.712108E-03
      0.190000          0.651519E-03
      0.195000          0.595709E-03
      0.200000          0.544934E-03
      0.205000          0.499327E-03
      0.210000          0.458892E-03
      0.215000          0.423520E-03
      0.220000          0.392993E-03
      0.225000          0.367008E-03
      0.230000          0.345196E-03
      0.235000          0.327134E-03
      0.240000          0.312364E-03
      0.245000          0.300412E-03
      0.250000          0.290792E-03
      0.255000          0.283027E-03
      0.260000          0.276655E-03
      0.265000          0.271240E-03
      0.270000          0.266387E-03
      0.275000          0.261743E-03
      0.280000          0.257017E-03
      0.285000          0.251976E-03
      0.290000          0.246456E-03
      0.295000          0.240364E-03
      0.300000          0.233672E-03
      0.305000          0.226415E-03
      0.310000          0.218681E-03
      0.315000          0.210602E-03
      0.320000          0.202337E-03
      0.325000          0.194060E-03
      0.330000          0.185944E-03
      0.335000          0.178147E-03
      0.340000          0.170804E-03
      0.345000          0.164012E-03
      0.350000          0.157831E-03
      0.355000          0.152280E-03
      0.360000          0.147337E-03
      0.365000          0.142949E-03
      0.370000          0.139036E-03
      0.375000          0.135500E-03
      0.380000          0.132241E-03
      0.385000          0.129157E-03
      0.390000          0.126162E-03
      0.395000          0.123186E-03
      0.400000          0.120185E-03
      0.405000          0.117140E-03
      0.410000          0.114054E-03
      0.415000          0.110957E-03
      0.420000          0.107891E-03
      0.425000          0.104915E-03
      0.430000          0.102089E-03
      0.435000          0.994730E-04
      0.440000          0.971197E-04
      0.445000          0.950686E-04
      0.450000          0.933435E-04
      0.455000          0.919501E-04
      0.460000          0.908762E-04
      0.465000          0.900925E-04
      0.470000          0.895557E-04
      0.475000          0.892119E-04
      0.480000          0.890007E-04
      0.485000          0.888598E-04
      0.490000          0.887292E-04
      0.495000          0.885549E-04
      0.500000          0.882919E-04
