 I_abs(s)[cm^-1]/c[mg/ml]
       0.00000          0.145030E-01
      0.500000E-02      0.144576E-01
      0.100000E-01      0.143223E-01
      0.150000E-01      0.140994E-01
      0.200000E-01      0.137931E-01
      0.250000E-01      0.134088E-01
      0.300000E-01      0.129533E-01
      0.350000E-01      0.124346E-01
      0.400000E-01      0.118614E-01
      0.450000E-01      0.112433E-01
      0.500000E-01      0.105900E-01
      0.550000E-01      0.991150E-02
      0.600000E-01      0.921784E-02
      0.650000E-01      0.851859E-02
      0.700000E-01      0.782281E-02
      0.750000E-01      0.713888E-02
      0.800000E-01      0.647431E-02
      0.850000E-01      0.583561E-02
      0.900000E-01      0.522826E-02
      0.950000E-01      0.465663E-02
      0.100000          0.412397E-02
      0.105000          0.363248E-02
      0.110000          0.318332E-02
      0.115000          0.277669E-02
      0.120000          0.241200E-02
      0.125000          0.208789E-02
      0.130000          0.180243E-02
      0.135000          0.155323E-02
      0.140000          0.133754E-02
      0.145000          0.115241E-02
      0.150000          0.994792E-03
      0.155000          0.861617E-03
      0.160000          0.749904E-03
      0.165000          0.656820E-03
      0.170000          0.579728E-03
      0.175000          0.516227E-03
      0.180000          0.464170E-03
      0.185000          0.421667E-03
      0.190000          0.387090E-03
      0.195000          0.359047E-03
      0.200000          0.336369E-03
      0.205000          0.318085E-03
      0.210000          0.303389E-03
      0.215000          0.291619E-03
      0.220000          0.282224E-03
      0.225000          0.274747E-03
      0.230000          0.268800E-03
      0.235000          0.264048E-03
      0.240000          0.260198E-03
      0.245000          0.256990E-03
      0.250000          0.254191E-03
      0.255000          0.251592E-03
      0.260000          0.249012E-03
      0.265000          0.246294E-03
      0.270000          0.243309E-03
      0.275000          0.239961E-03
      0.280000          0.236180E-03
      0.285000          0.231934E-03
      0.290000          0.227218E-03
      0.295000          0.222058E-03
      0.300000          0.216504E-03
      0.305000          0.210629E-03
      0.310000          0.204521E-03
      0.315000          0.198279E-03
      0.320000          0.192004E-03
      0.325000          0.185797E-03
      0.330000          0.179751E-03
      0.335000          0.173948E-03
      0.340000          0.168455E-03
      0.345000          0.163320E-03
      0.350000          0.158573E-03
      0.355000          0.154226E-03
      0.360000          0.150272E-03
      0.365000          0.146689E-03
      0.370000          0.143443E-03
      0.375000          0.140489E-03
      0.380000          0.137776E-03
      0.385000          0.135251E-03
      0.390000          0.132861E-03
      0.395000          0.130557E-03
      0.400000          0.128295E-03
      0.405000          0.126039E-03
      0.410000          0.123763E-03
      0.415000          0.121447E-03
      0.420000          0.119083E-03
      0.425000          0.116671E-03
      0.430000          0.114217E-03
      0.435000          0.111734E-03
      0.440000          0.109241E-03
      0.445000          0.106756E-03
      0.450000          0.104304E-03
      0.455000          0.101905E-03
      0.460000          0.995826E-04
      0.465000          0.973557E-04
      0.470000          0.952423E-04
      0.475000          0.932574E-04
      0.480000          0.914135E-04
      0.485000          0.897202E-04
      0.490000          0.881849E-04
      0.495000          0.868126E-04
      0.500000          0.856065E-04
