 I_abs(s)[cm^-1]/c[mg/ml]
       0.00000          0.147420E-01
      0.500000E-02      0.146938E-01
      0.100000E-01      0.145502E-01
      0.150000E-01      0.143139E-01
      0.200000E-01      0.139894E-01
      0.250000E-01      0.135829E-01
      0.300000E-01      0.131019E-01
      0.350000E-01      0.125552E-01
      0.400000E-01      0.119525E-01
      0.450000E-01      0.113042E-01
      0.500000E-01      0.106211E-01
      0.550000E-01      0.991412E-02
      0.600000E-01      0.919392E-02
      0.650000E-01      0.847083E-02
      0.700000E-01      0.775445E-02
      0.750000E-01      0.705354E-02
      0.800000E-01      0.637583E-02
      0.850000E-01      0.572792E-02
      0.900000E-01      0.511515E-02
      0.950000E-01      0.454167E-02
      0.100000          0.401037E-02
      0.105000          0.352295E-02
      0.110000          0.308002E-02
      0.115000          0.268123E-02
      0.120000          0.232533E-02
      0.125000          0.201039E-02
      0.130000          0.173393E-02
      0.135000          0.149305E-02
      0.140000          0.128459E-02
      0.145000          0.110529E-02
      0.150000          0.951883E-03
      0.155000          0.821191E-03
      0.160000          0.710232E-03
      0.165000          0.616269E-03
      0.170000          0.536844E-03
      0.175000          0.469810E-03
      0.180000          0.413325E-03
      0.185000          0.365845E-03
      0.190000          0.326097E-03
      0.195000          0.293050E-03
      0.200000          0.265874E-03
      0.205000          0.243900E-03
      0.210000          0.226583E-03
      0.215000          0.213461E-03
      0.220000          0.204122E-03
      0.225000          0.198182E-03
      0.230000          0.195259E-03
      0.235000          0.194962E-03
      0.240000          0.196884E-03
      0.245000          0.200601E-03
      0.250000          0.205676E-03
      0.255000          0.211666E-03
      0.260000          0.218135E-03
      0.265000          0.224663E-03
      0.270000          0.230862E-03
      0.275000          0.236384E-03
      0.280000          0.240934E-03
      0.285000          0.244277E-03
      0.290000          0.246241E-03
      0.295000          0.246720E-03
      0.300000          0.245675E-03
      0.305000          0.243128E-03
      0.310000          0.239155E-03
      0.315000          0.233882E-03
      0.320000          0.227472E-03
      0.325000          0.220118E-03
      0.330000          0.212030E-03
      0.335000          0.203425E-03
      0.340000          0.194521E-03
      0.345000          0.185528E-03
      0.350000          0.176635E-03
      0.355000          0.168014E-03
      0.360000          0.159811E-03
      0.365000          0.152141E-03
      0.370000          0.145093E-03
      0.375000          0.138727E-03
      0.380000          0.133075E-03
      0.385000          0.128144E-03
      0.390000          0.123920E-03
      0.395000          0.120366E-03
      0.400000          0.117434E-03
      0.405000          0.115062E-03
      0.410000          0.113177E-03
      0.415000          0.111704E-03
      0.420000          0.110565E-03
      0.425000          0.109680E-03
      0.430000          0.108974E-03
      0.435000          0.108377E-03
      0.440000          0.107825E-03
      0.445000          0.107261E-03
      0.450000          0.106639E-03
      0.455000          0.105921E-03
      0.460000          0.105080E-03
      0.465000          0.104097E-03
      0.470000          0.102966E-03
      0.475000          0.101688E-03
      0.480000          0.100273E-03
      0.485000          0.987376E-04
      0.490000          0.971068E-04
      0.495000          0.954089E-04
      0.500000          0.936760E-04
