 I_abs(s)[cm^-1]/c[mg/ml]
       0.00000          0.141639E-01
      0.500000E-02      0.141005E-01
      0.100000E-01      0.139123E-01
      0.150000E-01      0.136054E-01
      0.200000E-01      0.131893E-01
      0.250000E-01      0.126767E-01
      0.300000E-01      0.120829E-01
      0.350000E-01      0.114247E-01
      0.400000E-01      0.107198E-01
      0.450000E-01      0.998606E-02
      0.500000E-01      0.924038E-02
      0.550000E-01      0.849836E-02
      0.600000E-01      0.777367E-02
      0.650000E-01      0.707762E-02
      0.700000E-01      0.641901E-02
      0.750000E-01      0.580404E-02
      0.800000E-01      0.523649E-02
      0.850000E-01      0.471790E-02
      0.900000E-01      0.424792E-02
      0.950000E-01      0.382472E-02
      0.100000          0.344536E-02
      0.105000          0.310624E-02
      0.110000          0.280342E-02
      0.115000          0.253294E-02
      0.120000          0.229105E-02
      0.125000          0.207438E-02
      0.130000          0.187996E-02
      0.135000          0.170531E-02
      0.140000          0.154834E-02
      0.145000          0.140733E-02
      0.150000          0.128081E-02
      0.155000          0.116750E-02
      0.160000          0.106622E-02
      0.165000          0.975811E-03
      0.170000          0.895158E-03
      0.175000          0.823129E-03
      0.180000          0.758609E-03
      0.185000          0.700525E-03
      0.190000          0.647880E-03
      0.195000          0.599790E-03
      0.200000          0.555513E-03
      0.205000          0.514474E-03
      0.210000          0.476264E-03
      0.215000          0.440634E-03
      0.220000          0.407475E-03
      0.225000          0.376781E-03
      0.230000          0.348611E-03
      0.235000          0.323047E-03
      0.240000          0.300161E-03
      0.245000          0.279976E-03
      0.250000          0.262452E-03
      0.255000          0.247472E-03
      0.260000          0.234844E-03
      0.265000          0.224312E-03
      0.270000          0.215575E-03
      0.275000          0.208309E-03
      0.280000          0.202189E-03
      0.285000          0.196915E-03
      0.290000          0.192225E-03
      0.295000          0.187911E-03
      0.300000          0.183819E-03
      0.305000          0.179853E-03
      0.310000          0.175963E-03
      0.315000          0.172137E-03
      0.320000          0.168385E-03
      0.325000          0.164730E-03
      0.330000          0.161192E-03
      0.335000          0.157779E-03
      0.340000          0.154488E-03
      0.345000          0.151297E-03
      0.350000          0.148170E-03
      0.355000          0.145064E-03
      0.360000          0.141934E-03
      0.365000          0.138739E-03
      0.370000          0.135456E-03
      0.375000          0.132074E-03
      0.380000          0.128606E-03
      0.385000          0.125086E-03
      0.390000          0.121565E-03
      0.395000          0.118105E-03
      0.400000          0.114778E-03
      0.405000          0.111653E-03
      0.410000          0.108791E-03
      0.415000          0.106241E-03
      0.420000          0.104032E-03
      0.425000          0.102172E-03
      0.430000          0.100650E-03
      0.435000          0.994338E-04
      0.440000          0.984777E-04
      0.445000          0.977247E-04
      0.450000          0.971132E-04
      0.455000          0.965826E-04
      0.460000          0.960780E-04
      0.465000          0.955547E-04
      0.470000          0.949801E-04
      0.475000          0.943358E-04
      0.480000          0.936164E-04
      0.485000          0.928286E-04
      0.490000          0.919881E-04
      0.495000          0.911163E-04
      0.500000          0.902375E-04
