 I_abs(s)[cm^-1]/c[mg/ml]
       0.00000          0.140622E-01
      0.500000E-02      0.139734E-01
      0.100000E-01      0.137112E-01
      0.150000E-01      0.132876E-01
      0.200000E-01      0.127216E-01
      0.250000E-01      0.120376E-01
      0.300000E-01      0.112638E-01
      0.350000E-01      0.104300E-01
      0.400000E-01      0.956577E-02
      0.450000E-01      0.869839E-02
      0.500000E-01      0.785168E-02
      0.550000E-01      0.704483E-02
      0.600000E-01      0.629194E-02
      0.650000E-01      0.560191E-02
      0.700000E-01      0.497893E-02
      0.750000E-01      0.442310E-02
      0.800000E-01      0.393138E-02
      0.850000E-01      0.349855E-02
      0.900000E-01      0.311821E-02
      0.950000E-01      0.278353E-02
      0.100000          0.248796E-02
      0.105000          0.222560E-02
      0.110000          0.199145E-02
      0.115000          0.178147E-02
      0.120000          0.159249E-02
      0.125000          0.142207E-02
      0.130000          0.126831E-02
      0.135000          0.112973E-02
      0.140000          0.100510E-02
      0.145000          0.893352E-03
      0.150000          0.793595E-03
      0.155000          0.705049E-03
      0.160000          0.627069E-03
      0.165000          0.559138E-03
      0.170000          0.500847E-03
      0.175000          0.451863E-03
      0.180000          0.411870E-03
      0.185000          0.380503E-03
      0.190000          0.357290E-03
      0.195000          0.341596E-03
      0.200000          0.332604E-03
      0.205000          0.329311E-03
      0.210000          0.330565E-03
      0.215000          0.335123E-03
      0.220000          0.341725E-03
      0.225000          0.349171E-03
      0.230000          0.356400E-03
      0.235000          0.362542E-03
      0.240000          0.366959E-03
      0.245000          0.369251E-03
      0.250000          0.369245E-03
      0.255000          0.366962E-03
      0.260000          0.362572E-03
      0.265000          0.356343E-03
      0.270000          0.348598E-03
      0.275000          0.339668E-03
      0.280000          0.329868E-03
      0.285000          0.319476E-03
      0.290000          0.308726E-03
      0.295000          0.297811E-03
      0.300000          0.286884E-03
      0.305000          0.276071E-03
      0.310000          0.265478E-03
      0.315000          0.255193E-03
      0.320000          0.245293E-03
      0.325000          0.235842E-03
      0.330000          0.226894E-03
      0.335000          0.218487E-03
      0.340000          0.210648E-03
      0.345000          0.203385E-03
      0.350000          0.196694E-03
      0.355000          0.190554E-03
      0.360000          0.184934E-03
      0.365000          0.179789E-03
      0.370000          0.175064E-03
      0.375000          0.170697E-03
      0.380000          0.166616E-03
      0.385000          0.162745E-03
      0.390000          0.159004E-03
      0.395000          0.155317E-03
      0.400000          0.151612E-03
      0.405000          0.147832E-03
      0.410000          0.143936E-03
      0.415000          0.139904E-03
      0.420000          0.135741E-03
      0.425000          0.131474E-03
      0.430000          0.127152E-03
      0.435000          0.122840E-03
      0.440000          0.118609E-03
      0.445000          0.114533E-03
      0.450000          0.110677E-03
      0.455000          0.107090E-03
      0.460000          0.103807E-03
      0.465000          0.100841E-03
      0.470000          0.981886E-04
      0.475000          0.958308E-04
      0.480000          0.937413E-04
      0.485000          0.918897E-04
      0.490000          0.902480E-04
      0.495000          0.887932E-04
      0.500000          0.875093E-04
