 I_abs(s)[cm^-1]/c[mg/ml]
       0.00000          0.139064E-01
      0.500000E-02      0.138361E-01
      0.100000E-01      0.136278E-01
      0.150000E-01      0.132890E-01
      0.200000E-01      0.128316E-01
      0.250000E-01      0.122716E-01
      0.300000E-01      0.116276E-01
      0.350000E-01      0.109201E-01
      0.400000E-01      0.101705E-01
      0.450000E-01      0.939982E-02
      0.500000E-01      0.862760E-02
      0.550000E-01      0.787136E-02
      0.600000E-01      0.714580E-02
      0.650000E-01      0.646244E-02
      0.700000E-01      0.582944E-02
      0.750000E-01      0.525165E-02
      0.800000E-01      0.473093E-02
      0.850000E-01      0.426651E-02
      0.900000E-01      0.385552E-02
      0.950000E-01      0.349361E-02
      0.100000          0.317547E-02
      0.105000          0.289538E-02
      0.110000          0.264769E-02
      0.115000          0.242715E-02
      0.120000          0.222915E-02
      0.125000          0.204987E-02
      0.130000          0.188630E-02
      0.135000          0.173617E-02
      0.140000          0.159789E-02
      0.145000          0.147034E-02
      0.150000          0.135280E-02
      0.155000          0.124473E-02
      0.160000          0.114569E-02
      0.165000          0.105523E-02
      0.170000          0.972863E-03
      0.175000          0.898028E-03
      0.180000          0.830092E-03
      0.185000          0.768387E-03
      0.190000          0.712239E-03
      0.195000          0.661006E-03
      0.200000          0.614113E-03
      0.205000          0.571069E-03
      0.210000          0.531475E-03
      0.215000          0.495025E-03
      0.220000          0.461489E-03
      0.225000          0.430696E-03
      0.230000          0.402507E-03
      0.235000          0.376797E-03
      0.240000          0.353438E-03
      0.245000          0.332285E-03
      0.250000          0.313173E-03
      0.255000          0.295917E-03
      0.260000          0.280322E-03
      0.265000          0.266186E-03
      0.270000          0.253317E-03
      0.275000          0.241538E-03
      0.280000          0.230690E-03
      0.285000          0.220643E-03
      0.290000          0.211286E-03
      0.295000          0.202532E-03
      0.300000          0.194306E-03
      0.305000          0.186543E-03
      0.310000          0.179180E-03
      0.315000          0.172159E-03
      0.320000          0.165418E-03
      0.325000          0.158897E-03
      0.330000          0.152543E-03
      0.335000          0.146310E-03
      0.340000          0.140167E-03
      0.345000          0.134105E-03
      0.350000          0.128131E-03
      0.355000          0.122279E-03
      0.360000          0.116599E-03
      0.365000          0.111155E-03
      0.370000          0.106020E-03
      0.375000          0.101267E-03
      0.380000          0.969584E-04
      0.385000          0.931425E-04
      0.390000          0.898463E-04
      0.395000          0.870730E-04
      0.400000          0.848014E-04
      0.405000          0.829885E-04
      0.410000          0.815740E-04
      0.415000          0.804864E-04
      0.420000          0.796498E-04
      0.425000          0.789906E-04
      0.430000          0.784435E-04
      0.435000          0.779557E-04
      0.440000          0.774890E-04
      0.445000          0.770202E-04
      0.450000          0.765399E-04
      0.455000          0.760487E-04
      0.460000          0.755538E-04
      0.465000          0.750645E-04
      0.470000          0.745883E-04
      0.475000          0.741279E-04
      0.480000          0.736791E-04
      0.485000          0.732308E-04
      0.490000          0.727656E-04
      0.495000          0.722620E-04
      0.500000          0.716973E-04
