 I_abs(s)[cm^-1]/c[mg/ml]
       0.00000          0.140154E-01
      0.500000E-02      0.139386E-01
      0.100000E-01      0.137110E-01
      0.150000E-01      0.133405E-01
      0.200000E-01      0.128401E-01
      0.250000E-01      0.122267E-01
      0.300000E-01      0.115206E-01
      0.350000E-01      0.107443E-01
      0.400000E-01      0.992124E-02
      0.450000E-01      0.907490E-02
      0.500000E-01      0.822754E-02
      0.550000E-01      0.739933E-02
      0.600000E-01      0.660761E-02
      0.650000E-01      0.586632E-02
      0.700000E-01      0.518572E-02
      0.750000E-01      0.457233E-02
      0.800000E-01      0.402907E-02
      0.850000E-01      0.355562E-02
      0.900000E-01      0.314892E-02
      0.950000E-01      0.280378E-02
      0.100000          0.251349E-02
      0.105000          0.227051E-02
      0.110000          0.206702E-02
      0.115000          0.189546E-02
      0.120000          0.174891E-02
      0.125000          0.162143E-02
      0.130000          0.150813E-02
      0.135000          0.140530E-02
      0.140000          0.131031E-02
      0.145000          0.122147E-02
      0.150000          0.113787E-02
      0.155000          0.105916E-02
      0.160000          0.985348E-03
      0.165000          0.916595E-03
      0.170000          0.853068E-03
      0.175000          0.794831E-03
      0.180000          0.741777E-03
      0.185000          0.693606E-03
      0.190000          0.649848E-03
      0.195000          0.609906E-03
      0.200000          0.573121E-03
      0.205000          0.538846E-03
      0.210000          0.506501E-03
      0.215000          0.475636E-03
      0.220000          0.445956E-03
      0.225000          0.417339E-03
      0.230000          0.389823E-03
      0.235000          0.363579E-03
      0.240000          0.338874E-03
      0.245000          0.316018E-03
      0.250000          0.295316E-03
      0.255000          0.277021E-03
      0.260000          0.261296E-03
      0.265000          0.248187E-03
      0.270000          0.237616E-03
      0.275000          0.229376E-03
      0.280000          0.223154E-03
      0.285000          0.218550E-03
      0.290000          0.215113E-03
      0.295000          0.212376E-03
      0.300000          0.209889E-03
      0.305000          0.207255E-03
      0.310000          0.204149E-03
      0.315000          0.200342E-03
      0.320000          0.195702E-03
      0.325000          0.190201E-03
      0.330000          0.183901E-03
      0.335000          0.176941E-03
      0.340000          0.169517E-03
      0.345000          0.161863E-03
      0.350000          0.154223E-03
      0.355000          0.146835E-03
      0.360000          0.139913E-03
      0.365000          0.133628E-03
      0.370000          0.128105E-03
      0.375000          0.123416E-03
      0.380000          0.119577E-03
      0.385000          0.116561E-03
      0.390000          0.114293E-03
      0.395000          0.112673E-03
      0.400000          0.111574E-03
      0.405000          0.110864E-03
      0.410000          0.110410E-03
      0.415000          0.110087E-03
      0.420000          0.109789E-03
      0.425000          0.109430E-03
      0.430000          0.108950E-03
      0.435000          0.108312E-03
      0.440000          0.107505E-03
      0.445000          0.106536E-03
      0.450000          0.105432E-03
      0.455000          0.104230E-03
      0.460000          0.102974E-03
      0.465000          0.101710E-03
      0.470000          0.100483E-03
      0.475000          0.993291E-04
      0.480000          0.982787E-04
      0.485000          0.973504E-04
      0.490000          0.965516E-04
      0.495000          0.958790E-04
      0.500000          0.953192E-04
