 I_abs(s)[cm^-1]/c[mg/ml]
       0.00000          0.144872E-01
      0.500000E-02      0.144395E-01
      0.100000E-01      0.142975E-01
      0.150000E-01      0.140640E-01
      0.200000E-01      0.137436E-01
      0.250000E-01      0.133427E-01
      0.300000E-01      0.128689E-01
      0.350000E-01      0.123313E-01
      0.400000E-01      0.117397E-01
      0.450000E-01      0.111047E-01
      0.500000E-01      0.104372E-01
      0.550000E-01      0.974815E-02
      0.600000E-01      0.904824E-02
      0.650000E-01      0.834766E-02
      0.700000E-01      0.765587E-02
      0.750000E-01      0.698137E-02
      0.800000E-01      0.633155E-02
      0.850000E-01      0.571261E-02
      0.900000E-01      0.512948E-02
      0.950000E-01      0.458579E-02
      0.100000          0.408394E-02
      0.105000          0.362514E-02
      0.110000          0.320951E-02
      0.115000          0.283623E-02
      0.120000          0.250367E-02
      0.125000          0.220954E-02
      0.130000          0.195107E-02
      0.135000          0.172518E-02
      0.140000          0.152858E-02
      0.145000          0.135794E-02
      0.150000          0.121002E-02
      0.155000          0.108172E-02
      0.160000          0.970200E-03
      0.165000          0.872891E-03
      0.170000          0.787552E-03
      0.175000          0.712273E-03
      0.180000          0.645462E-03
      0.185000          0.585833E-03
      0.190000          0.532368E-03
      0.195000          0.484287E-03
      0.200000          0.441000E-03
      0.205000          0.402065E-03
      0.210000          0.367154E-03
      0.215000          0.336007E-03
      0.220000          0.308408E-03
      0.225000          0.284156E-03
      0.230000          0.263048E-03
      0.235000          0.244863E-03
      0.240000          0.229362E-03
      0.245000          0.216285E-03
      0.250000          0.205352E-03
      0.255000          0.196272E-03
      0.260000          0.188749E-03
      0.265000          0.182497E-03
      0.270000          0.177243E-03
      0.275000          0.172737E-03
      0.280000          0.168762E-03
      0.285000          0.165134E-03
      0.290000          0.161708E-03
      0.295000          0.158378E-03
      0.300000          0.155071E-03
      0.305000          0.151751E-03
      0.310000          0.148409E-03
      0.315000          0.145059E-03
      0.320000          0.141731E-03
      0.325000          0.138466E-03
      0.330000          0.135311E-03
      0.335000          0.132309E-03
      0.340000          0.129502E-03
      0.345000          0.126920E-03
      0.350000          0.124583E-03
      0.355000          0.122503E-03
      0.360000          0.120674E-03
      0.365000          0.119083E-03
      0.370000          0.117706E-03
      0.375000          0.116512E-03
      0.380000          0.115463E-03
      0.385000          0.114520E-03
      0.390000          0.113644E-03
      0.395000          0.112797E-03
      0.400000          0.111948E-03
      0.405000          0.111068E-03
      0.410000          0.110139E-03
      0.415000          0.109149E-03
      0.420000          0.108094E-03
      0.425000          0.106979E-03
      0.430000          0.105814E-03
      0.435000          0.104617E-03
      0.440000          0.103408E-03
      0.445000          0.102212E-03
      0.450000          0.101054E-03
      0.455000          0.999582E-04
      0.460000          0.989463E-04
      0.465000          0.980369E-04
      0.470000          0.972435E-04
      0.475000          0.965740E-04
      0.480000          0.960298E-04
      0.485000          0.956061E-04
      0.490000          0.952916E-04
      0.495000          0.950696E-04
      0.500000          0.949183E-04
