 I_abs(s)[cm^-1]/c[mg/ml]
       0.00000          0.140076E-01
      0.500000E-02      0.139391E-01
      0.100000E-01      0.137361E-01
      0.150000E-01      0.134054E-01
      0.200000E-01      0.129584E-01
      0.250000E-01      0.124097E-01
      0.300000E-01      0.117768E-01
      0.350000E-01      0.110791E-01
      0.400000E-01      0.103368E-01
      0.450000E-01      0.956989E-02
      0.500000E-01      0.879722E-02
      0.550000E-01      0.803586E-02
      0.600000E-01      0.730035E-02
      0.650000E-01      0.660234E-02
      0.700000E-01      0.595034E-02
      0.750000E-01      0.534979E-02
      0.800000E-01      0.480323E-02
      0.850000E-01      0.431064E-02
      0.900000E-01      0.386989E-02
      0.950000E-01      0.347732E-02
      0.100000          0.312824E-02
      0.105000          0.281744E-02
      0.110000          0.253970E-02
      0.115000          0.229012E-02
      0.120000          0.206442E-02
      0.125000          0.185907E-02
      0.130000          0.167138E-02
      0.135000          0.149946E-02
      0.140000          0.134211E-02
      0.145000          0.119867E-02
      0.150000          0.106888E-02
      0.155000          0.952627E-03
      0.160000          0.849864E-03
      0.165000          0.760424E-03
      0.170000          0.683946E-03
      0.175000          0.619818E-03
      0.180000          0.567166E-03
      0.185000          0.524875E-03
      0.190000          0.491643E-03
      0.195000          0.466046E-03
      0.200000          0.446612E-03
      0.205000          0.431899E-03
      0.210000          0.420562E-03
      0.215000          0.411402E-03
      0.220000          0.403405E-03
      0.225000          0.395763E-03
      0.230000          0.387874E-03
      0.235000          0.379333E-03
      0.240000          0.369911E-03
      0.245000          0.359530E-03
      0.250000          0.348225E-03
      0.255000          0.336119E-03
      0.260000          0.323391E-03
      0.265000          0.310248E-03
      0.270000          0.296906E-03
      0.275000          0.283573E-03
      0.280000          0.270437E-03
      0.285000          0.257656E-03
      0.290000          0.245357E-03
      0.295000          0.233633E-03
      0.300000          0.222545E-03
      0.305000          0.212123E-03
      0.310000          0.202373E-03
      0.315000          0.193280E-03
      0.320000          0.184814E-03
      0.325000          0.176937E-03
      0.330000          0.169607E-03
      0.335000          0.162783E-03
      0.340000          0.156431E-03
      0.345000          0.150524E-03
      0.350000          0.145045E-03
      0.355000          0.139987E-03
      0.360000          0.135351E-03
      0.365000          0.131140E-03
      0.370000          0.127361E-03
      0.375000          0.124018E-03
      0.380000          0.121105E-03
      0.385000          0.118610E-03
      0.390000          0.116508E-03
      0.395000          0.114762E-03
      0.400000          0.113326E-03
      0.405000          0.112143E-03
      0.410000          0.111155E-03
      0.415000          0.110303E-03
      0.420000          0.109532E-03
      0.425000          0.108798E-03
      0.430000          0.108068E-03
      0.435000          0.107324E-03
      0.440000          0.106561E-03
      0.445000          0.105788E-03
      0.450000          0.105022E-03
      0.455000          0.104288E-03
      0.460000          0.103607E-03
      0.465000          0.103001E-03
      0.470000          0.102479E-03
      0.475000          0.102039E-03
      0.480000          0.101666E-03
      0.485000          0.101332E-03
      0.490000          0.100995E-03
      0.495000          0.100607E-03
      0.500000          0.100117E-03
