 I_abs(s)[cm^-1]/c[mg/ml]
       0.00000          0.143448E-01
      0.500000E-02      0.142843E-01
      0.100000E-01      0.141044E-01
      0.150000E-01      0.138101E-01
      0.200000E-01      0.134090E-01
      0.250000E-01      0.129117E-01
      0.300000E-01      0.123308E-01
      0.350000E-01      0.116807E-01
      0.400000E-01      0.109767E-01
      0.450000E-01      0.102348E-01
      0.500000E-01      0.947054E-02
      0.550000E-01      0.869903E-02
      0.600000E-01      0.793412E-02
      0.650000E-01      0.718815E-02
      0.700000E-01      0.647157E-02
      0.750000E-01      0.579286E-02
      0.800000E-01      0.515839E-02
      0.850000E-01      0.457249E-02
      0.900000E-01      0.403756E-02
      0.950000E-01      0.355428E-02
      0.100000          0.312183E-02
      0.105000          0.273820E-02
      0.110000          0.240046E-02
      0.115000          0.210508E-02
      0.120000          0.184814E-02
      0.125000          0.162559E-02
      0.130000          0.143347E-02
      0.135000          0.126799E-02
      0.140000          0.112568E-02
      0.145000          0.100342E-02
      0.150000          0.898484E-03
      0.155000          0.808519E-03
      0.160000          0.731511E-03
      0.165000          0.665753E-03
      0.170000          0.609788E-03
      0.175000          0.562366E-03
      0.180000          0.522393E-03
      0.185000          0.488894E-03
      0.190000          0.460988E-03
      0.195000          0.437860E-03
      0.200000          0.418758E-03
      0.205000          0.402980E-03
      0.210000          0.389883E-03
      0.215000          0.378879E-03
      0.220000          0.369442E-03
      0.225000          0.361113E-03
      0.230000          0.353503E-03
      0.235000          0.346291E-03
      0.240000          0.339224E-03
      0.245000          0.332111E-03
      0.250000          0.324819E-03
      0.255000          0.317265E-03
      0.260000          0.309406E-03
      0.265000          0.301235E-03
      0.270000          0.292771E-03
      0.275000          0.284053E-03
      0.280000          0.275133E-03
      0.285000          0.266073E-03
      0.290000          0.256942E-03
      0.295000          0.247809E-03
      0.300000          0.238745E-03
      0.305000          0.229817E-03
      0.310000          0.221090E-03
      0.315000          0.212621E-03
      0.320000          0.204463E-03
      0.325000          0.196659E-03
      0.330000          0.189244E-03
      0.335000          0.182243E-03
      0.340000          0.175671E-03
      0.345000          0.169534E-03
      0.350000          0.163830E-03
      0.355000          0.158546E-03
      0.360000          0.153666E-03
      0.365000          0.149165E-03
      0.370000          0.145018E-03
      0.375000          0.141195E-03
      0.380000          0.137668E-03
      0.385000          0.134407E-03
      0.390000          0.131387E-03
      0.395000          0.128583E-03
      0.400000          0.125973E-03
      0.405000          0.123539E-03
      0.410000          0.121265E-03
      0.415000          0.119137E-03
      0.420000          0.117143E-03
      0.425000          0.115272E-03
      0.430000          0.113514E-03
      0.435000          0.111857E-03
      0.440000          0.110292E-03
      0.445000          0.108807E-03
      0.450000          0.107388E-03
      0.455000          0.106023E-03
      0.460000          0.104697E-03
      0.465000          0.103394E-03
      0.470000          0.102099E-03
      0.475000          0.100795E-03
      0.480000          0.994675E-04
      0.485000          0.981016E-04
      0.490000          0.966846E-04
      0.495000          0.952059E-04
      0.500000          0.936576E-04
