 I_abs(s)[cm^-1]/c[mg/ml]
       0.00000          0.139920E-01
      0.500000E-02      0.139077E-01
      0.100000E-01      0.136583E-01
      0.150000E-01      0.132543E-01
      0.200000E-01      0.127123E-01
      0.250000E-01      0.120540E-01
      0.300000E-01      0.113049E-01
      0.350000E-01      0.104923E-01
      0.400000E-01      0.964429E-02
      0.450000E-01      0.878770E-02
      0.500000E-01      0.794683E-02
      0.550000E-01      0.714234E-02
      0.600000E-01      0.639046E-02
      0.650000E-01      0.570258E-02
      0.700000E-01      0.508528E-02
      0.750000E-01      0.454056E-02
      0.800000E-01      0.406653E-02
      0.850000E-01      0.365816E-02
      0.900000E-01      0.330821E-02
      0.950000E-01      0.300814E-02
      0.100000          0.274904E-02
      0.105000          0.252231E-02
      0.110000          0.232030E-02
      0.115000          0.213666E-02
      0.120000          0.196653E-02
      0.125000          0.180655E-02
      0.130000          0.165474E-02
      0.135000          0.151025E-02
      0.140000          0.137305E-02
      0.145000          0.124363E-02
      0.150000          0.112271E-02
      0.155000          0.101102E-02
      0.160000          0.909104E-03
      0.165000          0.817221E-03
      0.170000          0.735340E-03
      0.175000          0.663142E-03
      0.180000          0.600089E-03
      0.185000          0.545501E-03
      0.190000          0.498638E-03
      0.195000          0.458766E-03
      0.200000          0.425207E-03
      0.205000          0.397351E-03
      0.210000          0.374662E-03
      0.215000          0.356648E-03
      0.220000          0.342833E-03
      0.225000          0.332722E-03
      0.230000          0.325771E-03
      0.235000          0.321376E-03
      0.240000          0.318877E-03
      0.245000          0.317572E-03
      0.250000          0.316754E-03
      0.255000          0.315752E-03
      0.260000          0.313981E-03
      0.265000          0.310977E-03
      0.270000          0.306432E-03
      0.275000          0.300213E-03
      0.280000          0.292359E-03
      0.285000          0.283068E-03
      0.290000          0.272662E-03
      0.295000          0.261549E-03
      0.300000          0.250173E-03
      0.305000          0.238967E-03
      0.310000          0.228311E-03
      0.315000          0.218500E-03
      0.320000          0.209722E-03
      0.325000          0.202053E-03
      0.330000          0.195463E-03
      0.335000          0.189832E-03
      0.340000          0.184981E-03
      0.345000          0.180692E-03
      0.350000          0.176748E-03
      0.355000          0.172951E-03
      0.360000          0.169148E-03
      0.365000          0.165238E-03
      0.370000          0.161183E-03
      0.375000          0.156994E-03
      0.380000          0.152730E-03
      0.385000          0.148477E-03
      0.390000          0.144333E-03
      0.395000          0.140392E-03
      0.400000          0.136727E-03
      0.405000          0.133385E-03
      0.410000          0.130377E-03
      0.415000          0.127681E-03
      0.420000          0.125248E-03
      0.425000          0.123006E-03
      0.430000          0.120875E-03
      0.435000          0.118775E-03
      0.440000          0.116639E-03
      0.445000          0.114418E-03
      0.450000          0.112088E-03
      0.455000          0.109652E-03
      0.460000          0.107137E-03
      0.465000          0.104589E-03
      0.470000          0.102069E-03
      0.475000          0.996435E-04
      0.480000          0.973764E-04
      0.485000          0.953221E-04
      0.490000          0.935205E-04
      0.495000          0.919930E-04
      0.500000          0.907421E-04
