 I_abs(s)[cm^-1]/c[mg/ml]
       0.00000          0.144396E-01
      0.500000E-02      0.143771E-01
      0.100000E-01      0.141914E-01
      0.150000E-01      0.138882E-01
      0.200000E-01      0.134765E-01
      0.250000E-01      0.129685E-01
      0.300000E-01      0.123785E-01
      0.350000E-01      0.117227E-01
      0.400000E-01      0.110178E-01
      0.450000E-01      0.102809E-01
      0.500000E-01      0.952852E-02
      0.550000E-01      0.877577E-02
      0.600000E-01      0.803612E-02
      0.650000E-01      0.732090E-02
      0.700000E-01      0.663913E-02
      0.750000E-01      0.599746E-02
      0.800000E-01      0.540026E-02
      0.850000E-01      0.484978E-02
      0.900000E-01      0.434652E-02
      0.950000E-01      0.388949E-02
      0.100000          0.347664E-02
      0.105000          0.310518E-02
      0.110000          0.277194E-02
      0.115000          0.247363E-02
      0.120000          0.220704E-02
      0.125000          0.196921E-02
      0.130000          0.175747E-02
      0.135000          0.156947E-02
      0.140000          0.140317E-02
      0.145000          0.125673E-02
      0.150000          0.112852E-02
      0.155000          0.101694E-02
      0.160000          0.920446E-03
      0.165000          0.837476E-03
      0.170000          0.766432E-03
      0.175000          0.705696E-03
      0.180000          0.653656E-03
      0.185000          0.608756E-03
      0.190000          0.569545E-03
      0.195000          0.534733E-03
      0.200000          0.503234E-03
      0.205000          0.474196E-03
      0.210000          0.447015E-03
      0.215000          0.421328E-03
      0.220000          0.396988E-03
      0.225000          0.374021E-03
      0.230000          0.352578E-03
      0.235000          0.332877E-03
      0.240000          0.315143E-03
      0.245000          0.299566E-03
      0.250000          0.286255E-03
      0.255000          0.275217E-03
      0.260000          0.266343E-03
      0.265000          0.259412E-03
      0.270000          0.254110E-03
      0.275000          0.250052E-03
      0.280000          0.246819E-03
      0.285000          0.243987E-03
      0.290000          0.241159E-03
      0.295000          0.237999E-03
      0.300000          0.234245E-03
      0.305000          0.229724E-03
      0.310000          0.224353E-03
      0.315000          0.218136E-03
      0.320000          0.211153E-03
      0.325000          0.203537E-03
      0.330000          0.195464E-03
      0.335000          0.187126E-03
      0.340000          0.178718E-03
      0.345000          0.170418E-03
      0.350000          0.162382E-03
      0.355000          0.154734E-03
      0.360000          0.147563E-03
      0.365000          0.140924E-03
      0.370000          0.134843E-03
      0.375000          0.129323E-03
      0.380000          0.124348E-03
      0.385000          0.119891E-03
      0.390000          0.115918E-03
      0.395000          0.112392E-03
      0.400000          0.109279E-03
      0.405000          0.106543E-03
      0.410000          0.104155E-03
      0.415000          0.102082E-03
      0.420000          0.100297E-03
      0.425000          0.987707E-04
      0.430000          0.974745E-04
      0.435000          0.963802E-04
      0.440000          0.954598E-04
      0.445000          0.946875E-04
      0.450000          0.940400E-04
      0.455000          0.934977E-04
      0.460000          0.930459E-04
      0.465000          0.926748E-04
      0.470000          0.923792E-04
      0.475000          0.921579E-04
      0.480000          0.920119E-04
      0.485000          0.919427E-04
      0.490000          0.919504E-04
      0.495000          0.920314E-04
      0.500000          0.921773E-04
