 I_abs(s)[cm^-1]/c[mg/ml]
       0.00000          0.143843E-01
      0.500000E-02      0.143165E-01
      0.100000E-01      0.141155E-01
      0.150000E-01      0.137880E-01
      0.200000E-01      0.133446E-01
      0.250000E-01      0.127995E-01
      0.300000E-01      0.121694E-01
      0.350000E-01      0.114729E-01
      0.400000E-01      0.107292E-01
      0.450000E-01      0.995745E-02
      0.500000E-01      0.917581E-02
      0.550000E-01      0.840071E-02
      0.600000E-01      0.764632E-02
      0.650000E-01      0.692422E-02
      0.700000E-01      0.624324E-02
      0.750000E-01      0.560944E-02
      0.800000E-01      0.502635E-02
      0.850000E-01      0.449525E-02
      0.900000E-01      0.401552E-02
      0.950000E-01      0.358510E-02
      0.100000          0.320092E-02
      0.105000          0.285926E-02
      0.110000          0.255608E-02
      0.115000          0.228733E-02
      0.120000          0.204911E-02
      0.125000          0.183783E-02
      0.130000          0.165024E-02
      0.135000          0.148347E-02
      0.140000          0.133504E-02
      0.145000          0.120279E-02
      0.150000          0.108487E-02
      0.155000          0.979705E-03
      0.160000          0.885950E-03
      0.165000          0.802470E-03
      0.170000          0.728313E-03
      0.175000          0.662695E-03
      0.180000          0.604972E-03
      0.185000          0.554612E-03
      0.190000          0.511167E-03
      0.195000          0.474228E-03
      0.200000          0.443392E-03
      0.205000          0.418222E-03
      0.210000          0.398217E-03
      0.215000          0.382791E-03
      0.220000          0.371266E-03
      0.225000          0.362883E-03
      0.230000          0.356821E-03
      0.235000          0.352234E-03
      0.240000          0.348298E-03
      0.245000          0.344258E-03
      0.250000          0.339472E-03
      0.255000          0.333451E-03
      0.260000          0.325886E-03
      0.265000          0.316656E-03
      0.270000          0.305824E-03
      0.275000          0.293616E-03
      0.280000          0.280386E-03
      0.285000          0.266574E-03
      0.290000          0.252655E-03
      0.295000          0.239096E-03
      0.300000          0.226310E-03
      0.305000          0.214626E-03
      0.310000          0.204267E-03
      0.315000          0.195342E-03
      0.320000          0.187847E-03
      0.325000          0.181683E-03
      0.330000          0.176675E-03
      0.335000          0.172597E-03
      0.340000          0.169204E-03
      0.345000          0.166252E-03
      0.350000          0.163525E-03
      0.355000          0.160844E-03
      0.360000          0.158081E-03
      0.365000          0.155155E-03
      0.370000          0.152033E-03
      0.375000          0.148720E-03
      0.380000          0.145249E-03
      0.385000          0.141667E-03
      0.390000          0.138028E-03
      0.395000          0.134382E-03
      0.400000          0.130768E-03
      0.405000          0.127215E-03
      0.410000          0.123736E-03
      0.415000          0.120336E-03
      0.420000          0.117012E-03
      0.425000          0.113757E-03
      0.430000          0.110568E-03
      0.435000          0.107443E-03
      0.440000          0.104392E-03
      0.445000          0.101427E-03
      0.450000          0.985716E-04
      0.455000          0.958508E-04
      0.460000          0.932926E-04
      0.465000          0.909231E-04
      0.470000          0.887635E-04
      0.475000          0.868276E-04
      0.480000          0.851197E-04
      0.485000          0.836342E-04
      0.490000          0.823561E-04
      0.495000          0.812620E-04
      0.500000          0.803230E-04
