 I_abs(s)[cm^-1]/c[mg/ml]
       0.00000          0.144317E-01
      0.500000E-02      0.143659E-01
      0.100000E-01      0.141704E-01
      0.150000E-01      0.138511E-01
      0.200000E-01      0.134175E-01
      0.250000E-01      0.128824E-01
      0.300000E-01      0.122609E-01
      0.350000E-01      0.115701E-01
      0.400000E-01      0.108279E-01
      0.450000E-01      0.100528E-01
      0.500000E-01      0.926248E-02
      0.550000E-01      0.847361E-02
      0.600000E-01      0.770106E-02
      0.650000E-01      0.695751E-02
      0.700000E-01      0.625317E-02
      0.750000E-01      0.559567E-02
      0.800000E-01      0.499005E-02
      0.850000E-01      0.443895E-02
      0.900000E-01      0.394282E-02
      0.950000E-01      0.350033E-02
      0.100000          0.310869E-02
      0.105000          0.276409E-02
      0.110000          0.246209E-02
      0.115000          0.219796E-02
      0.120000          0.196700E-02
      0.125000          0.176477E-02
      0.130000          0.158727E-02
      0.135000          0.143098E-02
      0.140000          0.129298E-02
      0.145000          0.117085E-02
      0.150000          0.106265E-02
      0.155000          0.966839E-03
      0.160000          0.882176E-03
      0.165000          0.807618E-03
      0.170000          0.742247E-03
      0.175000          0.685209E-03
      0.180000          0.635665E-03
      0.185000          0.592773E-03
      0.190000          0.555685E-03
      0.195000          0.523559E-03
      0.200000          0.495581E-03
      0.205000          0.470993E-03
      0.210000          0.449115E-03
      0.215000          0.429371E-03
      0.220000          0.411296E-03
      0.225000          0.394538E-03
      0.230000          0.378859E-03
      0.235000          0.364110E-03
      0.240000          0.350217E-03
      0.245000          0.337154E-03
      0.250000          0.324918E-03
      0.255000          0.313508E-03
      0.260000          0.302907E-03
      0.265000          0.293070E-03
      0.270000          0.283919E-03
      0.275000          0.275345E-03
      0.280000          0.267214E-03
      0.285000          0.259379E-03
      0.290000          0.251695E-03
      0.295000          0.244025E-03
      0.300000          0.236264E-03
      0.305000          0.228336E-03
      0.310000          0.220212E-03
      0.315000          0.211900E-03
      0.320000          0.203454E-03
      0.325000          0.194957E-03
      0.330000          0.186521E-03
      0.335000          0.178271E-03
      0.340000          0.170339E-03
      0.345000          0.162847E-03
      0.350000          0.155902E-03
      0.355000          0.149590E-03
      0.360000          0.143967E-03
      0.365000          0.139061E-03
      0.370000          0.134869E-03
      0.375000          0.131363E-03
      0.380000          0.128491E-03
      0.385000          0.126185E-03
      0.390000          0.124364E-03
      0.395000          0.122940E-03
      0.400000          0.121826E-03
      0.405000          0.120933E-03
      0.410000          0.120183E-03
      0.415000          0.119502E-03
      0.420000          0.118829E-03
      0.425000          0.118108E-03
      0.430000          0.117296E-03
      0.435000          0.116358E-03
      0.440000          0.115267E-03
      0.445000          0.114005E-03
      0.450000          0.112558E-03
      0.455000          0.110921E-03
      0.460000          0.109094E-03
      0.465000          0.107085E-03
      0.470000          0.104905E-03
      0.475000          0.102572E-03
      0.480000          0.100110E-03
      0.485000          0.975447E-04
      0.490000          0.949093E-04
      0.495000          0.922380E-04
      0.500000          0.895675E-04
