 I_abs(s)[cm^-1]/c[mg/ml]
       0.00000          0.139219E-01
      0.500000E-02      0.138564E-01
      0.100000E-01      0.136620E-01
      0.150000E-01      0.133447E-01
      0.200000E-01      0.129143E-01
      0.250000E-01      0.123839E-01
      0.300000E-01      0.117691E-01
      0.350000E-01      0.110874E-01
      0.400000E-01      0.103574E-01
      0.450000E-01      0.959777E-02
      0.500000E-01      0.882688E-02
      0.550000E-01      0.806167E-02
      0.600000E-01      0.731723E-02
      0.650000E-01      0.660632E-02
      0.700000E-01      0.593906E-02
      0.750000E-01      0.532276E-02
      0.800000E-01      0.476196E-02
      0.850000E-01      0.425857E-02
      0.900000E-01      0.381216E-02
      0.950000E-01      0.342032E-02
      0.100000          0.307908E-02
      0.105000          0.278340E-02
      0.110000          0.252759E-02
      0.115000          0.230572E-02
      0.120000          0.211203E-02
      0.125000          0.194116E-02
      0.130000          0.178842E-02
      0.135000          0.164987E-02
      0.140000          0.152242E-02
      0.145000          0.140378E-02
      0.150000          0.129238E-02
      0.155000          0.118730E-02
      0.160000          0.108811E-02
      0.165000          0.994737E-03
      0.170000          0.907305E-03
      0.175000          0.826044E-03
      0.180000          0.751170E-03
      0.185000          0.682823E-03
      0.190000          0.621020E-03
      0.195000          0.565634E-03
      0.200000          0.516400E-03
      0.205000          0.472939E-03
      0.210000          0.434782E-03
      0.215000          0.401408E-03
      0.220000          0.372283E-03
      0.225000          0.346884E-03
      0.230000          0.324729E-03
      0.235000          0.305388E-03
      0.240000          0.288489E-03
      0.245000          0.273719E-03
      0.250000          0.260818E-03
      0.255000          0.249564E-03
      0.260000          0.239766E-03
      0.265000          0.231248E-03
      0.270000          0.223844E-03
      0.275000          0.217390E-03
      0.280000          0.211719E-03
      0.285000          0.206670E-03
      0.290000          0.202081E-03
      0.295000          0.197804E-03
      0.300000          0.193706E-03
      0.305000          0.189676E-03
      0.310000          0.185629E-03
      0.315000          0.181512E-03
      0.320000          0.177300E-03
      0.325000          0.172994E-03
      0.330000          0.168619E-03
      0.335000          0.164220E-03
      0.340000          0.159849E-03
      0.345000          0.155565E-03
      0.350000          0.151423E-03
      0.355000          0.147472E-03
      0.360000          0.143750E-03
      0.365000          0.140281E-03
      0.370000          0.137078E-03
      0.375000          0.134138E-03
      0.380000          0.131451E-03
      0.385000          0.128996E-03
      0.390000          0.126749E-03
      0.395000          0.124684E-03
      0.400000          0.122772E-03
      0.405000          0.120989E-03
      0.410000          0.119313E-03
      0.415000          0.117724E-03
      0.420000          0.116204E-03
      0.425000          0.114740E-03
      0.430000          0.113317E-03
      0.435000          0.111923E-03
      0.440000          0.110546E-03
      0.445000          0.109173E-03
      0.450000          0.107792E-03
      0.455000          0.106391E-03
      0.460000          0.104960E-03
      0.465000          0.103494E-03
      0.470000          0.101988E-03
      0.475000          0.100443E-03
      0.480000          0.988640E-04
      0.485000          0.972616E-04
      0.490000          0.956484E-04
      0.495000          0.940403E-04
      0.500000          0.924539E-04
