 I_abs(s)[cm^-1]/c[mg/ml]
       0.00000          0.144317E-01
      0.500000E-02      0.143666E-01
      0.100000E-01      0.141732E-01
      0.150000E-01      0.138576E-01
      0.200000E-01      0.134297E-01
      0.250000E-01      0.129024E-01
      0.300000E-01      0.122913E-01
      0.350000E-01      0.116135E-01
      0.400000E-01      0.108872E-01
      0.450000E-01      0.101306E-01
      0.500000E-01      0.936118E-02
      0.550000E-01      0.859500E-02
      0.600000E-01      0.784620E-02
      0.650000E-01      0.712657E-02
      0.700000E-01      0.644533E-02
      0.750000E-01      0.580907E-02
      0.800000E-01      0.522188E-02
      0.850000E-01      0.468553E-02
      0.900000E-01      0.419981E-02
      0.950000E-01      0.376294E-02
      0.100000          0.337193E-02
      0.105000          0.302306E-02
      0.110000          0.271219E-02
      0.115000          0.243511E-02
      0.120000          0.218780E-02
      0.125000          0.196659E-02
      0.130000          0.176827E-02
      0.135000          0.159014E-02
      0.140000          0.142999E-02
      0.145000          0.128603E-02
      0.150000          0.115683E-02
      0.155000          0.104125E-02
      0.160000          0.938280E-03
      0.165000          0.847045E-03
      0.170000          0.766693E-03
      0.175000          0.696374E-03
      0.180000          0.635214E-03
      0.185000          0.582314E-03
      0.190000          0.536758E-03
      0.195000          0.497633E-03
      0.200000          0.464054E-03
      0.205000          0.435181E-03
      0.210000          0.410244E-03
      0.215000          0.388552E-03
      0.220000          0.369503E-03
      0.225000          0.352583E-03
      0.230000          0.337367E-03
      0.235000          0.323504E-03
      0.240000          0.310712E-03
      0.245000          0.298767E-03
      0.250000          0.287492E-03
      0.255000          0.276750E-03
      0.260000          0.266437E-03
      0.265000          0.256476E-03
      0.270000          0.246816E-03
      0.275000          0.237425E-03
      0.280000          0.228296E-03
      0.285000          0.219434E-03
      0.290000          0.210864E-03
      0.295000          0.202618E-03
      0.300000          0.194738E-03
      0.305000          0.187267E-03
      0.310000          0.180248E-03
      0.315000          0.173717E-03
      0.320000          0.167699E-03
      0.325000          0.162208E-03
      0.330000          0.157245E-03
      0.335000          0.152796E-03
      0.340000          0.148831E-03
      0.345000          0.145313E-03
      0.350000          0.142190E-03
      0.355000          0.139406E-03
      0.360000          0.136901E-03
      0.365000          0.134614E-03
      0.370000          0.132485E-03
      0.375000          0.130458E-03
      0.380000          0.128486E-03
      0.385000          0.126527E-03
      0.390000          0.124551E-03
      0.395000          0.122536E-03
      0.400000          0.120471E-03
      0.405000          0.118354E-03
      0.410000          0.116196E-03
      0.415000          0.114013E-03
      0.420000          0.111829E-03
      0.425000          0.109675E-03
      0.430000          0.107581E-03
      0.435000          0.105582E-03
      0.440000          0.103710E-03
      0.445000          0.101991E-03
      0.450000          0.100448E-03
      0.455000          0.990950E-04
      0.460000          0.979359E-04
      0.465000          0.969671E-04
      0.470000          0.961749E-04
      0.475000          0.955374E-04
      0.480000          0.950255E-04
      0.485000          0.946051E-04
      0.490000          0.942389E-04
      0.495000          0.938891E-04
      0.500000          0.935193E-04
