 I_abs(s)[cm^-1]/c[mg/ml]
       0.00000          0.140778E-01
      0.500000E-02      0.140154E-01
      0.100000E-01      0.138300E-01
      0.150000E-01      0.135274E-01
      0.200000E-01      0.131170E-01
      0.250000E-01      0.126112E-01
      0.300000E-01      0.120247E-01
      0.350000E-01      0.113738E-01
      0.400000E-01      0.106758E-01
      0.450000E-01      0.994815E-02
      0.500000E-01      0.920736E-02
      0.550000E-01      0.846879E-02
      0.600000E-01      0.774594E-02
      0.650000E-01      0.705008E-02
      0.700000E-01      0.639007E-02
      0.750000E-01      0.577234E-02
      0.800000E-01      0.520091E-02
      0.850000E-01      0.467767E-02
      0.900000E-01      0.420266E-02
      0.950000E-01      0.377442E-02
      0.100000          0.339038E-02
      0.105000          0.304725E-02
      0.110000          0.274132E-02
      0.115000          0.246879E-02
      0.120000          0.222597E-02
      0.125000          0.200944E-02
      0.130000          0.181614E-02
      0.135000          0.164341E-02
      0.140000          0.148897E-02
      0.145000          0.135085E-02
      0.150000          0.122740E-02
      0.155000          0.111714E-02
      0.160000          0.101876E-02
      0.165000          0.931047E-03
      0.170000          0.852871E-03
      0.175000          0.783152E-03
      0.180000          0.720877E-03
      0.185000          0.665107E-03
      0.190000          0.614991E-03
      0.195000          0.569784E-03
      0.200000          0.528861E-03
      0.205000          0.491716E-03
      0.210000          0.457962E-03
      0.215000          0.427314E-03
      0.220000          0.399566E-03
      0.225000          0.374571E-03
      0.230000          0.352206E-03
      0.235000          0.332352E-03
      0.240000          0.314872E-03
      0.245000          0.299594E-03
      0.250000          0.286311E-03
      0.255000          0.274778E-03
      0.260000          0.264725E-03
      0.265000          0.255869E-03
      0.270000          0.247932E-03
      0.275000          0.240659E-03
      0.280000          0.233831E-03
      0.285000          0.227277E-03
      0.290000          0.220879E-03
      0.295000          0.214575E-03
      0.300000          0.208348E-03
      0.305000          0.202223E-03
      0.310000          0.196249E-03
      0.315000          0.190488E-03
      0.320000          0.185001E-03
      0.325000          0.179835E-03
      0.330000          0.175018E-03
      0.335000          0.170549E-03
      0.340000          0.166404E-03
      0.345000          0.162533E-03
      0.350000          0.158869E-03
      0.355000          0.155334E-03
      0.360000          0.151852E-03
      0.365000          0.148351E-03
      0.370000          0.144773E-03
      0.375000          0.141080E-03
      0.380000          0.137257E-03
      0.385000          0.133311E-03
      0.390000          0.129269E-03
      0.395000          0.125175E-03
      0.400000          0.121085E-03
      0.405000          0.117063E-03
      0.410000          0.113173E-03
      0.415000          0.109473E-03
      0.420000          0.106017E-03
      0.425000          0.102843E-03
      0.430000          0.999806E-04
      0.435000          0.974445E-04
      0.440000          0.952373E-04
      0.445000          0.933507E-04
      0.450000          0.917672E-04
      0.455000          0.904623E-04
      0.460000          0.894065E-04
      0.465000          0.885675E-04
      0.470000          0.879108E-04
      0.475000          0.874021E-04
      0.480000          0.870072E-04
      0.485000          0.866933E-04
      0.490000          0.864293E-04
      0.495000          0.861862E-04
      0.500000          0.859375E-04
