 I_abs(s)[cm^-1]/c[mg/ml]
       0.00000          0.145189E-01
      0.500000E-02      0.144631E-01
      0.100000E-01      0.142972E-01
      0.150000E-01      0.140251E-01
      0.200000E-01      0.136534E-01
      0.250000E-01      0.131912E-01
      0.300000E-01      0.126490E-01
      0.350000E-01      0.120393E-01
      0.400000E-01      0.113754E-01
      0.450000E-01      0.106711E-01
      0.500000E-01      0.994055E-02
      0.550000E-01      0.919724E-02
      0.600000E-01      0.845403E-02
      0.650000E-01      0.772260E-02
      0.700000E-01      0.701322E-02
      0.750000E-01      0.633452E-02
      0.800000E-01      0.569342E-02
      0.850000E-01      0.509507E-02
      0.900000E-01      0.454287E-02
      0.950000E-01      0.403864E-02
      0.100000          0.358270E-02
      0.105000          0.317416E-02
      0.110000          0.281104E-02
      0.115000          0.249059E-02
      0.120000          0.220951E-02
      0.125000          0.196410E-02
      0.130000          0.175054E-02
      0.135000          0.156501E-02
      0.140000          0.140386E-02
      0.145000          0.126366E-02
      0.150000          0.114130E-02
      0.155000          0.103406E-02
      0.160000          0.939548E-03
      0.165000          0.855775E-03
      0.170000          0.781077E-03
      0.175000          0.714101E-03
      0.180000          0.653767E-03
      0.185000          0.599221E-03
      0.190000          0.549795E-03
      0.195000          0.504968E-03
      0.200000          0.464333E-03
      0.205000          0.427561E-03
      0.210000          0.394385E-03
      0.215000          0.364573E-03
      0.220000          0.337915E-03
      0.225000          0.314212E-03
      0.230000          0.293266E-03
      0.235000          0.274877E-03
      0.240000          0.258838E-03
      0.245000          0.244932E-03
      0.250000          0.232939E-03
      0.255000          0.222631E-03
      0.260000          0.213781E-03
      0.265000          0.206161E-03
      0.270000          0.199557E-03
      0.275000          0.193763E-03
      0.280000          0.188597E-03
      0.285000          0.183896E-03
      0.290000          0.179529E-03
      0.295000          0.175393E-03
      0.300000          0.171414E-03
      0.305000          0.167552E-03
      0.310000          0.163793E-03
      0.315000          0.160144E-03
      0.320000          0.156635E-03
      0.325000          0.153303E-03
      0.330000          0.150193E-03
      0.335000          0.147347E-03
      0.340000          0.144802E-03
      0.345000          0.142580E-03
      0.350000          0.140689E-03
      0.355000          0.139120E-03
      0.360000          0.137845E-03
      0.365000          0.136819E-03
      0.370000          0.135986E-03
      0.375000          0.135277E-03
      0.380000          0.134619E-03
      0.385000          0.133938E-03
      0.390000          0.133164E-03
      0.395000          0.132235E-03
      0.400000          0.131099E-03
      0.405000          0.129721E-03
      0.410000          0.128078E-03
      0.415000          0.126165E-03
      0.420000          0.123991E-03
      0.425000          0.121579E-03
      0.430000          0.118963E-03
      0.435000          0.116185E-03
      0.440000          0.113292E-03
      0.445000          0.110336E-03
      0.450000          0.107367E-03
      0.455000          0.104433E-03
      0.460000          0.101578E-03
      0.465000          0.988402E-04
      0.470000          0.962509E-04
      0.475000          0.938341E-04
      0.480000          0.916064E-04
      0.485000          0.895773E-04
      0.490000          0.877498E-04
      0.495000          0.861210E-04
      0.500000          0.846825E-04
