 I_abs(s)[cm^-1]/c[mg/ml]
       0.00000          0.145586E-01
      0.500000E-02      0.145065E-01
      0.100000E-01      0.143514E-01
      0.150000E-01      0.140963E-01
      0.200000E-01      0.137465E-01
      0.250000E-01      0.133090E-01
      0.300000E-01      0.127925E-01
      0.350000E-01      0.122071E-01
      0.400000E-01      0.115637E-01
      0.450000E-01      0.108743E-01
      0.500000E-01      0.101511E-01
      0.550000E-01      0.940635E-02
      0.600000E-01      0.865217E-02
      0.650000E-01      0.790000E-02
      0.700000E-01      0.716049E-02
      0.750000E-01      0.644322E-02
      0.800000E-01      0.575653E-02
      0.850000E-01      0.510738E-02
      0.900000E-01      0.450129E-02
      0.950000E-01      0.394229E-02
      0.100000          0.343298E-02
      0.105000          0.297457E-02
      0.110000          0.256701E-02
      0.115000          0.220909E-02
      0.120000          0.189866E-02
      0.125000          0.163277E-02
      0.130000          0.140787E-02
      0.135000          0.121997E-02
      0.140000          0.106488E-02
      0.145000          0.938293E-03
      0.150000          0.835988E-03
      0.155000          0.753931E-03
      0.160000          0.688377E-03
      0.165000          0.635943E-03
      0.170000          0.593656E-03
      0.175000          0.558982E-03
      0.180000          0.529825E-03
      0.185000          0.504515E-03
      0.190000          0.481782E-03
      0.195000          0.460709E-03
      0.200000          0.440689E-03
      0.205000          0.421370E-03
      0.210000          0.402603E-03
      0.215000          0.384389E-03
      0.220000          0.366830E-03
      0.225000          0.350088E-03
      0.230000          0.334346E-03
      0.235000          0.319783E-03
      0.240000          0.306547E-03
      0.245000          0.294744E-03
      0.250000          0.284430E-03
      0.255000          0.275603E-03
      0.260000          0.268210E-03
      0.265000          0.262151E-03
      0.270000          0.257285E-03
      0.275000          0.253442E-03
      0.280000          0.250431E-03
      0.285000          0.248051E-03
      0.290000          0.246099E-03
      0.295000          0.244381E-03
      0.300000          0.242718E-03
      0.305000          0.240947E-03
      0.310000          0.238931E-03
      0.315000          0.236559E-03
      0.320000          0.233747E-03
      0.325000          0.230435E-03
      0.330000          0.226591E-03
      0.335000          0.222207E-03
      0.340000          0.217293E-03
      0.345000          0.211882E-03
      0.350000          0.206018E-03
      0.355000          0.199762E-03
      0.360000          0.193180E-03
      0.365000          0.186347E-03
      0.370000          0.179343E-03
      0.375000          0.172247E-03
      0.380000          0.165138E-03
      0.385000          0.158093E-03
      0.390000          0.151183E-03
      0.395000          0.144475E-03
      0.400000          0.138027E-03
      0.405000          0.131891E-03
      0.410000          0.126107E-03
      0.415000          0.120709E-03
      0.420000          0.115721E-03
      0.425000          0.111156E-03
      0.430000          0.107021E-03
      0.435000          0.103311E-03
      0.440000          0.100016E-03
      0.445000          0.971170E-04
      0.450000          0.945895E-04
      0.455000          0.924035E-04
      0.460000          0.905251E-04
      0.465000          0.889174E-04
      0.470000          0.875414E-04
      0.475000          0.863576E-04
      0.480000          0.853265E-04
      0.485000          0.844104E-04
      0.490000          0.835735E-04
      0.495000          0.827833E-04
      0.500000          0.820110E-04
