 I_abs(s)[cm^-1]/c[mg/ml]
       0.00000          0.146143E-01
      0.500000E-02      0.145542E-01
      0.100000E-01      0.143753E-01
      0.150000E-01      0.140823E-01
      0.200000E-01      0.136824E-01
      0.250000E-01      0.131856E-01
      0.300000E-01      0.126039E-01
      0.350000E-01      0.119509E-01
      0.400000E-01      0.112415E-01
      0.450000E-01      0.104912E-01
      0.500000E-01      0.971527E-02
      0.550000E-01      0.892887E-02
      0.600000E-01      0.814606E-02
      0.650000E-01      0.737959E-02
      0.700000E-01      0.664060E-02
      0.750000E-01      0.593837E-02
      0.800000E-01      0.528020E-02
      0.850000E-01      0.467137E-02
      0.900000E-01      0.411523E-02
      0.950000E-01      0.361329E-02
      0.100000          0.316542E-02
      0.105000          0.277010E-02
      0.110000          0.242468E-02
      0.115000          0.212563E-02
      0.120000          0.186883E-02
      0.125000          0.164983E-02
      0.130000          0.146405E-02
      0.135000          0.130699E-02
      0.140000          0.117438E-02
      0.145000          0.106228E-02
      0.150000          0.967155E-03
      0.155000          0.885937E-03
      0.160000          0.816003E-03
      0.165000          0.755176E-03
      0.170000          0.701684E-03
      0.175000          0.654119E-03
      0.180000          0.611385E-03
      0.185000          0.572643E-03
      0.190000          0.537261E-03
      0.195000          0.504773E-03
      0.200000          0.474832E-03
      0.205000          0.447186E-03
      0.210000          0.421646E-03
      0.215000          0.398071E-03
      0.220000          0.376353E-03
      0.225000          0.356405E-03
      0.230000          0.338151E-03
      0.235000          0.321526E-03
      0.240000          0.306465E-03
      0.245000          0.292901E-03
      0.250000          0.280760E-03
      0.255000          0.269958E-03
      0.260000          0.260399E-03
      0.265000          0.251971E-03
      0.270000          0.244546E-03
      0.275000          0.237984E-03
      0.280000          0.232131E-03
      0.285000          0.226825E-03
      0.290000          0.221902E-03
      0.295000          0.217199E-03
      0.300000          0.212562E-03
      0.305000          0.207855E-03
      0.310000          0.202959E-03
      0.315000          0.197784E-03
      0.320000          0.192269E-03
      0.325000          0.186382E-03
      0.330000          0.180125E-03
      0.335000          0.173530E-03
      0.340000          0.166657E-03
      0.345000          0.159586E-03
      0.350000          0.152421E-03
      0.355000          0.145274E-03
      0.360000          0.138266E-03
      0.365000          0.131518E-03
      0.370000          0.125146E-03
      0.375000          0.119257E-03
      0.380000          0.113942E-03
      0.385000          0.109278E-03
      0.390000          0.105320E-03
      0.395000          0.102103E-03
      0.400000          0.996393E-04
      0.405000          0.979233E-04
      0.410000          0.969280E-04
      0.415000          0.966090E-04
      0.420000          0.969064E-04
      0.425000          0.977473E-04
      0.430000          0.990488E-04
      0.435000          0.100720E-03
      0.440000          0.102667E-03
      0.445000          0.104793E-03
      0.450000          0.107001E-03
      0.455000          0.109202E-03
      0.460000          0.111307E-03
      0.465000          0.113241E-03
      0.470000          0.114933E-03
      0.475000          0.116326E-03
      0.480000          0.117376E-03
      0.485000          0.118050E-03
      0.490000          0.118328E-03
      0.495000          0.118205E-03
      0.500000          0.117688E-03
