 I_abs(s)[cm^-1]/c[mg/ml]
       0.00000          0.142660E-01
      0.500000E-02      0.142170E-01
      0.100000E-01      0.140709E-01
      0.150000E-01      0.138307E-01
      0.200000E-01      0.135014E-01
      0.250000E-01      0.130897E-01
      0.300000E-01      0.126038E-01
      0.350000E-01      0.120532E-01
      0.400000E-01      0.114483E-01
      0.450000E-01      0.108004E-01
      0.500000E-01      0.101210E-01
      0.550000E-01      0.942160E-02
      0.600000E-01      0.871351E-02
      0.650000E-01      0.800741E-02
      0.700000E-01      0.731314E-02
      0.750000E-01      0.663953E-02
      0.800000E-01      0.599418E-02
      0.850000E-01      0.538337E-02
      0.900000E-01      0.481199E-02
      0.950000E-01      0.428353E-02
      0.100000          0.380012E-02
      0.105000          0.336261E-02
      0.110000          0.297067E-02
      0.115000          0.262297E-02
      0.120000          0.231729E-02
      0.125000          0.205079E-02
      0.130000          0.182009E-02
      0.135000          0.162154E-02
      0.140000          0.145133E-02
      0.145000          0.130566E-02
      0.150000          0.118090E-02
      0.155000          0.107363E-02
      0.160000          0.980813E-03
      0.165000          0.899755E-03
      0.170000          0.828195E-03
      0.175000          0.764284E-03
      0.180000          0.706574E-03
      0.185000          0.653985E-03
      0.190000          0.605757E-03
      0.195000          0.561396E-03
      0.200000          0.520618E-03
      0.205000          0.483285E-03
      0.210000          0.449355E-03
      0.215000          0.418825E-03
      0.220000          0.391695E-03
      0.225000          0.367933E-03
      0.230000          0.347449E-03
      0.235000          0.330088E-03
      0.240000          0.315621E-03
      0.245000          0.303754E-03
      0.250000          0.294134E-03
      0.255000          0.286370E-03
      0.260000          0.280047E-03
      0.265000          0.274751E-03
      0.270000          0.270082E-03
      0.275000          0.265680E-03
      0.280000          0.261233E-03
      0.285000          0.256490E-03
      0.290000          0.251267E-03
      0.295000          0.245452E-03
      0.300000          0.238998E-03
      0.305000          0.231922E-03
      0.310000          0.224292E-03
      0.315000          0.216220E-03
      0.320000          0.207848E-03
      0.325000          0.199333E-03
      0.330000          0.190837E-03
      0.335000          0.182517E-03
      0.340000          0.174512E-03
      0.345000          0.166938E-03
      0.350000          0.159882E-03
      0.355000          0.153399E-03
      0.360000          0.147512E-03
      0.365000          0.142217E-03
      0.370000          0.137481E-03
      0.375000          0.133252E-03
      0.380000          0.129462E-03
      0.385000          0.126034E-03
      0.390000          0.122889E-03
      0.395000          0.119951E-03
      0.400000          0.117153E-03
      0.405000          0.114437E-03
      0.410000          0.111764E-03
      0.415000          0.109107E-03
      0.420000          0.106456E-03
      0.425000          0.103815E-03
      0.430000          0.101203E-03
      0.435000          0.986447E-04
      0.440000          0.961750E-04
      0.445000          0.938296E-04
      0.450000          0.916444E-04
      0.455000          0.896514E-04
      0.460000          0.878764E-04
      0.465000          0.863370E-04
      0.470000          0.850411E-04
      0.475000          0.839863E-04
      0.480000          0.831608E-04
      0.485000          0.825433E-04
      0.490000          0.821053E-04
      0.495000          0.818130E-04
      0.500000          0.816290E-04
