 I_abs(s)[cm^-1]/c[mg/ml]
       0.00000          0.145745E-01
      0.500000E-02      0.145357E-01
      0.100000E-01      0.144198E-01
      0.150000E-01      0.142285E-01
      0.200000E-01      0.139647E-01
      0.250000E-01      0.136323E-01
      0.300000E-01      0.132359E-01
      0.350000E-01      0.127813E-01
      0.400000E-01      0.122749E-01
      0.450000E-01      0.117236E-01
      0.500000E-01      0.111347E-01
      0.550000E-01      0.105161E-01
      0.600000E-01      0.987535E-02
      0.650000E-01      0.922035E-02
      0.700000E-01      0.855867E-02
      0.750000E-01      0.789758E-02
      0.800000E-01      0.724396E-02
      0.850000E-01      0.660410E-02
      0.900000E-01      0.598370E-02
      0.950000E-01      0.538775E-02
      0.100000          0.482049E-02
      0.105000          0.428538E-02
      0.110000          0.378510E-02
      0.115000          0.332155E-02
      0.120000          0.289588E-02
      0.125000          0.250855E-02
      0.130000          0.215934E-02
      0.135000          0.184747E-02
      0.140000          0.157164E-02
      0.145000          0.133010E-02
      0.150000          0.112080E-02
      0.155000          0.941375E-03
      0.160000          0.789309E-03
      0.165000          0.661965E-03
      0.170000          0.556670E-03
      0.175000          0.470776E-03
      0.180000          0.401718E-03
      0.185000          0.347053E-03
      0.190000          0.304505E-03
      0.195000          0.271985E-03
      0.200000          0.247611E-03
      0.205000          0.229721E-03
      0.210000          0.216871E-03
      0.215000          0.207834E-03
      0.220000          0.201587E-03
      0.225000          0.197300E-03
      0.230000          0.194314E-03
      0.235000          0.192127E-03
      0.240000          0.190367E-03
      0.245000          0.188775E-03
      0.250000          0.187181E-03
      0.255000          0.185488E-03
      0.260000          0.183650E-03
      0.265000          0.181660E-03
      0.270000          0.179535E-03
      0.275000          0.177303E-03
      0.280000          0.174999E-03
      0.285000          0.172653E-03
      0.290000          0.170291E-03
      0.295000          0.167930E-03
      0.300000          0.165577E-03
      0.305000          0.163231E-03
      0.310000          0.160882E-03
      0.315000          0.158515E-03
      0.320000          0.156113E-03
      0.325000          0.153657E-03
      0.330000          0.151128E-03
      0.335000          0.148513E-03
      0.340000          0.145802E-03
      0.345000          0.142993E-03
      0.350000          0.140089E-03
      0.355000          0.137100E-03
      0.360000          0.134044E-03
      0.365000          0.130944E-03
      0.370000          0.127826E-03
      0.375000          0.124722E-03
      0.380000          0.121666E-03
      0.385000          0.118690E-03
      0.390000          0.115826E-03
      0.395000          0.113105E-03
      0.400000          0.110552E-03
      0.405000          0.108188E-03
      0.410000          0.106031E-03
      0.415000          0.104089E-03
      0.420000          0.102366E-03
      0.425000          0.100861E-03
      0.430000          0.995656E-04
      0.435000          0.984673E-04
      0.440000          0.975490E-04
      0.445000          0.967900E-04
      0.450000          0.961671E-04
      0.455000          0.956556E-04
      0.460000          0.952304E-04
      0.465000          0.948666E-04
      0.470000          0.945408E-04
      0.475000          0.942317E-04
      0.480000          0.939204E-04
      0.485000          0.935917E-04
      0.490000          0.932336E-04
      0.495000          0.928378E-04
      0.500000          0.923999E-04
