 I_abs(s)[cm^-1]/c[mg/ml]
       0.00000          0.137747E-01
      0.500000E-02      0.136829E-01
      0.100000E-01      0.134118E-01
      0.150000E-01      0.129736E-01
      0.200000E-01      0.123876E-01
      0.250000E-01      0.116790E-01
      0.300000E-01      0.108774E-01
      0.350000E-01      0.100144E-01
      0.400000E-01      0.912190E-02
      0.450000E-01      0.823022E-02
      0.500000E-01      0.736636E-02
      0.550000E-01      0.655272E-02
      0.600000E-01      0.580621E-02
      0.650000E-01      0.513783E-02
      0.700000E-01      0.455277E-02
      0.750000E-01      0.405085E-02
      0.800000E-01      0.362739E-02
      0.850000E-01      0.327428E-02
      0.900000E-01      0.298116E-02
      0.950000E-01      0.273662E-02
      0.100000          0.252933E-02
      0.105000          0.234895E-02
      0.110000          0.218683E-02
      0.115000          0.203637E-02
      0.120000          0.189320E-02
      0.125000          0.175506E-02
      0.130000          0.162147E-02
      0.135000          0.149330E-02
      0.140000          0.137228E-02
      0.145000          0.126042E-02
      0.150000          0.115961E-02
      0.155000          0.107125E-02
      0.160000          0.995974E-03
      0.165000          0.933579E-03
      0.170000          0.883042E-03
      0.175000          0.842649E-03
      0.180000          0.810195E-03
      0.185000          0.783238E-03
      0.190000          0.759345E-03
      0.195000          0.736326E-03
      0.200000          0.712407E-03
      0.205000          0.686349E-03
      0.210000          0.657489E-03
      0.215000          0.625719E-03
      0.220000          0.591408E-03
      0.225000          0.555284E-03
      0.230000          0.518294E-03
      0.235000          0.481462E-03
      0.240000          0.445762E-03
      0.245000          0.412012E-03
      0.250000          0.380809E-03
      0.255000          0.352497E-03
      0.260000          0.327168E-03
      0.265000          0.304700E-03
      0.270000          0.284806E-03
      0.275000          0.267100E-03
      0.280000          0.251165E-03
      0.285000          0.236606E-03
      0.290000          0.223103E-03
      0.295000          0.210432E-03
      0.300000          0.198480E-03
      0.305000          0.187235E-03
      0.310000          0.176768E-03
      0.315000          0.167201E-03
      0.320000          0.158672E-03
      0.325000          0.151306E-03
      0.330000          0.145184E-03
      0.335000          0.140325E-03
      0.340000          0.136675E-03
      0.345000          0.134109E-03
      0.350000          0.132438E-03
      0.355000          0.131430E-03
      0.360000          0.130828E-03
      0.365000          0.130374E-03
      0.370000          0.129833E-03
      0.375000          0.129009E-03
      0.380000          0.127762E-03
      0.385000          0.126012E-03
      0.390000          0.123739E-03
      0.395000          0.120984E-03
      0.400000          0.117832E-03
      0.405000          0.114402E-03
      0.410000          0.110832E-03
      0.415000          0.107263E-03
      0.420000          0.103825E-03
      0.425000          0.100629E-03
      0.430000          0.977545E-04
      0.435000          0.952488E-04
      0.440000          0.931268E-04
      0.445000          0.913733E-04
      0.450000          0.899489E-04
      0.455000          0.887976E-04
      0.460000          0.878544E-04
      0.465000          0.870535E-04
      0.470000          0.863350E-04
      0.475000          0.856507E-04
      0.480000          0.849669E-04
      0.485000          0.842667E-04
      0.490000          0.835486E-04
      0.495000          0.828251E-04
      0.500000          0.821193E-04
