 I_abs(s)[cm^-1]/c[mg/ml]
       0.00000          0.135360E-01
      0.500000E-02      0.134531E-01
      0.100000E-01      0.132079E-01
      0.150000E-01      0.128111E-01
      0.200000E-01      0.122798E-01
      0.250000E-01      0.116359E-01
      0.300000E-01      0.109054E-01
      0.350000E-01      0.101161E-01
      0.400000E-01      0.929593E-02
      0.450000E-01      0.847183E-02
      0.500000E-01      0.766777E-02
      0.550000E-01      0.690385E-02
      0.600000E-01      0.619554E-02
      0.650000E-01      0.555331E-02
      0.700000E-01      0.498265E-02
      0.750000E-01      0.448449E-02
      0.800000E-01      0.405586E-02
      0.850000E-01      0.369074E-02
      0.900000E-01      0.338104E-02
      0.950000E-01      0.311759E-02
      0.100000          0.289099E-02
      0.105000          0.269238E-02
      0.110000          0.251402E-02
      0.115000          0.234963E-02
      0.120000          0.219453E-02
      0.125000          0.204567E-02
      0.130000          0.190141E-02
      0.135000          0.176128E-02
      0.140000          0.162565E-02
      0.145000          0.149543E-02
      0.150000          0.137172E-02
      0.155000          0.125561E-02
      0.160000          0.114795E-02
      0.165000          0.104929E-02
      0.170000          0.959796E-03
      0.175000          0.879282E-03
      0.180000          0.807272E-03
      0.185000          0.743070E-03
      0.190000          0.685851E-03
      0.195000          0.634751E-03
      0.200000          0.588932E-03
      0.205000          0.547639E-03
      0.210000          0.510229E-03
      0.215000          0.476185E-03
      0.220000          0.445113E-03
      0.225000          0.416721E-03
      0.230000          0.390803E-03
      0.235000          0.367207E-03
      0.240000          0.345815E-03
      0.245000          0.326519E-03
      0.250000          0.309205E-03
      0.255000          0.293739E-03
      0.260000          0.279966E-03
      0.265000          0.267704E-03
      0.270000          0.256750E-03
      0.275000          0.246886E-03
      0.280000          0.237887E-03
      0.285000          0.229536E-03
      0.290000          0.221633E-03
      0.295000          0.214006E-03
      0.300000          0.206522E-03
      0.305000          0.199093E-03
      0.310000          0.191681E-03
      0.315000          0.184296E-03
      0.320000          0.176988E-03
      0.325000          0.169844E-03
      0.330000          0.162968E-03
      0.335000          0.156472E-03
      0.340000          0.150460E-03
      0.345000          0.145012E-03
      0.350000          0.140180E-03
      0.355000          0.135973E-03
      0.360000          0.132363E-03
      0.365000          0.129285E-03
      0.370000          0.126645E-03
      0.375000          0.124332E-03
      0.380000          0.122230E-03
      0.385000          0.120230E-03
      0.390000          0.118242E-03
      0.395000          0.116203E-03
      0.400000          0.114082E-03
      0.405000          0.111880E-03
      0.410000          0.109626E-03
      0.415000          0.107367E-03
      0.420000          0.105167E-03
      0.425000          0.103088E-03
      0.430000          0.101184E-03
      0.435000          0.994971E-04
      0.440000          0.980459E-04
      0.445000          0.968279E-04
      0.450000          0.958188E-04
      0.455000          0.949765E-04
      0.460000          0.942469E-04
      0.465000          0.935702E-04
      0.470000          0.928884E-04
      0.475000          0.921511E-04
      0.480000          0.913203E-04
      0.485000          0.903732E-04
      0.490000          0.893034E-04
      0.495000          0.881199E-04
      0.500000          0.868444E-04
