 I_abs(s)[cm^-1]/c[mg/ml]
       0.00000          0.143606E-01
      0.500000E-02      0.142932E-01
      0.100000E-01      0.140931E-01
      0.150000E-01      0.137667E-01
      0.200000E-01      0.133240E-01
      0.250000E-01      0.127785E-01
      0.300000E-01      0.121461E-01
      0.350000E-01      0.114449E-01
      0.400000E-01      0.106937E-01
      0.450000E-01      0.991152E-02
      0.500000E-01      0.911689E-02
      0.550000E-01      0.832680E-02
      0.600000E-01      0.755631E-02
      0.650000E-01      0.681811E-02
      0.700000E-01      0.612220E-02
      0.750000E-01      0.547583E-02
      0.800000E-01      0.488354E-02
      0.850000E-01      0.434736E-02
      0.900000E-01      0.386713E-02
      0.950000E-01      0.344085E-02
      0.100000          0.306513E-02
      0.105000          0.273563E-02
      0.110000          0.244744E-02
      0.115000          0.219547E-02
      0.120000          0.197474E-02
      0.125000          0.178064E-02
      0.130000          0.160902E-02
      0.135000          0.145637E-02
      0.140000          0.131976E-02
      0.145000          0.119686E-02
      0.150000          0.108589E-02
      0.155000          0.985467E-03
      0.160000          0.894603E-03
      0.165000          0.812542E-03
      0.170000          0.738709E-03
      0.175000          0.672635E-03
      0.180000          0.613900E-03
      0.185000          0.562104E-03
      0.190000          0.516839E-03
      0.195000          0.477679E-03
      0.200000          0.444183E-03
      0.205000          0.415888E-03
      0.210000          0.392320E-03
      0.215000          0.372995E-03
      0.220000          0.357421E-03
      0.225000          0.345104E-03
      0.230000          0.335544E-03
      0.235000          0.328244E-03
      0.240000          0.322710E-03
      0.245000          0.318457E-03
      0.250000          0.315020E-03
      0.255000          0.311962E-03
      0.260000          0.308889E-03
      0.265000          0.305460E-03
      0.270000          0.301399E-03
      0.275000          0.296507E-03
      0.280000          0.290666E-03
      0.285000          0.283840E-03
      0.290000          0.276070E-03
      0.295000          0.267469E-03
      0.300000          0.258206E-03
      0.305000          0.248492E-03
      0.310000          0.238559E-03
      0.315000          0.228644E-03
      0.320000          0.218969E-03
      0.325000          0.209731E-03
      0.330000          0.201083E-03
      0.335000          0.193135E-03
      0.340000          0.185944E-03
      0.345000          0.179522E-03
      0.350000          0.173835E-03
      0.355000          0.168816E-03
      0.360000          0.164368E-03
      0.365000          0.160384E-03
      0.370000          0.156747E-03
      0.375000          0.153345E-03
      0.380000          0.150077E-03
      0.385000          0.146857E-03
      0.390000          0.143619E-03
      0.395000          0.140314E-03
      0.400000          0.136916E-03
      0.405000          0.133416E-03
      0.410000          0.129817E-03
      0.415000          0.126137E-03
      0.420000          0.122402E-03
      0.425000          0.118642E-03
      0.430000          0.114894E-03
      0.435000          0.111194E-03
      0.440000          0.107579E-03
      0.445000          0.104087E-03
      0.450000          0.100752E-03
      0.455000          0.976086E-04
      0.460000          0.946865E-04
      0.465000          0.920120E-04
      0.470000          0.896065E-04
      0.475000          0.874850E-04
      0.480000          0.856554E-04
      0.485000          0.841170E-04
      0.490000          0.828602E-04
      0.495000          0.818661E-04
      0.500000          0.811067E-04
