 I_abs(s)[cm^-1]/c[mg/ml]
       0.00000          0.141326E-01
      0.500000E-02      0.140663E-01
      0.100000E-01      0.138697E-01
      0.150000E-01      0.135491E-01
      0.200000E-01      0.131146E-01
      0.250000E-01      0.125797E-01
      0.300000E-01      0.119606E-01
      0.350000E-01      0.112752E-01
      0.400000E-01      0.105421E-01
      0.450000E-01      0.978039E-02
      0.500000E-01      0.900803E-02
      0.550000E-01      0.824169E-02
      0.600000E-01      0.749596E-02
      0.650000E-01      0.678297E-02
      0.700000E-01      0.611218E-02
      0.750000E-01      0.549029E-02
      0.800000E-01      0.492136E-02
      0.850000E-01      0.440704E-02
      0.900000E-01      0.394688E-02
      0.950000E-01      0.353871E-02
      0.100000          0.317910E-02
      0.105000          0.286374E-02
      0.110000          0.258785E-02
      0.115000          0.234651E-02
      0.120000          0.213491E-02
      0.125000          0.194860E-02
      0.130000          0.178355E-02
      0.135000          0.163629E-02
      0.140000          0.150390E-02
      0.145000          0.138398E-02
      0.150000          0.127460E-02
      0.155000          0.117424E-02
      0.160000          0.108176E-02
      0.165000          0.996250E-03
      0.170000          0.917050E-03
      0.175000          0.843657E-03
      0.180000          0.775698E-03
      0.185000          0.712893E-03
      0.190000          0.655036E-03
      0.195000          0.601969E-03
      0.200000          0.553566E-03
      0.205000          0.509715E-03
      0.210000          0.470302E-03
      0.215000          0.435199E-03
      0.220000          0.404246E-03
      0.225000          0.377244E-03
      0.230000          0.353950E-03
      0.235000          0.334073E-03
      0.240000          0.317281E-03
      0.245000          0.303205E-03
      0.250000          0.291455E-03
      0.255000          0.281636E-03
      0.260000          0.273358E-03
      0.265000          0.266259E-03
      0.270000          0.260014E-03
      0.275000          0.254346E-03
      0.280000          0.249034E-03
      0.285000          0.243909E-03
      0.290000          0.238860E-03
      0.295000          0.233819E-03
      0.300000          0.228758E-03
      0.305000          0.223677E-03
      0.310000          0.218592E-03
      0.315000          0.213526E-03
      0.320000          0.208503E-03
      0.325000          0.203536E-03
      0.330000          0.198633E-03
      0.335000          0.193786E-03
      0.340000          0.188979E-03
      0.345000          0.184190E-03
      0.350000          0.179392E-03
      0.355000          0.174561E-03
      0.360000          0.169677E-03
      0.365000          0.164730E-03
      0.370000          0.159722E-03
      0.375000          0.154664E-03
      0.380000          0.149583E-03
      0.385000          0.144512E-03
      0.390000          0.139495E-03
      0.395000          0.134579E-03
      0.400000          0.129813E-03
      0.405000          0.125241E-03
      0.410000          0.120905E-03
      0.415000          0.116838E-03
      0.420000          0.113064E-03
      0.425000          0.109597E-03
      0.430000          0.106440E-03
      0.435000          0.103589E-03
      0.440000          0.101031E-03
      0.445000          0.987472E-04
      0.450000          0.967143E-04
      0.455000          0.949077E-04
      0.460000          0.933014E-04
      0.465000          0.918707E-04
      0.470000          0.905920E-04
      0.475000          0.894442E-04
      0.480000          0.884081E-04
      0.485000          0.874666E-04
      0.490000          0.866044E-04
      0.495000          0.858070E-04
      0.500000          0.850607E-04
