 I_abs(s)[cm^-1]/c[mg/ml]
       0.00000          0.139530E-01
      0.500000E-02      0.138815E-01
      0.100000E-01      0.136692E-01
      0.150000E-01      0.133231E-01
      0.200000E-01      0.128546E-01
      0.250000E-01      0.122787E-01
      0.300000E-01      0.116131E-01
      0.350000E-01      0.108779E-01
      0.400000E-01      0.100940E-01
      0.450000E-01      0.928227E-02
      0.500000E-01      0.846298E-02
      0.550000E-01      0.765461E-02
      0.600000E-01      0.687335E-02
      0.650000E-01      0.613259E-02
      0.700000E-01      0.544264E-02
      0.750000E-01      0.481064E-02
      0.800000E-01      0.424067E-02
      0.850000E-01      0.373396E-02
      0.900000E-01      0.328932E-02
      0.950000E-01      0.290357E-02
      0.100000          0.257206E-02
      0.105000          0.228918E-02
      0.110000          0.204881E-02
      0.115000          0.184480E-02
      0.120000          0.167124E-02
      0.125000          0.152277E-02
      0.130000          0.139471E-02
      0.135000          0.128312E-02
      0.140000          0.118483E-02
      0.145000          0.109738E-02
      0.150000          0.101889E-02
      0.155000          0.947991E-03
      0.160000          0.883651E-03
      0.165000          0.825100E-03
      0.170000          0.771721E-03
      0.175000          0.722979E-03
      0.180000          0.678377E-03
      0.185000          0.637440E-03
      0.190000          0.599703E-03
      0.195000          0.564733E-03
      0.200000          0.532140E-03
      0.205000          0.501597E-03
      0.210000          0.472853E-03
      0.215000          0.445742E-03
      0.220000          0.420176E-03
      0.225000          0.396137E-03
      0.230000          0.373655E-03
      0.235000          0.352787E-03
      0.240000          0.333591E-03
      0.245000          0.316106E-03
      0.250000          0.300334E-03
      0.255000          0.286230E-03
      0.260000          0.273698E-03
      0.265000          0.262600E-03
      0.270000          0.252764E-03
      0.275000          0.243999E-03
      0.280000          0.236114E-03
      0.285000          0.228934E-03
      0.290000          0.222314E-03
      0.295000          0.216147E-03
      0.300000          0.210370E-03
      0.305000          0.204962E-03
      0.310000          0.199936E-03
      0.315000          0.195330E-03
      0.320000          0.191189E-03
      0.325000          0.187558E-03
      0.330000          0.184464E-03
      0.335000          0.181906E-03
      0.340000          0.179851E-03
      0.345000          0.178230E-03
      0.350000          0.176940E-03
      0.355000          0.175853E-03
      0.360000          0.174823E-03
      0.365000          0.173699E-03
      0.370000          0.172334E-03
      0.375000          0.170604E-03
      0.380000          0.168409E-03
      0.385000          0.165686E-03
      0.390000          0.162409E-03
      0.395000          0.158595E-03
      0.400000          0.154291E-03
      0.405000          0.149581E-03
      0.410000          0.144565E-03
      0.415000          0.139361E-03
      0.420000          0.134090E-03
      0.425000          0.128870E-03
      0.430000          0.123804E-03
      0.435000          0.118982E-03
      0.440000          0.114471E-03
      0.445000          0.110317E-03
      0.450000          0.106544E-03
      0.455000          0.103157E-03
      0.460000          0.100144E-03
      0.465000          0.974820E-04
      0.470000          0.951374E-04
      0.475000          0.930738E-04
      0.480000          0.912534E-04
      0.485000          0.896398E-04
      0.490000          0.881998E-04
      0.495000          0.869043E-04
      0.500000          0.857287E-04
