 I_abs(s)[cm^-1]/c[mg/ml]
       0.00000          0.136512E-01
      0.500000E-02      0.135730E-01
      0.100000E-01      0.133416E-01
      0.150000E-01      0.129668E-01
      0.200000E-01      0.124642E-01
      0.250000E-01      0.118539E-01
      0.300000E-01      0.111594E-01
      0.350000E-01      0.104060E-01
      0.400000E-01      0.961876E-02
      0.450000E-01      0.882183E-02
      0.500000E-01      0.803659E-02
      0.550000E-01      0.728098E-02
      0.600000E-01      0.656890E-02
      0.650000E-01      0.590996E-02
      0.700000E-01      0.530971E-02
      0.750000E-01      0.476998E-02
      0.800000E-01      0.428956E-02
      0.850000E-01      0.386496E-02
      0.900000E-01      0.349116E-02
      0.950000E-01      0.316234E-02
      0.100000          0.287252E-02
      0.105000          0.261604E-02
      0.110000          0.238781E-02
      0.115000          0.218356E-02
      0.120000          0.199978E-02
      0.125000          0.183369E-02
      0.130000          0.168314E-02
      0.135000          0.154640E-02
      0.140000          0.142208E-02
      0.145000          0.130899E-02
      0.150000          0.120606E-02
      0.155000          0.111234E-02
      0.160000          0.102696E-02
      0.165000          0.949168E-03
      0.170000          0.878316E-03
      0.175000          0.813897E-03
      0.180000          0.755524E-03
      0.185000          0.702903E-03
      0.190000          0.655799E-03
      0.195000          0.613982E-03
      0.200000          0.577184E-03
      0.205000          0.545052E-03
      0.210000          0.517132E-03
      0.215000          0.492861E-03
      0.220000          0.471589E-03
      0.225000          0.452615E-03
      0.230000          0.435238E-03
      0.235000          0.418807E-03
      0.240000          0.402776E-03
      0.245000          0.386736E-03
      0.250000          0.370441E-03
      0.255000          0.353810E-03
      0.260000          0.336907E-03
      0.265000          0.319913E-03
      0.270000          0.303083E-03
      0.275000          0.286703E-03
      0.280000          0.271046E-03
      0.285000          0.256336E-03
      0.290000          0.242728E-03
      0.295000          0.230298E-03
      0.300000          0.219041E-03
      0.305000          0.208886E-03
      0.310000          0.199713E-03
      0.315000          0.191379E-03
      0.320000          0.183730E-03
      0.325000          0.176629E-03
      0.330000          0.169959E-03
      0.335000          0.163633E-03
      0.340000          0.157594E-03
      0.345000          0.151810E-03
      0.350000          0.146267E-03
      0.355000          0.140963E-03
      0.360000          0.135897E-03
      0.365000          0.131070E-03
      0.370000          0.126480E-03
      0.375000          0.122118E-03
      0.380000          0.117975E-03
      0.385000          0.114043E-03
      0.390000          0.110314E-03
      0.395000          0.106787E-03
      0.400000          0.103466E-03
      0.405000          0.100358E-03
      0.410000          0.974762E-04
      0.415000          0.948335E-04
      0.420000          0.924416E-04
      0.425000          0.903088E-04
      0.430000          0.884380E-04
      0.435000          0.868259E-04
      0.440000          0.854630E-04
      0.445000          0.843342E-04
      0.450000          0.834200E-04
      0.455000          0.826977E-04
      0.460000          0.821427E-04
      0.465000          0.817292E-04
      0.470000          0.814315E-04
      0.475000          0.812240E-04
      0.480000          0.810815E-04
      0.485000          0.809803E-04
      0.490000          0.808983E-04
      0.495000          0.808162E-04
      0.500000          0.807186E-04
