 I_abs(s)[cm^-1]/c[mg/ml]
       0.00000          0.139064E-01
      0.500000E-02      0.138421E-01
      0.100000E-01      0.136509E-01
      0.150000E-01      0.133387E-01
      0.200000E-01      0.129143E-01
      0.250000E-01      0.123899E-01
      0.300000E-01      0.117802E-01
      0.350000E-01      0.111015E-01
      0.400000E-01      0.103714E-01
      0.450000E-01      0.960808E-02
      0.500000E-01      0.882906E-02
      0.550000E-01      0.805114E-02
      0.600000E-01      0.728952E-02
      0.650000E-01      0.655741E-02
      0.700000E-01      0.586569E-02
      0.750000E-01      0.522272E-02
      0.800000E-01      0.463427E-02
      0.850000E-01      0.410361E-02
      0.900000E-01      0.363166E-02
      0.950000E-01      0.321730E-02
      0.100000          0.285765E-02
      0.105000          0.254853E-02
      0.110000          0.228480E-02
      0.115000          0.206074E-02
      0.120000          0.187047E-02
      0.125000          0.170818E-02
      0.130000          0.156844E-02
      0.135000          0.144640E-02
      0.140000          0.133787E-02
      0.145000          0.123942E-02
      0.150000          0.114839E-02
      0.155000          0.106283E-02
      0.160000          0.981476E-03
      0.165000          0.903599E-03
      0.170000          0.828934E-03
      0.175000          0.757552E-03
      0.180000          0.689750E-03
      0.185000          0.625948E-03
      0.190000          0.566608E-03
      0.195000          0.512158E-03
      0.200000          0.462943E-03
      0.205000          0.419190E-03
      0.210000          0.380989E-03
      0.215000          0.348287E-03
      0.220000          0.320892E-03
      0.225000          0.298488E-03
      0.230000          0.280656E-03
      0.235000          0.266897E-03
      0.240000          0.256655E-03
      0.245000          0.249344E-03
      0.250000          0.244372E-03
      0.255000          0.241166E-03
      0.260000          0.239185E-03
      0.265000          0.237942E-03
      0.270000          0.237014E-03
      0.275000          0.236050E-03
      0.280000          0.234779E-03
      0.285000          0.233006E-03
      0.290000          0.230613E-03
      0.295000          0.227549E-03
      0.300000          0.223828E-03
      0.305000          0.219510E-03
      0.310000          0.214695E-03
      0.315000          0.209508E-03
      0.320000          0.204085E-03
      0.325000          0.198563E-03
      0.330000          0.193070E-03
      0.335000          0.187716E-03
      0.340000          0.182588E-03
      0.345000          0.177747E-03
      0.350000          0.173227E-03
      0.355000          0.169036E-03
      0.360000          0.165160E-03
      0.365000          0.161568E-03
      0.370000          0.158216E-03
      0.375000          0.155053E-03
      0.380000          0.152028E-03
      0.385000          0.149093E-03
      0.390000          0.146206E-03
      0.395000          0.143336E-03
      0.400000          0.140462E-03
      0.405000          0.137574E-03
      0.410000          0.134674E-03
      0.415000          0.131769E-03
      0.420000          0.128876E-03
      0.425000          0.126014E-03
      0.430000          0.123204E-03
      0.435000          0.120466E-03
      0.440000          0.117817E-03
      0.445000          0.115272E-03
      0.450000          0.112839E-03
      0.455000          0.110522E-03
      0.460000          0.108319E-03
      0.465000          0.106227E-03
      0.470000          0.104235E-03
      0.475000          0.102333E-03
      0.480000          0.100508E-03
      0.485000          0.987480E-04
      0.490000          0.970418E-04
      0.495000          0.953794E-04
      0.500000          0.937535E-04
