 I_abs(s)[cm^-1]/c[mg/ml]
       0.00000          0.141953E-01
      0.500000E-02      0.141370E-01
      0.100000E-01      0.139637E-01
      0.150000E-01      0.136797E-01
      0.200000E-01      0.132922E-01
      0.250000E-01      0.128106E-01
      0.300000E-01      0.122468E-01
      0.350000E-01      0.116139E-01
      0.400000E-01      0.109262E-01
      0.450000E-01      0.101988E-01
      0.500000E-01      0.944657E-02
      0.550000E-01      0.868416E-02
      0.600000E-01      0.792523E-02
      0.650000E-01      0.718219E-02
      0.700000E-01      0.646588E-02
      0.750000E-01      0.578535E-02
      0.800000E-01      0.514773E-02
      0.850000E-01      0.455822E-02
      0.900000E-01      0.402010E-02
      0.950000E-01      0.353487E-02
      0.100000          0.310243E-02
      0.105000          0.272132E-02
      0.110000          0.238893E-02
      0.115000          0.210179E-02
      0.120000          0.185582E-02
      0.125000          0.164660E-02
      0.130000          0.146954E-02
      0.135000          0.132014E-02
      0.140000          0.119407E-02
      0.145000          0.108738E-02
      0.150000          0.996475E-03
      0.155000          0.918258E-03
      0.160000          0.850091E-03
      0.165000          0.789813E-03
      0.170000          0.735704E-03
      0.175000          0.686451E-03
      0.180000          0.641093E-03
      0.185000          0.598969E-03
      0.190000          0.559664E-03
      0.195000          0.522950E-03
      0.200000          0.488739E-03
      0.205000          0.457034E-03
      0.210000          0.427893E-03
      0.215000          0.401392E-03
      0.220000          0.377597E-03
      0.225000          0.356545E-03
      0.230000          0.338230E-03
      0.235000          0.322587E-03
      0.240000          0.309494E-03
      0.245000          0.298766E-03
      0.250000          0.290165E-03
      0.255000          0.283405E-03
      0.260000          0.278163E-03
      0.265000          0.274093E-03
      0.270000          0.270842E-03
      0.275000          0.268063E-03
      0.280000          0.265432E-03
      0.285000          0.262659E-03
      0.290000          0.259505E-03
      0.295000          0.255782E-03
      0.300000          0.251365E-03
      0.305000          0.246192E-03
      0.310000          0.240259E-03
      0.315000          0.233618E-03
      0.320000          0.226368E-03
      0.325000          0.218644E-03
      0.330000          0.210606E-03
      0.335000          0.202425E-03
      0.340000          0.194274E-03
      0.345000          0.186314E-03
      0.350000          0.178685E-03
      0.355000          0.171504E-03
      0.360000          0.164852E-03
      0.365000          0.158780E-03
      0.370000          0.153304E-03
      0.375000          0.148410E-03
      0.380000          0.144060E-03
      0.385000          0.140193E-03
      0.390000          0.136736E-03
      0.395000          0.133608E-03
      0.400000          0.130726E-03
      0.405000          0.128012E-03
      0.410000          0.125399E-03
      0.415000          0.122829E-03
      0.420000          0.120259E-03
      0.425000          0.117663E-03
      0.430000          0.115027E-03
      0.435000          0.112353E-03
      0.440000          0.109652E-03
      0.445000          0.106945E-03
      0.450000          0.104258E-03
      0.455000          0.101619E-03
      0.460000          0.990585E-04
      0.465000          0.966034E-04
      0.470000          0.942770E-04
      0.475000          0.920974E-04
      0.480000          0.900767E-04
      0.485000          0.882201E-04
      0.490000          0.865271E-04
      0.495000          0.849910E-04
      0.500000          0.836003E-04
