 I_abs(s)[cm^-1]/c[mg/ml]
       0.00000          0.142503E-01
      0.500000E-02      0.141807E-01
      0.100000E-01      0.139740E-01
      0.150000E-01      0.136371E-01
      0.200000E-01      0.131806E-01
      0.250000E-01      0.126188E-01
      0.300000E-01      0.119687E-01
      0.350000E-01      0.112495E-01
      0.400000E-01      0.104812E-01
      0.450000E-01      0.968409E-02
      0.500000E-01      0.887763E-02
      0.550000E-01      0.807981E-02
      0.600000E-01      0.730643E-02
      0.650000E-01      0.657058E-02
      0.700000E-01      0.588239E-02
      0.750000E-01      0.524887E-02
      0.800000E-01      0.467397E-02
      0.850000E-01      0.415885E-02
      0.900000E-01      0.370221E-02
      0.950000E-01      0.330072E-02
      0.100000          0.294960E-02
      0.105000          0.264310E-02
      0.110000          0.237505E-02
      0.115000          0.213932E-02
      0.120000          0.193016E-02
      0.125000          0.174258E-02
      0.130000          0.157245E-02
      0.135000          0.141664E-02
      0.140000          0.127296E-02
      0.145000          0.114012E-02
      0.150000          0.101756E-02
      0.155000          0.905235E-03
      0.160000          0.803447E-03
      0.165000          0.712617E-03
      0.170000          0.633117E-03
      0.175000          0.565126E-03
      0.180000          0.508529E-03
      0.185000          0.462866E-03
      0.190000          0.427333E-03
      0.195000          0.400809E-03
      0.200000          0.381934E-03
      0.205000          0.369195E-03
      0.210000          0.361025E-03
      0.215000          0.355904E-03
      0.220000          0.352448E-03
      0.225000          0.349478E-03
      0.230000          0.346070E-03
      0.235000          0.341575E-03
      0.240000          0.335617E-03
      0.245000          0.328076E-03
      0.250000          0.319039E-03
      0.255000          0.308754E-03
      0.260000          0.297574E-03
      0.265000          0.285898E-03
      0.270000          0.274122E-03
      0.275000          0.262599E-03
      0.280000          0.251610E-03
      0.285000          0.241346E-03
      0.290000          0.231907E-03
      0.295000          0.223309E-03
      0.300000          0.215497E-03
      0.305000          0.208367E-03
      0.310000          0.201789E-03
      0.315000          0.195627E-03
      0.320000          0.189761E-03
      0.325000          0.184096E-03
      0.330000          0.178574E-03
      0.335000          0.173173E-03
      0.340000          0.167906E-03
      0.345000          0.162810E-03
      0.350000          0.157942E-03
      0.355000          0.153360E-03
      0.360000          0.149117E-03
      0.365000          0.145252E-03
      0.370000          0.141782E-03
      0.375000          0.138697E-03
      0.380000          0.135968E-03
      0.385000          0.133542E-03
      0.390000          0.131353E-03
      0.395000          0.129327E-03
      0.400000          0.127393E-03
      0.405000          0.125487E-03
      0.410000          0.123559E-03
      0.415000          0.121579E-03
      0.420000          0.119536E-03
      0.425000          0.117438E-03
      0.430000          0.115313E-03
      0.435000          0.113196E-03
      0.440000          0.111132E-03
      0.445000          0.109164E-03
      0.450000          0.107330E-03
      0.455000          0.105658E-03
      0.460000          0.104162E-03
      0.465000          0.102840E-03
      0.470000          0.101674E-03
      0.475000          0.100634E-03
      0.480000          0.996793E-04
      0.485000          0.987647E-04
      0.490000          0.978443E-04
      0.495000          0.968766E-04
      0.500000          0.958294E-04
