 I_abs(s)[cm^-1]/c[mg/ml]
       0.00000          0.145586E-01
      0.500000E-02      0.145004E-01
      0.100000E-01      0.143273E-01
      0.150000E-01      0.140434E-01
      0.200000E-01      0.136556E-01
      0.250000E-01      0.131733E-01
      0.300000E-01      0.126077E-01
      0.350000E-01      0.119716E-01
      0.400000E-01      0.112791E-01
      0.450000E-01      0.105448E-01
      0.500000E-01      0.978343E-02
      0.550000E-01      0.900946E-02
      0.600000E-01      0.823649E-02
      0.650000E-01      0.747696E-02
      0.700000E-01      0.674188E-02
      0.750000E-01      0.604053E-02
      0.800000E-01      0.538037E-02
      0.850000E-01      0.476697E-02
      0.900000E-01      0.420404E-02
      0.950000E-01      0.369353E-02
      0.100000          0.323579E-02
      0.105000          0.282979E-02
      0.110000          0.247330E-02
      0.115000          0.216323E-02
      0.120000          0.189582E-02
      0.125000          0.166689E-02
      0.130000          0.147209E-02
      0.135000          0.130708E-02
      0.140000          0.116768E-02
      0.145000          0.104999E-02
      0.150000          0.950508E-03
      0.155000          0.866117E-03
      0.160000          0.794155E-03
      0.165000          0.732383E-03
      0.170000          0.678963E-03
      0.175000          0.632410E-03
      0.180000          0.591546E-03
      0.185000          0.555443E-03
      0.190000          0.523373E-03
      0.195000          0.494760E-03
      0.200000          0.469138E-03
      0.205000          0.446119E-03
      0.210000          0.425371E-03
      0.215000          0.406597E-03
      0.220000          0.389529E-03
      0.225000          0.373923E-03
      0.230000          0.359554E-03
      0.235000          0.346222E-03
      0.240000          0.333748E-03
      0.245000          0.321983E-03
      0.250000          0.310799E-03
      0.255000          0.300099E-03
      0.260000          0.289805E-03
      0.265000          0.279861E-03
      0.270000          0.270227E-03
      0.275000          0.260877E-03
      0.280000          0.251792E-03
      0.285000          0.242956E-03
      0.290000          0.234359E-03
      0.295000          0.225990E-03
      0.300000          0.217837E-03
      0.305000          0.209890E-03
      0.310000          0.202140E-03
      0.315000          0.194582E-03
      0.320000          0.187214E-03
      0.325000          0.180041E-03
      0.330000          0.173075E-03
      0.335000          0.166333E-03
      0.340000          0.159839E-03
      0.345000          0.153625E-03
      0.350000          0.147723E-03
      0.355000          0.142167E-03
      0.360000          0.136989E-03
      0.365000          0.132219E-03
      0.370000          0.127879E-03
      0.375000          0.123980E-03
      0.380000          0.120528E-03
      0.385000          0.117515E-03
      0.390000          0.114923E-03
      0.395000          0.112724E-03
      0.400000          0.110881E-03
      0.405000          0.109353E-03
      0.410000          0.108090E-03
      0.415000          0.107044E-03
      0.420000          0.106163E-03
      0.425000          0.105400E-03
      0.430000          0.104712E-03
      0.435000          0.104062E-03
      0.440000          0.103417E-03
      0.445000          0.102756E-03
      0.450000          0.102060E-03
      0.455000          0.101321E-03
      0.460000          0.100536E-03
      0.465000          0.997057E-04
      0.470000          0.988357E-04
      0.475000          0.979339E-04
      0.480000          0.970093E-04
      0.485000          0.960705E-04
      0.490000          0.951253E-04
      0.495000          0.941794E-04
      0.500000          0.932364E-04
