 I_abs(s)[cm^-1]/c[mg/ml]
       0.00000          0.139608E-01
      0.500000E-02      0.138892E-01
      0.100000E-01      0.136769E-01
      0.150000E-01      0.133317E-01
      0.200000E-01      0.128659E-01
      0.250000E-01      0.122957E-01
      0.300000E-01      0.116404E-01
      0.350000E-01      0.109208E-01
      0.400000E-01      0.101587E-01
      0.450000E-01      0.937545E-02
      0.500000E-01      0.859079E-02
      0.550000E-01      0.782237E-02
      0.600000E-01      0.708493E-02
      0.650000E-01      0.638994E-02
      0.700000E-01      0.574549E-02
      0.750000E-01      0.515640E-02
      0.800000E-01      0.462447E-02
      0.850000E-01      0.414897E-02
      0.900000E-01      0.372715E-02
      0.950000E-01      0.335479E-02
      0.100000          0.302683E-02
      0.105000          0.273780E-02
      0.110000          0.248232E-02
      0.115000          0.225536E-02
      0.120000          0.205249E-02
      0.125000          0.186999E-02
      0.130000          0.170485E-02
      0.135000          0.155475E-02
      0.140000          0.141792E-02
      0.145000          0.129308E-02
      0.150000          0.117927E-02
      0.155000          0.107572E-02
      0.160000          0.981839E-03
      0.165000          0.897045E-03
      0.170000          0.820791E-03
      0.175000          0.752517E-03
      0.180000          0.691650E-03
      0.185000          0.637610E-03
      0.190000          0.589816E-03
      0.195000          0.547699E-03
      0.200000          0.510709E-03
      0.205000          0.478315E-03
      0.210000          0.450005E-03
      0.215000          0.425286E-03
      0.220000          0.403680E-03
      0.225000          0.384727E-03
      0.230000          0.367987E-03
      0.235000          0.353051E-03
      0.240000          0.339545E-03
      0.245000          0.327145E-03
      0.250000          0.315588E-03
      0.255000          0.304675E-03
      0.260000          0.294274E-03
      0.265000          0.284317E-03
      0.270000          0.274785E-03
      0.275000          0.265699E-03
      0.280000          0.257099E-03
      0.285000          0.249023E-03
      0.290000          0.241492E-03
      0.295000          0.234498E-03
      0.300000          0.227996E-03
      0.305000          0.221901E-03
      0.310000          0.216100E-03
      0.315000          0.210458E-03
      0.320000          0.204838E-03
      0.325000          0.199115E-03
      0.330000          0.193196E-03
      0.335000          0.187025E-03
      0.340000          0.180600E-03
      0.345000          0.173968E-03
      0.350000          0.167220E-03
      0.355000          0.160485E-03
      0.360000          0.153910E-03
      0.365000          0.147648E-03
      0.370000          0.141837E-03
      0.375000          0.136590E-03
      0.380000          0.131977E-03
      0.385000          0.128026E-03
      0.390000          0.124717E-03
      0.395000          0.121985E-03
      0.400000          0.119734E-03
      0.405000          0.117844E-03
      0.410000          0.116183E-03
      0.415000          0.114624E-03
      0.420000          0.113054E-03
      0.425000          0.111382E-03
      0.430000          0.109549E-03
      0.435000          0.107526E-03
      0.440000          0.105313E-03
      0.445000          0.102937E-03
      0.450000          0.100447E-03
      0.455000          0.979025E-04
      0.460000          0.953684E-04
      0.465000          0.929082E-04
      0.470000          0.905776E-04
      0.475000          0.884199E-04
      0.480000          0.864640E-04
      0.485000          0.847234E-04
      0.490000          0.831968E-04
      0.495000          0.818699E-04
      0.500000          0.807185E-04
