 I_abs(s)[cm^-1]/c[mg/ml]
       0.00000          0.146223E-01
      0.500000E-02      0.145758E-01
      0.100000E-01      0.144372E-01
      0.150000E-01      0.142093E-01
      0.200000E-01      0.138966E-01
      0.250000E-01      0.135049E-01
      0.300000E-01      0.130419E-01
      0.350000E-01      0.125161E-01
      0.400000E-01      0.119370E-01
      0.450000E-01      0.113148E-01
      0.500000E-01      0.106599E-01
      0.550000E-01      0.998285E-02
      0.600000E-01      0.929399E-02
      0.650000E-01      0.860311E-02
      0.700000E-01      0.791931E-02
      0.750000E-01      0.725079E-02
      0.800000E-01      0.660471E-02
      0.850000E-01      0.598707E-02
      0.900000E-01      0.540264E-02
      0.950000E-01      0.485502E-02
      0.100000          0.434657E-02
      0.105000          0.387855E-02
      0.110000          0.345120E-02
      0.115000          0.306385E-02
      0.120000          0.271509E-02
      0.125000          0.240287E-02
      0.130000          0.212473E-02
      0.135000          0.187789E-02
      0.140000          0.165943E-02
      0.145000          0.146638E-02
      0.150000          0.129586E-02
      0.155000          0.114517E-02
      0.160000          0.101181E-02
      0.165000          0.893600E-03
      0.170000          0.788615E-03
      0.175000          0.695252E-03
      0.180000          0.612187E-03
      0.185000          0.538358E-03
      0.190000          0.472926E-03
      0.195000          0.415233E-03
      0.200000          0.364760E-03
      0.205000          0.321079E-03
      0.210000          0.283820E-03
      0.215000          0.252627E-03
      0.220000          0.227138E-03
      0.225000          0.206962E-03
      0.230000          0.191665E-03
      0.235000          0.180769E-03
      0.240000          0.173754E-03
      0.245000          0.170063E-03
      0.250000          0.169119E-03
      0.255000          0.170337E-03
      0.260000          0.173143E-03
      0.265000          0.176990E-03
      0.270000          0.181375E-03
      0.275000          0.185851E-03
      0.280000          0.190035E-03
      0.285000          0.193619E-03
      0.290000          0.196372E-03
      0.295000          0.198136E-03
      0.300000          0.198825E-03
      0.305000          0.198420E-03
      0.310000          0.196955E-03
      0.315000          0.194511E-03
      0.320000          0.191205E-03
      0.325000          0.187174E-03
      0.330000          0.182569E-03
      0.335000          0.177546E-03
      0.340000          0.172252E-03
      0.345000          0.166825E-03
      0.350000          0.161384E-03
      0.355000          0.156029E-03
      0.360000          0.150839E-03
      0.365000          0.145873E-03
      0.370000          0.141167E-03
      0.375000          0.136740E-03
      0.380000          0.132600E-03
      0.385000          0.128737E-03
      0.390000          0.125137E-03
      0.395000          0.121778E-03
      0.400000          0.118636E-03
      0.405000          0.115687E-03
      0.410000          0.112906E-03
      0.415000          0.110271E-03
      0.420000          0.107765E-03
      0.425000          0.105370E-03
      0.430000          0.103075E-03
      0.435000          0.100870E-03
      0.440000          0.987468E-04
      0.445000          0.967005E-04
      0.450000          0.947264E-04
      0.455000          0.928207E-04
      0.460000          0.909799E-04
      0.465000          0.892011E-04
      0.470000          0.874815E-04
      0.475000          0.858186E-04
      0.480000          0.842105E-04
      0.485000          0.826558E-04
      0.490000          0.811545E-04
      0.495000          0.797078E-04
      0.500000          0.783181E-04
