 I_abs(s)[cm^-1]/c[mg/ml]
       0.00000          0.138986E-01
      0.500000E-02      0.138249E-01
      0.100000E-01      0.136066E-01
      0.150000E-01      0.132520E-01
      0.200000E-01      0.127741E-01
      0.250000E-01      0.121903E-01
      0.300000E-01      0.115209E-01
      0.350000E-01      0.107882E-01
      0.400000E-01      0.100151E-01
      0.450000E-01      0.922393E-02
      0.500000E-01      0.843550E-02
      0.550000E-01      0.766791E-02
      0.600000E-01      0.693608E-02
      0.650000E-01      0.625126E-02
      0.700000E-01      0.562097E-02
      0.750000E-01      0.504907E-02
      0.800000E-01      0.453620E-02
      0.850000E-01      0.408026E-02
      0.900000E-01      0.367707E-02
      0.950000E-01      0.332111E-02
      0.100000          0.300616E-02
      0.105000          0.272593E-02
      0.110000          0.247457E-02
      0.115000          0.224702E-02
      0.120000          0.203922E-02
      0.125000          0.184821E-02
      0.130000          0.167207E-02
      0.135000          0.150971E-02
      0.140000          0.136073E-02
      0.145000          0.122513E-02
      0.150000          0.110304E-02
      0.155000          0.994537E-03
      0.160000          0.899484E-03
      0.165000          0.817394E-03
      0.170000          0.747419E-03
      0.175000          0.688363E-03
      0.180000          0.638756E-03
      0.185000          0.596959E-03
      0.190000          0.561288E-03
      0.195000          0.530129E-03
      0.200000          0.502047E-03
      0.205000          0.475863E-03
      0.210000          0.450698E-03
      0.215000          0.425985E-03
      0.220000          0.401452E-03
      0.225000          0.377075E-03
      0.230000          0.353020E-03
      0.235000          0.329569E-03
      0.240000          0.307058E-03
      0.245000          0.285819E-03
      0.250000          0.266127E-03
      0.255000          0.248182E-03
      0.260000          0.232087E-03
      0.265000          0.217857E-03
      0.270000          0.205430E-03
      0.275000          0.194688E-03
      0.280000          0.185478E-03
      0.285000          0.177640E-03
      0.290000          0.171017E-03
      0.295000          0.165470E-03
      0.300000          0.160882E-03
      0.305000          0.157155E-03
      0.310000          0.154204E-03
      0.315000          0.151951E-03
      0.320000          0.150313E-03
      0.325000          0.149197E-03
      0.330000          0.148494E-03
      0.335000          0.148085E-03
      0.340000          0.147838E-03
      0.345000          0.147621E-03
      0.350000          0.147309E-03
      0.355000          0.146792E-03
      0.360000          0.145989E-03
      0.365000          0.144846E-03
      0.370000          0.143347E-03
      0.375000          0.141506E-03
      0.380000          0.139368E-03
      0.385000          0.136996E-03
      0.390000          0.134466E-03
      0.395000          0.131855E-03
      0.400000          0.129233E-03
      0.405000          0.126653E-03
      0.410000          0.124151E-03
      0.415000          0.121742E-03
      0.420000          0.119419E-03
      0.425000          0.117164E-03
      0.430000          0.114948E-03
      0.435000          0.112740E-03
      0.440000          0.110514E-03
      0.445000          0.108255E-03
      0.450000          0.105963E-03
      0.455000          0.103651E-03
      0.460000          0.101349E-03
      0.465000          0.990978E-04
      0.470000          0.969432E-04
      0.475000          0.949325E-04
      0.480000          0.931073E-04
      0.485000          0.914983E-04
      0.490000          0.901214E-04
      0.495000          0.889758E-04
      0.500000          0.880441E-04
