 I_abs(s)[cm^-1]/c[mg/ml]
       0.00000          0.144001E-01
      0.500000E-02      0.143391E-01
      0.100000E-01      0.141579E-01
      0.150000E-01      0.138618E-01
      0.200000E-01      0.134589E-01
      0.250000E-01      0.129606E-01
      0.300000E-01      0.123801E-01
      0.350000E-01      0.117325E-01
      0.400000E-01      0.110338E-01
      0.450000E-01      0.103003E-01
      0.500000E-01      0.954788E-02
      0.550000E-01      0.879161E-02
      0.600000E-01      0.804502E-02
      0.650000E-01      0.731989E-02
      0.700000E-01      0.662592E-02
      0.750000E-01      0.597061E-02
      0.800000E-01      0.535931E-02
      0.850000E-01      0.479524E-02
      0.900000E-01      0.427978E-02
      0.950000E-01      0.381265E-02
      0.100000          0.339227E-02
      0.105000          0.301606E-02
      0.110000          0.268075E-02
      0.115000          0.238267E-02
      0.120000          0.211804E-02
      0.125000          0.188310E-02
      0.130000          0.167434E-02
      0.135000          0.148858E-02
      0.140000          0.132300E-02
      0.145000          0.117520E-02
      0.150000          0.104313E-02
      0.155000          0.925132E-03
      0.160000          0.819825E-03
      0.165000          0.726079E-03
      0.170000          0.642954E-03
      0.175000          0.569651E-03
      0.180000          0.505473E-03
      0.185000          0.449784E-03
      0.190000          0.401990E-03
      0.195000          0.361519E-03
      0.200000          0.327806E-03
      0.205000          0.300291E-03
      0.210000          0.278409E-03
      0.215000          0.261593E-03
      0.220000          0.249268E-03
      0.225000          0.240855E-03
      0.230000          0.235772E-03
      0.235000          0.233437E-03
      0.240000          0.233274E-03
      0.245000          0.234717E-03
      0.250000          0.237222E-03
      0.255000          0.240277E-03
      0.260000          0.243412E-03
      0.265000          0.246206E-03
      0.270000          0.248307E-03
      0.275000          0.249429E-03
      0.280000          0.249366E-03
      0.285000          0.247992E-03
      0.290000          0.245258E-03
      0.295000          0.241190E-03
      0.300000          0.235882E-03
      0.305000          0.229481E-03
      0.310000          0.222180E-03
      0.315000          0.214200E-03
      0.320000          0.205777E-03
      0.325000          0.197149E-03
      0.330000          0.188544E-03
      0.335000          0.180168E-03
      0.340000          0.172198E-03
      0.345000          0.164776E-03
      0.350000          0.158008E-03
      0.355000          0.151961E-03
      0.360000          0.146667E-03
      0.365000          0.142123E-03
      0.370000          0.138299E-03
      0.375000          0.135140E-03
      0.380000          0.132574E-03
      0.385000          0.130518E-03
      0.390000          0.128881E-03
      0.395000          0.127571E-03
      0.400000          0.126496E-03
      0.405000          0.125573E-03
      0.410000          0.124726E-03
      0.415000          0.123887E-03
      0.420000          0.123003E-03
      0.425000          0.122029E-03
      0.430000          0.120934E-03
      0.435000          0.119697E-03
      0.440000          0.118307E-03
      0.445000          0.116763E-03
      0.450000          0.115070E-03
      0.455000          0.113241E-03
      0.460000          0.111292E-03
      0.465000          0.109245E-03
      0.470000          0.107121E-03
      0.475000          0.104945E-03
      0.480000          0.102741E-03
      0.485000          0.100529E-03
      0.490000          0.983329E-04
      0.495000          0.961699E-04
      0.500000          0.940569E-04
