 I_abs(s)[cm^-1]/c[mg/ml]
       0.00000          0.149426E-01
      0.500000E-02      0.148951E-01
      0.100000E-01      0.147535E-01
      0.150000E-01      0.145202E-01
      0.200000E-01      0.141992E-01
      0.250000E-01      0.137961E-01
      0.300000E-01      0.133177E-01
      0.350000E-01      0.127720E-01
      0.400000E-01      0.121680E-01
      0.450000E-01      0.115153E-01
      0.500000E-01      0.108240E-01
      0.550000E-01      0.101045E-01
      0.600000E-01      0.936731E-02
      0.650000E-01      0.862248E-02
      0.700000E-01      0.787978E-02
      0.750000E-01      0.714830E-02
      0.800000E-01      0.643635E-02
      0.850000E-01      0.575129E-02
      0.900000E-01      0.509947E-02
      0.950000E-01      0.448611E-02
      0.100000          0.391529E-02
      0.105000          0.338997E-02
      0.110000          0.291197E-02
      0.115000          0.248207E-02
      0.120000          0.210007E-02
      0.125000          0.176489E-02
      0.130000          0.147468E-02
      0.135000          0.122698E-02
      0.140000          0.101880E-02
      0.145000          0.846759E-03
      0.150000          0.707260E-03
      0.155000          0.596554E-03
      0.160000          0.510875E-03
      0.165000          0.446534E-03
      0.170000          0.399999E-03
      0.175000          0.367963E-03
      0.180000          0.347397E-03
      0.185000          0.335586E-03
      0.190000          0.330148E-03
      0.195000          0.329046E-03
      0.200000          0.330581E-03
      0.205000          0.333383E-03
      0.210000          0.336383E-03
      0.215000          0.338793E-03
      0.220000          0.340065E-03
      0.225000          0.339867E-03
      0.230000          0.338038E-03
      0.235000          0.334562E-03
      0.240000          0.329526E-03
      0.245000          0.323100E-03
      0.250000          0.315502E-03
      0.255000          0.306978E-03
      0.260000          0.297784E-03
      0.265000          0.288169E-03
      0.270000          0.278361E-03
      0.275000          0.268566E-03
      0.280000          0.258955E-03
      0.285000          0.249666E-03
      0.290000          0.240803E-03
      0.295000          0.232438E-03
      0.300000          0.224611E-03
      0.305000          0.217339E-03
      0.310000          0.210612E-03
      0.315000          0.204408E-03
      0.320000          0.198689E-03
      0.325000          0.193407E-03
      0.330000          0.188510E-03
      0.335000          0.183944E-03
      0.340000          0.179656E-03
      0.345000          0.175595E-03
      0.350000          0.171716E-03
      0.355000          0.167979E-03
      0.360000          0.164351E-03
      0.365000          0.160806E-03
      0.370000          0.157324E-03
      0.375000          0.153892E-03
      0.380000          0.150504E-03
      0.385000          0.147157E-03
      0.390000          0.143855E-03
      0.395000          0.140603E-03
      0.400000          0.137409E-03
      0.405000          0.134283E-03
      0.410000          0.131235E-03
      0.415000          0.128277E-03
      0.420000          0.125415E-03
      0.425000          0.122660E-03
      0.430000          0.120015E-03
      0.435000          0.117485E-03
      0.440000          0.115070E-03
      0.445000          0.112770E-03
      0.450000          0.110580E-03
      0.455000          0.108494E-03
      0.460000          0.106505E-03
      0.465000          0.104603E-03
      0.470000          0.102779E-03
      0.475000          0.101020E-03
      0.480000          0.993160E-04
      0.485000          0.976558E-04
      0.490000          0.960290E-04
      0.495000          0.944266E-04
      0.500000          0.928406E-04
