 I_abs(s)[cm^-1]/c[mg/ml]
       0.00000          0.139142E-01
      0.500000E-02      0.138422E-01
      0.100000E-01      0.136288E-01
      0.150000E-01      0.132820E-01
      0.200000E-01      0.128142E-01
      0.250000E-01      0.122420E-01
      0.300000E-01      0.115849E-01
      0.350000E-01      0.108642E-01
      0.400000E-01      0.101022E-01
      0.450000E-01      0.932049E-02
      0.500000E-01      0.853934E-02
      0.550000E-01      0.777668E-02
      0.600000E-01      0.704747E-02
      0.650000E-01      0.636329E-02
      0.700000E-01      0.573217E-02
      0.750000E-01      0.515871E-02
      0.800000E-01      0.464436E-02
      0.850000E-01      0.418784E-02
      0.900000E-01      0.378576E-02
      0.950000E-01      0.343319E-02
      0.100000          0.312427E-02
      0.105000          0.285282E-02
      0.110000          0.261273E-02
      0.115000          0.239844E-02
      0.120000          0.220509E-02
      0.125000          0.202874E-02
      0.130000          0.186634E-02
      0.135000          0.171570E-02
      0.140000          0.157538E-02
      0.145000          0.144452E-02
      0.150000          0.132269E-02
      0.155000          0.120972E-02
      0.160000          0.110556E-02
      0.165000          0.101016E-02
      0.170000          0.923427E-03
      0.175000          0.845147E-03
      0.180000          0.774985E-03
      0.185000          0.712492E-03
      0.190000          0.657121E-03
      0.195000          0.608263E-03
      0.200000          0.565270E-03
      0.205000          0.527485E-03
      0.210000          0.494261E-03
      0.215000          0.464981E-03
      0.220000          0.439063E-03
      0.225000          0.415967E-03
      0.230000          0.395203E-03
      0.235000          0.376328E-03
      0.240000          0.358951E-03
      0.245000          0.342737E-03
      0.250000          0.327405E-03
      0.255000          0.312738E-03
      0.260000          0.298575E-03
      0.265000          0.284817E-03
      0.270000          0.271417E-03
      0.275000          0.258375E-03
      0.280000          0.245726E-03
      0.285000          0.233529E-03
      0.290000          0.221853E-03
      0.295000          0.210767E-03
      0.300000          0.200325E-03
      0.305000          0.190563E-03
      0.310000          0.181493E-03
      0.315000          0.173102E-03
      0.320000          0.165355E-03
      0.325000          0.158203E-03
      0.330000          0.151585E-03
      0.335000          0.145438E-03
      0.340000          0.139706E-03
      0.345000          0.134339E-03
      0.350000          0.129303E-03
      0.355000          0.124576E-03
      0.360000          0.120147E-03
      0.365000          0.116017E-03
      0.370000          0.112189E-03
      0.375000          0.108671E-03
      0.380000          0.105463E-03
      0.385000          0.102565E-03
      0.390000          0.999654E-04
      0.395000          0.976471E-04
      0.400000          0.955861E-04
      0.405000          0.937542E-04
      0.410000          0.921212E-04
      0.415000          0.906574E-04
      0.420000          0.893361E-04
      0.425000          0.881350E-04
      0.430000          0.870368E-04
      0.435000          0.860291E-04
      0.440000          0.851036E-04
      0.445000          0.842546E-04
      0.450000          0.834774E-04
      0.455000          0.827667E-04
      0.460000          0.821157E-04
      0.465000          0.815155E-04
      0.470000          0.809549E-04
      0.475000          0.804210E-04
      0.480000          0.799004E-04
      0.485000          0.793803E-04
      0.490000          0.788501E-04
      0.495000          0.783020E-04
      0.500000          0.777325E-04
