 I_abs(s)[cm^-1]/c[mg/ml]
       0.00000          0.147835E-01
      0.500000E-02      0.147356E-01
      0.100000E-01      0.145929E-01
      0.150000E-01      0.143582E-01
      0.200000E-01      0.140359E-01
      0.250000E-01      0.136321E-01
      0.300000E-01      0.131543E-01
      0.350000E-01      0.126114E-01
      0.400000E-01      0.120128E-01
      0.450000E-01      0.113690E-01
      0.500000E-01      0.106906E-01
      0.550000E-01      0.998821E-02
      0.600000E-01      0.927253E-02
      0.650000E-01      0.855363E-02
      0.700000E-01      0.784093E-02
      0.750000E-01      0.714300E-02
      0.800000E-01      0.646742E-02
      0.850000E-01      0.582064E-02
      0.900000E-01      0.520792E-02
      0.950000E-01      0.463336E-02
      0.100000          0.409984E-02
      0.105000          0.360915E-02
      0.110000          0.316202E-02
      0.115000          0.275827E-02
      0.120000          0.239689E-02
      0.125000          0.207620E-02
      0.130000          0.179399E-02
      0.135000          0.154765E-02
      0.140000          0.133429E-02
      0.145000          0.115088E-02
      0.150000          0.994344E-03
      0.155000          0.861637E-03
      0.160000          0.749842E-03
      0.165000          0.656206E-03
      0.170000          0.578188E-03
      0.175000          0.513481E-03
      0.180000          0.460021E-03
      0.185000          0.415991E-03
      0.190000          0.379809E-03
      0.195000          0.350111E-03
      0.200000          0.325739E-03
      0.205000          0.305710E-03
      0.210000          0.289199E-03
      0.215000          0.275516E-03
      0.220000          0.264083E-03
      0.225000          0.254419E-03
      0.230000          0.246125E-03
      0.235000          0.238865E-03
      0.240000          0.232364E-03
      0.245000          0.226393E-03
      0.250000          0.220768E-03
      0.255000          0.215342E-03
      0.260000          0.210003E-03
      0.265000          0.204670E-03
      0.270000          0.199291E-03
      0.275000          0.193842E-03
      0.280000          0.188321E-03
      0.285000          0.182747E-03
      0.290000          0.177155E-03
      0.295000          0.171594E-03
      0.300000          0.166122E-03
      0.305000          0.160801E-03
      0.310000          0.155697E-03
      0.315000          0.150869E-03
      0.320000          0.146374E-03
      0.325000          0.142256E-03
      0.330000          0.138552E-03
      0.335000          0.135283E-03
      0.340000          0.132459E-03
      0.345000          0.130075E-03
      0.350000          0.128115E-03
      0.355000          0.126550E-03
      0.360000          0.125343E-03
      0.365000          0.124448E-03
      0.370000          0.123816E-03
      0.375000          0.123394E-03
      0.380000          0.123128E-03
      0.385000          0.122968E-03
      0.390000          0.122867E-03
      0.395000          0.122783E-03
      0.400000          0.122681E-03
      0.405000          0.122532E-03
      0.410000          0.122315E-03
      0.415000          0.122015E-03
      0.420000          0.121622E-03
      0.425000          0.121135E-03
      0.430000          0.120552E-03
      0.435000          0.119877E-03
      0.440000          0.119114E-03
      0.445000          0.118269E-03
      0.450000          0.117347E-03
      0.455000          0.116350E-03
      0.460000          0.115282E-03
      0.465000          0.114141E-03
      0.470000          0.112926E-03
      0.475000          0.111635E-03
      0.480000          0.110265E-03
      0.485000          0.108812E-03
      0.490000          0.107273E-03
      0.495000          0.105647E-03
      0.500000          0.103936E-03
