 I_abs(s)[cm^-1]/c[mg/ml]
       0.00000          0.148876E-01
      0.500000E-02      0.148382E-01
      0.100000E-01      0.146908E-01
      0.150000E-01      0.144482E-01
      0.200000E-01      0.141148E-01
      0.250000E-01      0.136967E-01
      0.300000E-01      0.132014E-01
      0.350000E-01      0.126375E-01
      0.400000E-01      0.120149E-01
      0.450000E-01      0.113439E-01
      0.500000E-01      0.106356E-01
      0.550000E-01      0.990094E-02
      0.600000E-01      0.915109E-02
      0.650000E-01      0.839674E-02
      0.700000E-01      0.764805E-02
      0.750000E-01      0.691437E-02
      0.800000E-01      0.620416E-02
      0.850000E-01      0.552473E-02
      0.900000E-01      0.488225E-02
      0.950000E-01      0.428161E-02
      0.100000          0.372647E-02
      0.105000          0.321922E-02
      0.110000          0.276107E-02
      0.115000          0.235212E-02
      0.120000          0.199147E-02
      0.125000          0.167738E-02
      0.130000          0.140733E-02
      0.135000          0.117826E-02
      0.140000          0.986677E-03
      0.145000          0.828796E-03
      0.150000          0.700697E-03
      0.155000          0.598442E-03
      0.160000          0.518189E-03
      0.165000          0.456282E-03
      0.170000          0.409332E-03
      0.175000          0.374266E-03
      0.180000          0.348369E-03
      0.185000          0.329297E-03
      0.190000          0.315088E-03
      0.195000          0.304145E-03
      0.200000          0.295216E-03
      0.205000          0.287364E-03
      0.210000          0.279926E-03
      0.215000          0.272479E-03
      0.220000          0.264789E-03
      0.225000          0.256775E-03
      0.230000          0.248469E-03
      0.235000          0.239975E-03
      0.240000          0.231445E-03
      0.245000          0.223045E-03
      0.250000          0.214940E-03
      0.255000          0.207277E-03
      0.260000          0.200170E-03
      0.265000          0.193703E-03
      0.270000          0.187919E-03
      0.275000          0.182828E-03
      0.280000          0.178406E-03
      0.285000          0.174603E-03
      0.290000          0.171350E-03
      0.295000          0.168563E-03
      0.300000          0.166152E-03
      0.305000          0.164027E-03
      0.310000          0.162099E-03
      0.315000          0.160293E-03
      0.320000          0.158541E-03
      0.325000          0.156791E-03
      0.330000          0.155005E-03
      0.335000          0.153157E-03
      0.340000          0.151237E-03
      0.345000          0.149244E-03
      0.350000          0.147188E-03
      0.355000          0.145085E-03
      0.360000          0.142958E-03
      0.365000          0.140831E-03
      0.370000          0.138730E-03
      0.375000          0.136677E-03
      0.380000          0.134697E-03
      0.385000          0.132807E-03
      0.390000          0.131021E-03
      0.395000          0.129351E-03
      0.400000          0.127800E-03
      0.405000          0.126371E-03
      0.410000          0.125060E-03
      0.415000          0.123861E-03
      0.420000          0.122766E-03
      0.425000          0.121762E-03
      0.430000          0.120839E-03
      0.435000          0.119983E-03
      0.440000          0.119181E-03
      0.445000          0.118420E-03
      0.450000          0.117687E-03
      0.455000          0.116971E-03
      0.460000          0.116262E-03
      0.465000          0.115551E-03
      0.470000          0.114830E-03
      0.475000          0.114091E-03
      0.480000          0.113329E-03
      0.485000          0.112537E-03
      0.490000          0.111711E-03
      0.495000          0.110846E-03
      0.500000          0.109937E-03
