 I_abs(s)[cm^-1]/c[mg/ml]
       0.00000          0.145764E-01
      0.500000E-02      0.145191E-01
      0.100000E-01      0.143489E-01
      0.150000E-01      0.140702E-01
      0.200000E-01      0.136899E-01
      0.250000E-01      0.132178E-01
      0.300000E-01      0.126653E-01
      0.350000E-01      0.120455E-01
      0.400000E-01      0.113725E-01
      0.450000E-01      0.106610E-01
      0.500000E-01      0.992546E-02
      0.550000E-01      0.917983E-02
      0.600000E-01      0.843713E-02
      0.650000E-01      0.770896E-02
      0.700000E-01      0.700533E-02
      0.750000E-01      0.633439E-02
      0.800000E-01      0.570245E-02
      0.850000E-01      0.511391E-02
      0.900000E-01      0.457140E-02
      0.950000E-01      0.407592E-02
      0.100000          0.362709E-02
      0.105000          0.322338E-02
      0.110000          0.286237E-02
      0.115000          0.254101E-02
      0.120000          0.225591E-02
      0.125000          0.200350E-02
      0.130000          0.178027E-02
      0.135000          0.158287E-02
      0.140000          0.140825E-02
      0.145000          0.125367E-02
      0.150000          0.111678E-02
      0.155000          0.995557E-03
      0.160000          0.888316E-03
      0.165000          0.793646E-03
      0.170000          0.710354E-03
      0.175000          0.637419E-03
      0.180000          0.573931E-03
      0.185000          0.519055E-03
      0.190000          0.471994E-03
      0.195000          0.431969E-03
      0.200000          0.398208E-03
      0.205000          0.369946E-03
      0.210000          0.346430E-03
      0.215000          0.326932E-03
      0.220000          0.310762E-03
      0.225000          0.297284E-03
      0.230000          0.285924E-03
      0.235000          0.276186E-03
      0.240000          0.267652E-03
      0.245000          0.259983E-03
      0.250000          0.252915E-03
      0.255000          0.246257E-03
      0.260000          0.239875E-03
      0.265000          0.233682E-03
      0.270000          0.227630E-03
      0.275000          0.221696E-03
      0.280000          0.215874E-03
      0.285000          0.210163E-03
      0.290000          0.204567E-03
      0.295000          0.199087E-03
      0.300000          0.193722E-03
      0.305000          0.188466E-03
      0.310000          0.183311E-03
      0.315000          0.178251E-03
      0.320000          0.173277E-03
      0.325000          0.168388E-03
      0.330000          0.163585E-03
      0.335000          0.158873E-03
      0.340000          0.154267E-03
      0.345000          0.149782E-03
      0.350000          0.145439E-03
      0.355000          0.141258E-03
      0.360000          0.137262E-03
      0.365000          0.133468E-03
      0.370000          0.129893E-03
      0.375000          0.126544E-03
      0.380000          0.123427E-03
      0.385000          0.120538E-03
      0.390000          0.117869E-03
      0.395000          0.115407E-03
      0.400000          0.113135E-03
      0.405000          0.111033E-03
      0.410000          0.109081E-03
      0.415000          0.107259E-03
      0.420000          0.105549E-03
      0.425000          0.103936E-03
      0.430000          0.102406E-03
      0.435000          0.100951E-03
      0.440000          0.995646E-04
      0.445000          0.982448E-04
      0.450000          0.969902E-04
      0.455000          0.958015E-04
      0.460000          0.946792E-04
      0.465000          0.936234E-04
      0.470000          0.926330E-04
      0.475000          0.917046E-04
      0.480000          0.908326E-04
      0.485000          0.900090E-04
      0.490000          0.892231E-04
      0.495000          0.884624E-04
      0.500000          0.877130E-04
