 I_abs(s)[cm^-1]/c[mg/ml]
       0.00000          0.146638E-01
      0.500000E-02      0.146110E-01
      0.100000E-01      0.144536E-01
      0.150000E-01      0.141951E-01
      0.200000E-01      0.138409E-01
      0.250000E-01      0.133985E-01
      0.300000E-01      0.128770E-01
      0.350000E-01      0.122869E-01
      0.400000E-01      0.116398E-01
      0.450000E-01      0.109477E-01
      0.500000E-01      0.102233E-01
      0.550000E-01      0.947891E-02
      0.600000E-01      0.872653E-02
      0.650000E-01      0.797745E-02
      0.700000E-01      0.724198E-02
      0.750000E-01      0.652925E-02
      0.800000E-01      0.584705E-02
      0.850000E-01      0.520175E-02
      0.900000E-01      0.459826E-02
      0.950000E-01      0.404008E-02
      0.100000          0.352934E-02
      0.105000          0.306691E-02
      0.110000          0.265256E-02
      0.115000          0.228510E-02
      0.120000          0.196256E-02
      0.125000          0.168234E-02
      0.130000          0.144142E-02
      0.135000          0.123648E-02
      0.140000          0.106404E-02
      0.145000          0.920610E-03
      0.150000          0.802745E-03
      0.155000          0.707146E-03
      0.160000          0.630708E-03
      0.165000          0.570553E-03
      0.170000          0.524052E-03
      0.175000          0.488833E-03
      0.180000          0.462772E-03
      0.185000          0.443990E-03
      0.190000          0.430834E-03
      0.195000          0.421862E-03
      0.200000          0.415829E-03
      0.205000          0.411672E-03
      0.210000          0.408494E-03
      0.215000          0.405555E-03
      0.220000          0.402258E-03
      0.225000          0.398145E-03
      0.230000          0.392881E-03
      0.235000          0.386253E-03
      0.240000          0.378152E-03
      0.245000          0.368564E-03
      0.250000          0.357561E-03
      0.255000          0.345284E-03
      0.260000          0.331929E-03
      0.265000          0.317729E-03
      0.270000          0.302947E-03
      0.275000          0.287850E-03
      0.280000          0.272707E-03
      0.285000          0.257769E-03
      0.290000          0.243260E-03
      0.295000          0.229376E-03
      0.300000          0.216272E-03
      0.305000          0.204065E-03
      0.310000          0.192831E-03
      0.315000          0.182608E-03
      0.320000          0.173400E-03
      0.325000          0.165179E-03
      0.330000          0.157894E-03
      0.335000          0.151473E-03
      0.340000          0.145833E-03
      0.345000          0.140881E-03
      0.350000          0.136522E-03
      0.355000          0.132661E-03
      0.360000          0.129208E-03
      0.365000          0.126080E-03
      0.370000          0.123202E-03
      0.375000          0.120509E-03
      0.380000          0.117949E-03
      0.385000          0.115478E-03
      0.390000          0.113064E-03
      0.395000          0.110687E-03
      0.400000          0.108335E-03
      0.405000          0.106008E-03
      0.410000          0.103712E-03
      0.415000          0.101463E-03
      0.420000          0.992813E-04
      0.425000          0.971938E-04
      0.430000          0.952297E-04
      0.435000          0.934196E-04
      0.440000          0.917938E-04
      0.445000          0.903795E-04
      0.450000          0.891998E-04
      0.455000          0.882710E-04
      0.460000          0.876013E-04
      0.465000          0.871898E-04
      0.470000          0.870256E-04
      0.475000          0.870875E-04
      0.480000          0.873447E-04
      0.485000          0.877577E-04
      0.490000          0.882797E-04
      0.495000          0.888589E-04
      0.500000          0.894408E-04
