 I_abs(s)[cm^-1]/c[mg/ml]
       0.00000          0.141586E-01
      0.500000E-02      0.140854E-01
      0.100000E-01      0.138683E-01
      0.150000E-01      0.135139E-01
      0.200000E-01      0.130332E-01
      0.250000E-01      0.124408E-01
      0.300000E-01      0.117541E-01
      0.350000E-01      0.109930E-01
      0.400000E-01      0.101784E-01
      0.450000E-01      0.933153E-02
      0.500000E-01      0.847337E-02
      0.550000E-01      0.762345E-02
      0.600000E-01      0.679933E-02
      0.650000E-01      0.601604E-02
      0.700000E-01      0.528567E-02
      0.750000E-01      0.461718E-02
      0.800000E-01      0.401634E-02
      0.850000E-01      0.348589E-02
      0.900000E-01      0.302572E-02
      0.950000E-01      0.263333E-02
      0.100000          0.230423E-02
      0.105000          0.203240E-02
      0.110000          0.181089E-02
      0.115000          0.163219E-02
      0.120000          0.148877E-02
      0.125000          0.137339E-02
      0.130000          0.127941E-02
      0.135000          0.120101E-02
      0.140000          0.113334E-02
      0.145000          0.107250E-02
      0.150000          0.101561E-02
      0.155000          0.960645E-03
      0.160000          0.906405E-03
      0.165000          0.852314E-03
      0.170000          0.798303E-03
      0.175000          0.744653E-03
      0.180000          0.691863E-03
      0.185000          0.640538E-03
      0.190000          0.591294E-03
      0.195000          0.544690E-03
      0.200000          0.501191E-03
      0.205000          0.461139E-03
      0.210000          0.424753E-03
      0.215000          0.392130E-03
      0.220000          0.363266E-03
      0.225000          0.338071E-03
      0.230000          0.316389E-03
      0.235000          0.298016E-03
      0.240000          0.282716E-03
      0.245000          0.270228E-03
      0.250000          0.260277E-03
      0.255000          0.252577E-03
      0.260000          0.246834E-03
      0.265000          0.242750E-03
      0.270000          0.240020E-03
      0.275000          0.238342E-03
      0.280000          0.237418E-03
      0.285000          0.236957E-03
      0.290000          0.236688E-03
      0.295000          0.236363E-03
      0.300000          0.235763E-03
      0.305000          0.234708E-03
      0.310000          0.233058E-03
      0.315000          0.230716E-03
      0.320000          0.227633E-03
      0.325000          0.223798E-03
      0.330000          0.219243E-03
      0.335000          0.214031E-03
      0.340000          0.208253E-03
      0.345000          0.202017E-03
      0.350000          0.195445E-03
      0.355000          0.188659E-03
      0.360000          0.181781E-03
      0.365000          0.174923E-03
      0.370000          0.168184E-03
      0.375000          0.161648E-03
      0.380000          0.155377E-03
      0.385000          0.149420E-03
      0.390000          0.143805E-03
      0.395000          0.138545E-03
      0.400000          0.133637E-03
      0.405000          0.129069E-03
      0.410000          0.124818E-03
      0.415000          0.120858E-03
      0.420000          0.117156E-03
      0.425000          0.113683E-03
      0.430000          0.110409E-03
      0.435000          0.107309E-03
      0.440000          0.104363E-03
      0.445000          0.101558E-03
      0.450000          0.988856E-04
      0.455000          0.963471E-04
      0.460000          0.939475E-04
      0.465000          0.916974E-04
      0.470000          0.896106E-04
      0.475000          0.877026E-04
      0.480000          0.859887E-04
      0.485000          0.844820E-04
      0.490000          0.831919E-04
      0.495000          0.821227E-04
      0.500000          0.812720E-04
