 I_abs(s)[cm^-1]/c[mg/ml]
       0.00000          0.138783E-01
      0.500000E-02      0.138139E-01
      0.100000E-01      0.136225E-01
      0.150000E-01      0.133096E-01
      0.200000E-01      0.128841E-01
      0.250000E-01      0.123580E-01
      0.300000E-01      0.117456E-01
      0.350000E-01      0.110631E-01
      0.400000E-01      0.103280E-01
      0.450000E-01      0.955811E-02
      0.500000E-01      0.877119E-02
      0.550000E-01      0.798399E-02
      0.600000E-01      0.721190E-02
      0.650000E-01      0.646837E-02
      0.700000E-01      0.576464E-02
      0.750000E-01      0.510949E-02
      0.800000E-01      0.450914E-02
      0.850000E-01      0.396735E-02
      0.900000E-01      0.348553E-02
      0.950000E-01      0.306299E-02
      0.100000          0.269728E-02
      0.105000          0.238453E-02
      0.110000          0.211987E-02
      0.115000          0.189774E-02
      0.120000          0.171232E-02
      0.125000          0.155781E-02
      0.130000          0.142866E-02
      0.135000          0.131983E-02
      0.140000          0.122689E-02
      0.145000          0.114609E-02
      0.150000          0.107439E-02
      0.155000          0.100943E-02
      0.160000          0.949486E-03
      0.165000          0.893347E-03
      0.170000          0.840242E-03
      0.175000          0.789729E-03
      0.180000          0.741590E-03
      0.185000          0.695752E-03
      0.190000          0.652213E-03
      0.195000          0.610987E-03
      0.200000          0.572074E-03
      0.205000          0.535437E-03
      0.210000          0.501002E-03
      0.215000          0.468661E-03
      0.220000          0.438284E-03
      0.225000          0.409737E-03
      0.230000          0.382894E-03
      0.235000          0.357652E-03
      0.240000          0.333937E-03
      0.245000          0.311707E-03
      0.250000          0.290950E-03
      0.255000          0.271678E-03
      0.260000          0.253918E-03
      0.265000          0.237700E-03
      0.270000          0.223046E-03
      0.275000          0.209963E-03
      0.280000          0.198429E-03
      0.285000          0.188394E-03
      0.290000          0.179778E-03
      0.295000          0.172468E-03
      0.300000          0.166329E-03
      0.305000          0.161206E-03
      0.310000          0.156936E-03
      0.315000          0.153352E-03
      0.320000          0.150298E-03
      0.325000          0.147627E-03
      0.330000          0.145216E-03
      0.335000          0.142963E-03
      0.340000          0.140791E-03
      0.345000          0.138647E-03
      0.350000          0.136500E-03
      0.355000          0.134337E-03
      0.360000          0.132160E-03
      0.365000          0.129980E-03
      0.370000          0.127814E-03
      0.375000          0.125678E-03
      0.380000          0.123588E-03
      0.385000          0.121552E-03
      0.390000          0.119574E-03
      0.395000          0.117654E-03
      0.400000          0.115781E-03
      0.405000          0.113944E-03
      0.410000          0.112128E-03
      0.415000          0.110314E-03
      0.420000          0.108488E-03
      0.425000          0.106637E-03
      0.430000          0.104751E-03
      0.435000          0.102827E-03
      0.440000          0.100864E-03
      0.445000          0.988686E-04
      0.450000          0.968521E-04
      0.455000          0.948288E-04
      0.460000          0.928157E-04
      0.465000          0.908317E-04
      0.470000          0.888958E-04
      0.475000          0.870260E-04
      0.480000          0.852385E-04
      0.485000          0.835466E-04
      0.490000          0.819607E-04
      0.495000          0.804873E-04
      0.500000          0.791296E-04
