 I_abs(s)[cm^-1]/c[mg/ml]
       0.00000          0.146081E-01
      0.500000E-02      0.145566E-01
      0.100000E-01      0.144030E-01
      0.150000E-01      0.141507E-01
      0.200000E-01      0.138052E-01
      0.250000E-01      0.133737E-01
      0.300000E-01      0.128652E-01
      0.350000E-01      0.122899E-01
      0.400000E-01      0.116594E-01
      0.450000E-01      0.109854E-01
      0.500000E-01      0.102802E-01
      0.550000E-01      0.955608E-02
      0.600000E-01      0.882470E-02
      0.650000E-01      0.809709E-02
      0.700000E-01      0.738327E-02
      0.750000E-01      0.669207E-02
      0.800000E-01      0.603097E-02
      0.850000E-01      0.540601E-02
      0.900000E-01      0.482178E-02
      0.950000E-01      0.428141E-02
      0.100000          0.378667E-02
      0.105000          0.333806E-02
      0.110000          0.293501E-02
      0.115000          0.257599E-02
      0.120000          0.225872E-02
      0.125000          0.198036E-02
      0.130000          0.173770E-02
      0.135000          0.152730E-02
      0.140000          0.134566E-02
      0.145000          0.118934E-02
      0.150000          0.105507E-02
      0.155000          0.939834E-03
      0.160000          0.840885E-03
      0.165000          0.755805E-03
      0.170000          0.682500E-03
      0.175000          0.619190E-03
      0.180000          0.564384E-03
      0.185000          0.516849E-03
      0.190000          0.475572E-03
      0.195000          0.439721E-03
      0.200000          0.408604E-03
      0.205000          0.381640E-03
      0.210000          0.358324E-03
      0.215000          0.338208E-03
      0.220000          0.320882E-03
      0.225000          0.305960E-03
      0.230000          0.293081E-03
      0.235000          0.281899E-03
      0.240000          0.272094E-03
      0.245000          0.263365E-03
      0.250000          0.255444E-03
      0.255000          0.248095E-03
      0.260000          0.241117E-03
      0.265000          0.234351E-03
      0.270000          0.227675E-03
      0.275000          0.221008E-03
      0.280000          0.214300E-03
      0.285000          0.207537E-03
      0.290000          0.200727E-03
      0.295000          0.193900E-03
      0.300000          0.187099E-03
      0.305000          0.180376E-03
      0.310000          0.173787E-03
      0.315000          0.167385E-03
      0.320000          0.161219E-03
      0.325000          0.155330E-03
      0.330000          0.149753E-03
      0.335000          0.144512E-03
      0.340000          0.139622E-03
      0.345000          0.135091E-03
      0.350000          0.130919E-03
      0.355000          0.127101E-03
      0.360000          0.123629E-03
      0.365000          0.120489E-03
      0.370000          0.117668E-03
      0.375000          0.115151E-03
      0.380000          0.112920E-03
      0.385000          0.110959E-03
      0.390000          0.109250E-03
      0.395000          0.107776E-03
      0.400000          0.106517E-03
      0.405000          0.105452E-03
      0.410000          0.104562E-03
      0.415000          0.103821E-03
      0.420000          0.103208E-03
      0.425000          0.102697E-03
      0.430000          0.102262E-03
      0.435000          0.101878E-03
      0.440000          0.101520E-03
      0.445000          0.101165E-03
      0.450000          0.100791E-03
      0.455000          0.100379E-03
      0.460000          0.999116E-04
      0.465000          0.993766E-04
      0.470000          0.987641E-04
      0.475000          0.980680E-04
      0.480000          0.972853E-04
      0.485000          0.964161E-04
      0.490000          0.954630E-04
      0.495000          0.944309E-04
      0.500000          0.933261E-04
