 I_abs(s)[cm^-1]/c[mg/ml]
       0.00000          0.146798E-01
      0.500000E-02      0.146305E-01
      0.100000E-01      0.144839E-01
      0.150000E-01      0.142427E-01
      0.200000E-01      0.139117E-01
      0.250000E-01      0.134975E-01
      0.300000E-01      0.130079E-01
      0.350000E-01      0.124522E-01
      0.400000E-01      0.118404E-01
      0.450000E-01      0.111836E-01
      0.500000E-01      0.104927E-01
      0.550000E-01      0.977906E-02
      0.600000E-01      0.905365E-02
      0.650000E-01      0.832696E-02
      0.700000E-01      0.760870E-02
      0.750000E-01      0.690768E-02
      0.800000E-01      0.623162E-02
      0.850000E-01      0.558703E-02
      0.900000E-01      0.497918E-02
      0.950000E-01      0.441210E-02
      0.100000          0.388854E-02
      0.105000          0.341012E-02
      0.110000          0.297736E-02
      0.115000          0.258982E-02
      0.120000          0.224621E-02
      0.125000          0.194458E-02
      0.130000          0.168240E-02
      0.135000          0.145676E-02
      0.140000          0.126445E-02
      0.145000          0.110213E-02
      0.150000          0.966402E-03
      0.155000          0.853932E-03
      0.160000          0.761503E-03
      0.165000          0.686086E-03
      0.170000          0.624883E-03
      0.175000          0.575357E-03
      0.180000          0.535247E-03
      0.185000          0.502575E-03
      0.190000          0.475639E-03
      0.195000          0.453006E-03
      0.200000          0.433493E-03
      0.205000          0.416146E-03
      0.210000          0.400218E-03
      0.215000          0.385144E-03
      0.220000          0.370514E-03
      0.225000          0.356055E-03
      0.230000          0.341598E-03
      0.235000          0.327065E-03
      0.240000          0.312447E-03
      0.245000          0.297782E-03
      0.250000          0.283146E-03
      0.255000          0.268634E-03
      0.260000          0.254354E-03
      0.265000          0.240415E-03
      0.270000          0.226919E-03
      0.275000          0.213961E-03
      0.280000          0.201622E-03
      0.285000          0.189967E-03
      0.290000          0.179045E-03
      0.295000          0.168891E-03
      0.300000          0.159525E-03
      0.305000          0.150954E-03
      0.310000          0.143173E-03
      0.315000          0.136169E-03
      0.320000          0.129920E-03
      0.325000          0.124400E-03
      0.330000          0.119577E-03
      0.335000          0.115416E-03
      0.340000          0.111879E-03
      0.345000          0.108925E-03
      0.350000          0.106513E-03
      0.355000          0.104599E-03
      0.360000          0.103135E-03
      0.365000          0.102076E-03
      0.370000          0.101370E-03
      0.375000          0.100968E-03
      0.380000          0.100817E-03
      0.385000          0.100865E-03
      0.390000          0.101060E-03
      0.395000          0.101350E-03
      0.400000          0.101686E-03
      0.405000          0.102024E-03
      0.410000          0.102320E-03
      0.415000          0.102538E-03
      0.420000          0.102648E-03
      0.425000          0.102626E-03
      0.430000          0.102455E-03
      0.435000          0.102125E-03
      0.440000          0.101632E-03
      0.445000          0.100982E-03
      0.450000          0.100183E-03
      0.455000          0.992506E-04
      0.460000          0.982040E-04
      0.465000          0.970651E-04
      0.470000          0.958577E-04
      0.475000          0.946063E-04
      0.480000          0.933348E-04
      0.485000          0.920658E-04
      0.490000          0.908196E-04
      0.495000          0.896137E-04
      0.500000          0.884623E-04
