 I_abs(s)[cm^-1]/c[mg/ml]
       0.00000          0.147116E-01
      0.500000E-02      0.146636E-01
      0.100000E-01      0.145204E-01
      0.150000E-01      0.142846E-01
      0.200000E-01      0.139604E-01
      0.250000E-01      0.135537E-01
      0.300000E-01      0.130717E-01
      0.350000E-01      0.125225E-01
      0.400000E-01      0.119157E-01
      0.450000E-01      0.112612E-01
      0.500000E-01      0.105696E-01
      0.550000E-01      0.985160E-02
      0.600000E-01      0.911791E-02
      0.650000E-01      0.837897E-02
      0.700000E-01      0.764466E-02
      0.750000E-01      0.692419E-02
      0.800000E-01      0.622587E-02
      0.850000E-01      0.555699E-02
      0.900000E-01      0.492372E-02
      0.950000E-01      0.433103E-02
      0.100000          0.378269E-02
      0.105000          0.328126E-02
      0.110000          0.282815E-02
      0.115000          0.242365E-02
      0.120000          0.206707E-02
      0.125000          0.175684E-02
      0.130000          0.149064E-02
      0.135000          0.126553E-02
      0.140000          0.107810E-02
      0.145000          0.924631E-03
      0.150000          0.801198E-03
      0.155000          0.703817E-03
      0.160000          0.628555E-03
      0.165000          0.571628E-03
      0.170000          0.529482E-03
      0.175000          0.498860E-03
      0.180000          0.476849E-03
      0.185000          0.460907E-03
      0.190000          0.448878E-03
      0.195000          0.438994E-03
      0.200000          0.429858E-03
      0.205000          0.420425E-03
      0.210000          0.409967E-03
      0.215000          0.398039E-03
      0.220000          0.384435E-03
      0.225000          0.369150E-03
      0.230000          0.352335E-03
      0.235000          0.334257E-03
      0.240000          0.315262E-03
      0.245000          0.295741E-03
      0.250000          0.276101E-03
      0.255000          0.256740E-03
      0.260000          0.238028E-03
      0.265000          0.220290E-03
      0.270000          0.203799E-03
      0.275000          0.188769E-03
      0.280000          0.175349E-03
      0.285000          0.163629E-03
      0.290000          0.153638E-03
      0.295000          0.145353E-03
      0.300000          0.138706E-03
      0.305000          0.133584E-03
      0.310000          0.129849E-03
      0.315000          0.127334E-03
      0.320000          0.125861E-03
      0.325000          0.125243E-03
      0.330000          0.125289E-03
      0.335000          0.125818E-03
      0.340000          0.126657E-03
      0.345000          0.127646E-03
      0.350000          0.128647E-03
      0.355000          0.129539E-03
      0.360000          0.130226E-03
      0.365000          0.130632E-03
      0.370000          0.130705E-03
      0.375000          0.130415E-03
      0.380000          0.129752E-03
      0.385000          0.128724E-03
      0.390000          0.127356E-03
      0.395000          0.125685E-03
      0.400000          0.123760E-03
      0.405000          0.121637E-03
      0.410000          0.119374E-03
      0.415000          0.117034E-03
      0.420000          0.114676E-03
      0.425000          0.112357E-03
      0.430000          0.110129E-03
      0.435000          0.108034E-03
      0.440000          0.106106E-03
      0.445000          0.104372E-03
      0.450000          0.102846E-03
      0.455000          0.101532E-03
      0.460000          0.100428E-03
      0.465000          0.995201E-04
      0.470000          0.987880E-04
      0.475000          0.982055E-04
      0.480000          0.977421E-04
      0.485000          0.973643E-04
      0.490000          0.970375E-04
      0.495000          0.967278E-04
      0.500000          0.964035E-04
