 I_abs(s)[cm^-1]/c[mg/ml]
       0.00000          0.145050E-01
      0.500000E-02      0.144523E-01
      0.100000E-01      0.142953E-01
      0.150000E-01      0.140374E-01
      0.200000E-01      0.136844E-01
      0.250000E-01      0.132438E-01
      0.300000E-01      0.127250E-01
      0.350000E-01      0.121386E-01
      0.400000E-01      0.114965E-01
      0.450000E-01      0.108110E-01
      0.500000E-01      0.100949E-01
      0.550000E-01      0.936075E-02
      0.600000E-01      0.862067E-02
      0.650000E-01      0.788604E-02
      0.700000E-01      0.716719E-02
      0.750000E-01      0.647318E-02
      0.800000E-01      0.581166E-02
      0.850000E-01      0.518879E-02
      0.900000E-01      0.460919E-02
      0.950000E-01      0.407599E-02
      0.100000          0.359089E-02
      0.105000          0.315429E-02
      0.110000          0.276544E-02
      0.115000          0.242261E-02
      0.120000          0.212329E-02
      0.125000          0.186438E-02
      0.130000          0.164237E-02
      0.135000          0.145352E-02
      0.140000          0.129399E-02
      0.145000          0.116002E-02
      0.150000          0.104799E-02
      0.155000          0.954506E-03
      0.160000          0.876500E-03
      0.165000          0.811210E-03
      0.170000          0.756224E-03
      0.175000          0.709465E-03
      0.180000          0.669179E-03
      0.185000          0.633912E-03
      0.190000          0.602474E-03
      0.195000          0.573907E-03
      0.200000          0.547453E-03
      0.205000          0.522522E-03
      0.210000          0.498661E-03
      0.215000          0.475533E-03
      0.220000          0.452893E-03
      0.225000          0.430576E-03
      0.230000          0.408479E-03
      0.235000          0.386556E-03
      0.240000          0.364806E-03
      0.245000          0.343270E-03
      0.250000          0.322025E-03
      0.255000          0.301174E-03
      0.260000          0.280844E-03
      0.265000          0.261181E-03
      0.270000          0.242336E-03
      0.275000          0.224465E-03
      0.280000          0.207719E-03
      0.285000          0.192235E-03
      0.290000          0.178131E-03
      0.295000          0.165499E-03
      0.300000          0.154400E-03
      0.305000          0.144865E-03
      0.310000          0.136885E-03
      0.315000          0.130419E-03
      0.320000          0.125392E-03
      0.325000          0.121695E-03
      0.330000          0.119196E-03
      0.335000          0.117738E-03
      0.340000          0.117152E-03
      0.345000          0.117256E-03
      0.350000          0.117868E-03
      0.355000          0.118808E-03
      0.360000          0.119905E-03
      0.365000          0.121004E-03
      0.370000          0.121964E-03
      0.375000          0.122668E-03
      0.380000          0.123023E-03
      0.385000          0.122956E-03
      0.390000          0.122423E-03
      0.395000          0.121399E-03
      0.400000          0.119884E-03
      0.405000          0.117893E-03
      0.410000          0.115461E-03
      0.415000          0.112634E-03
      0.420000          0.109471E-03
      0.425000          0.106034E-03
      0.430000          0.102392E-03
      0.435000          0.986153E-04
      0.440000          0.947724E-04
      0.445000          0.909295E-04
      0.450000          0.871482E-04
      0.455000          0.834847E-04
      0.460000          0.799890E-04
      0.465000          0.767043E-04
      0.470000          0.736670E-04
      0.475000          0.709068E-04
      0.480000          0.684470E-04
      0.485000          0.663048E-04
      0.490000          0.644913E-04
      0.495000          0.630128E-04
      0.500000          0.618702E-04
