 I_abs(s)[cm^-1]/c[mg/ml]
       0.00000          0.142919E-01
      0.500000E-02      0.142108E-01
      0.100000E-01      0.139704E-01
      0.150000E-01      0.135792E-01
      0.200000E-01      0.130505E-01
      0.250000E-01      0.124024E-01
      0.300000E-01      0.116561E-01
      0.350000E-01      0.108354E-01
      0.400000E-01      0.996495E-02
      0.450000E-01      0.906962E-02
      0.500000E-01      0.817296E-02
      0.550000E-01      0.729638E-02
      0.600000E-01      0.645834E-02
      0.650000E-01      0.567378E-02
      0.700000E-01      0.495375E-02
      0.750000E-01      0.430538E-02
      0.800000E-01      0.373198E-02
      0.850000E-01      0.323344E-02
      0.900000E-01      0.280670E-02
      0.950000E-01      0.244639E-02
      0.100000          0.214546E-02
      0.105000          0.189593E-02
      0.110000          0.168944E-02
      0.115000          0.151785E-02
      0.120000          0.137366E-02
      0.125000          0.125034E-02
      0.130000          0.114253E-02
      0.135000          0.104608E-02
      0.140000          0.958066E-03
      0.145000          0.876631E-03
      0.150000          0.800821E-03
      0.155000          0.730372E-03
      0.160000          0.665486E-03
      0.165000          0.606620E-03
      0.170000          0.554298E-03
      0.175000          0.508968E-03
      0.180000          0.470895E-03
      0.185000          0.440103E-03
      0.190000          0.416355E-03
      0.195000          0.399165E-03
      0.200000          0.387837E-03
      0.205000          0.381519E-03
      0.210000          0.379256E-03
      0.215000          0.380058E-03
      0.220000          0.382944E-03
      0.225000          0.386988E-03
      0.230000          0.391349E-03
      0.235000          0.395292E-03
      0.240000          0.398195E-03
      0.245000          0.399558E-03
      0.250000          0.398994E-03
      0.255000          0.396230E-03
      0.260000          0.391099E-03
      0.265000          0.383536E-03
      0.270000          0.373573E-03
      0.275000          0.361330E-03
      0.280000          0.347016E-03
      0.285000          0.330915E-03
      0.290000          0.313378E-03
      0.295000          0.294811E-03
      0.300000          0.275655E-03
      0.305000          0.256368E-03
      0.310000          0.237404E-03
      0.315000          0.219188E-03
      0.320000          0.202097E-03
      0.325000          0.186445E-03
      0.330000          0.172461E-03
      0.335000          0.160291E-03
      0.340000          0.149987E-03
      0.345000          0.141516E-03
      0.350000          0.134770E-03
      0.355000          0.129577E-03
      0.360000          0.125721E-03
      0.365000          0.122961E-03
      0.370000          0.121048E-03
      0.375000          0.119742E-03
      0.380000          0.118827E-03
      0.385000          0.118119E-03
      0.390000          0.117472E-03
      0.395000          0.116779E-03
      0.400000          0.115971E-03
      0.405000          0.115008E-03
      0.410000          0.113877E-03
      0.415000          0.112583E-03
      0.420000          0.111141E-03
      0.425000          0.109572E-03
      0.430000          0.107898E-03
      0.435000          0.106142E-03
      0.440000          0.104326E-03
      0.445000          0.102474E-03
      0.450000          0.100610E-03
      0.455000          0.987662E-04
      0.460000          0.969765E-04
      0.465000          0.952823E-04
      0.470000          0.937287E-04
      0.475000          0.923619E-04
      0.480000          0.912253E-04
      0.485000          0.903547E-04
      0.490000          0.897731E-04
      0.495000          0.894868E-04
      0.500000          0.894816E-04
