 I_abs(s)[cm^-1]/c[mg/ml]
       0.00000          0.150324E-01
      0.500000E-02      0.149745E-01
      0.100000E-01      0.148019E-01
      0.150000E-01      0.145186E-01
      0.200000E-01      0.141310E-01
      0.250000E-01      0.136476E-01
      0.300000E-01      0.130790E-01
      0.350000E-01      0.124372E-01
      0.400000E-01      0.117357E-01
      0.450000E-01      0.109884E-01
      0.500000E-01      0.102098E-01
      0.550000E-01      0.941392E-02
      0.600000E-01      0.861462E-02
      0.650000E-01      0.782466E-02
      0.700000E-01      0.705560E-02
      0.750000E-01      0.631754E-02
      0.800000E-01      0.561892E-02
      0.850000E-01      0.496638E-02
      0.900000E-01      0.436476E-02
      0.950000E-01      0.381710E-02
      0.100000          0.332473E-02
      0.105000          0.288746E-02
      0.110000          0.250369E-02
      0.115000          0.217072E-02
      0.120000          0.188491E-02
      0.125000          0.164198E-02
      0.130000          0.143723E-02
      0.135000          0.126577E-02
      0.140000          0.112276E-02
      0.145000          0.100351E-02
      0.150000          0.903716E-03
      0.155000          0.819491E-03
      0.160000          0.747476E-03
      0.165000          0.684861E-03
      0.170000          0.629390E-03
      0.175000          0.579338E-03
      0.180000          0.533461E-03
      0.185000          0.490938E-03
      0.190000          0.451294E-03
      0.195000          0.414325E-03
      0.200000          0.380017E-03
      0.205000          0.348478E-03
      0.210000          0.319866E-03
      0.215000          0.294342E-03
      0.220000          0.272025E-03
      0.225000          0.252960E-03
      0.230000          0.237105E-03
      0.235000          0.224323E-03
      0.240000          0.214387E-03
      0.245000          0.206991E-03
      0.250000          0.201766E-03
      0.255000          0.198305E-03
      0.260000          0.196182E-03
      0.265000          0.194974E-03
      0.270000          0.194283E-03
      0.275000          0.193752E-03
      0.280000          0.193076E-03
      0.285000          0.192014E-03
      0.290000          0.190390E-03
      0.295000          0.188096E-03
      0.300000          0.185088E-03
      0.305000          0.181378E-03
      0.310000          0.177025E-03
      0.315000          0.172129E-03
      0.320000          0.166815E-03
      0.325000          0.161227E-03
      0.330000          0.155512E-03
      0.335000          0.149818E-03
      0.340000          0.144281E-03
      0.345000          0.139020E-03
      0.350000          0.134137E-03
      0.355000          0.129707E-03
      0.360000          0.125783E-03
      0.365000          0.122395E-03
      0.370000          0.119550E-03
      0.375000          0.117236E-03
      0.380000          0.115424E-03
      0.385000          0.114071E-03
      0.390000          0.113126E-03
      0.395000          0.112529E-03
      0.400000          0.112219E-03
      0.405000          0.112132E-03
      0.410000          0.112207E-03
      0.415000          0.112387E-03
      0.420000          0.112618E-03
      0.425000          0.112853E-03
      0.430000          0.113051E-03
      0.435000          0.113177E-03
      0.440000          0.113202E-03
      0.445000          0.113104E-03
      0.450000          0.112867E-03
      0.455000          0.112477E-03
      0.460000          0.111928E-03
      0.465000          0.111216E-03
      0.470000          0.110340E-03
      0.475000          0.109305E-03
      0.480000          0.108116E-03
      0.485000          0.106782E-03
      0.490000          0.105315E-03
      0.495000          0.103728E-03
      0.500000          0.102037E-03
