 I_abs(s)[cm^-1]/c[mg/ml]
       0.00000          0.146798E-01
      0.500000E-02      0.146320E-01
      0.100000E-01      0.144897E-01
      0.150000E-01      0.142556E-01
      0.200000E-01      0.139342E-01
      0.250000E-01      0.135319E-01
      0.300000E-01      0.130561E-01
      0.350000E-01      0.125157E-01
      0.400000E-01      0.119204E-01
      0.450000E-01      0.112806E-01
      0.500000E-01      0.106071E-01
      0.550000E-01      0.991060E-02
      0.600000E-01      0.920172E-02
      0.650000E-01      0.849056E-02
      0.700000E-01      0.778653E-02
      0.750000E-01      0.709814E-02
      0.800000E-01      0.643286E-02
      0.850000E-01      0.579704E-02
      0.900000E-01      0.519582E-02
      0.950000E-01      0.463312E-02
      0.100000          0.411168E-02
      0.105000          0.363312E-02
      0.110000          0.319800E-02
      0.115000          0.280595E-02
      0.120000          0.245582E-02
      0.125000          0.214579E-02
      0.130000          0.187349E-02
      0.135000          0.163621E-02
      0.140000          0.143095E-02
      0.145000          0.125459E-02
      0.150000          0.110400E-02
      0.155000          0.976072E-03
      0.160000          0.867866E-03
      0.165000          0.776609E-03
      0.170000          0.699762E-03
      0.175000          0.635035E-03
      0.180000          0.580396E-03
      0.185000          0.534075E-03
      0.190000          0.494552E-03
      0.195000          0.460542E-03
      0.200000          0.430974E-03
      0.205000          0.404967E-03
      0.210000          0.381809E-03
      0.215000          0.360929E-03
      0.220000          0.341876E-03
      0.225000          0.324298E-03
      0.230000          0.307925E-03
      0.235000          0.292549E-03
      0.240000          0.278013E-03
      0.245000          0.264201E-03
      0.250000          0.251027E-03
      0.255000          0.238428E-03
      0.260000          0.226360E-03
      0.265000          0.214794E-03
      0.270000          0.203711E-03
      0.275000          0.193101E-03
      0.280000          0.182961E-03
      0.285000          0.173293E-03
      0.290000          0.164106E-03
      0.295000          0.155408E-03
      0.300000          0.147212E-03
      0.305000          0.139530E-03
      0.310000          0.132377E-03
      0.315000          0.125763E-03
      0.320000          0.119699E-03
      0.325000          0.114193E-03
      0.330000          0.109249E-03
      0.335000          0.104865E-03
      0.340000          0.101038E-03
      0.345000          0.977564E-04
      0.350000          0.950053E-04
      0.355000          0.927638E-04
      0.360000          0.910062E-04
      0.365000          0.897019E-04
      0.370000          0.888162E-04
      0.375000          0.883107E-04
      0.380000          0.881441E-04
      0.385000          0.882731E-04
      0.390000          0.886534E-04
      0.395000          0.892403E-04
      0.400000          0.899898E-04
      0.405000          0.908594E-04
      0.410000          0.918086E-04
      0.415000          0.928003E-04
      0.420000          0.938003E-04
      0.425000          0.947786E-04
      0.430000          0.957095E-04
      0.435000          0.965713E-04
      0.440000          0.973470E-04
      0.445000          0.980236E-04
      0.450000          0.985922E-04
      0.455000          0.990478E-04
      0.460000          0.993886E-04
      0.465000          0.996154E-04
      0.470000          0.997317E-04
      0.475000          0.997424E-04
      0.480000          0.996538E-04
      0.485000          0.994729E-04
      0.490000          0.992069E-04
      0.495000          0.988627E-04
      0.500000          0.984467E-04
