 I_abs(s)[cm^-1]/c[mg/ml]
       0.00000          0.146638E-01
      0.500000E-02      0.146065E-01
      0.100000E-01      0.144360E-01
      0.150000E-01      0.141567E-01
      0.200000E-01      0.137756E-01
      0.250000E-01      0.133020E-01
      0.300000E-01      0.127473E-01
      0.350000E-01      0.121244E-01
      0.400000E-01      0.114473E-01
      0.450000E-01      0.107303E-01
      0.500000E-01      0.998773E-02
      0.550000E-01      0.923351E-02
      0.600000E-01      0.848053E-02
      0.650000E-01      0.774038E-02
      0.700000E-01      0.702314E-02
      0.750000E-01      0.633713E-02
      0.800000E-01      0.568888E-02
      0.850000E-01      0.508312E-02
      0.900000E-01      0.452289E-02
      0.950000E-01      0.400966E-02
      0.100000          0.354356E-02
      0.105000          0.312356E-02
      0.110000          0.274778E-02
      0.115000          0.241365E-02
      0.120000          0.211820E-02
      0.125000          0.185821E-02
      0.130000          0.163039E-02
      0.135000          0.143151E-02
      0.140000          0.125850E-02
      0.145000          0.110848E-02
      0.150000          0.978836E-03
      0.155000          0.867183E-03
      0.160000          0.771379E-03
      0.165000          0.689499E-03
      0.170000          0.619807E-03
      0.175000          0.560731E-03
      0.180000          0.510840E-03
      0.185000          0.468829E-03
      0.190000          0.433500E-03
      0.195000          0.403766E-03
      0.200000          0.378642E-03
      0.205000          0.357253E-03
      0.210000          0.338833E-03
      0.215000          0.322729E-03
      0.220000          0.308405E-03
      0.225000          0.295433E-03
      0.230000          0.283492E-03
      0.235000          0.272355E-03
      0.240000          0.261878E-03
      0.245000          0.251980E-03
      0.250000          0.242631E-03
      0.255000          0.233831E-03
      0.260000          0.225596E-03
      0.265000          0.217947E-03
      0.270000          0.210894E-03
      0.275000          0.204433E-03
      0.280000          0.198542E-03
      0.285000          0.193180E-03
      0.290000          0.188290E-03
      0.295000          0.183802E-03
      0.300000          0.179640E-03
      0.305000          0.175730E-03
      0.310000          0.172001E-03
      0.315000          0.168393E-03
      0.320000          0.164861E-03
      0.325000          0.161377E-03
      0.330000          0.157929E-03
      0.335000          0.154518E-03
      0.340000          0.151160E-03
      0.345000          0.147881E-03
      0.350000          0.144709E-03
      0.355000          0.141676E-03
      0.360000          0.138811E-03
      0.365000          0.136137E-03
      0.370000          0.133666E-03
      0.375000          0.131404E-03
      0.380000          0.129345E-03
      0.385000          0.127473E-03
      0.390000          0.125762E-03
      0.395000          0.124182E-03
      0.400000          0.122695E-03
      0.405000          0.121264E-03
      0.410000          0.119850E-03
      0.415000          0.118419E-03
      0.420000          0.116939E-03
      0.425000          0.115386E-03
      0.430000          0.113744E-03
      0.435000          0.112004E-03
      0.440000          0.110167E-03
      0.445000          0.108238E-03
      0.450000          0.106233E-03
      0.455000          0.104170E-03
      0.460000          0.102074E-03
      0.465000          0.999700E-04
      0.470000          0.978858E-04
      0.475000          0.958471E-04
      0.480000          0.938779E-04
      0.485000          0.919986E-04
      0.490000          0.902256E-04
      0.495000          0.885699E-04
      0.500000          0.870377E-04
