 I_abs(s)[cm^-1]/c[mg/ml]
       0.00000          0.146320E-01
      0.500000E-02      0.145800E-01
      0.100000E-01      0.144253E-01
      0.150000E-01      0.141712E-01
      0.200000E-01      0.138234E-01
      0.250000E-01      0.133892E-01
      0.300000E-01      0.128778E-01
      0.350000E-01      0.122998E-01
      0.400000E-01      0.116667E-01
      0.450000E-01      0.109904E-01
      0.500000E-01      0.102835E-01
      0.550000E-01      0.955812E-02
      0.600000E-01      0.882598E-02
      0.650000E-01      0.809806E-02
      0.700000E-01      0.738429E-02
      0.750000E-01      0.669338E-02
      0.800000E-01      0.603270E-02
      0.850000E-01      0.540816E-02
      0.900000E-01      0.482426E-02
      0.950000E-01      0.428408E-02
      0.100000          0.378937E-02
      0.105000          0.334069E-02
      0.110000          0.293756E-02
      0.115000          0.257858E-02
      0.120000          0.226165E-02
      0.125000          0.198410E-02
      0.130000          0.174289E-02
      0.135000          0.153475E-02
      0.140000          0.135627E-02
      0.145000          0.120408E-02
      0.150000          0.107489E-02
      0.155000          0.965597E-03
      0.160000          0.873300E-03
      0.165000          0.795364E-03
      0.170000          0.729426E-03
      0.175000          0.673403E-03
      0.180000          0.625489E-03
      0.185000          0.584143E-03
      0.190000          0.548069E-03
      0.195000          0.516201E-03
      0.200000          0.487675E-03
      0.205000          0.461807E-03
      0.210000          0.438068E-03
      0.215000          0.416060E-03
      0.220000          0.395494E-03
      0.225000          0.376169E-03
      0.230000          0.357950E-03
      0.235000          0.340754E-03
      0.240000          0.324531E-03
      0.245000          0.309250E-03
      0.250000          0.294893E-03
      0.255000          0.281440E-03
      0.260000          0.268866E-03
      0.265000          0.257137E-03
      0.270000          0.246207E-03
      0.275000          0.236017E-03
      0.280000          0.226501E-03
      0.285000          0.217582E-03
      0.290000          0.209183E-03
      0.295000          0.201223E-03
      0.300000          0.193629E-03
      0.305000          0.186333E-03
      0.310000          0.179279E-03
      0.315000          0.172426E-03
      0.320000          0.165744E-03
      0.325000          0.159221E-03
      0.330000          0.152857E-03
      0.335000          0.146669E-03
      0.340000          0.140680E-03
      0.345000          0.134926E-03
      0.350000          0.129445E-03
      0.355000          0.124279E-03
      0.360000          0.119469E-03
      0.365000          0.115053E-03
      0.370000          0.111062E-03
      0.375000          0.107520E-03
      0.380000          0.104441E-03
      0.385000          0.101829E-03
      0.390000          0.996757E-04
      0.395000          0.979643E-04
      0.400000          0.966662E-04
      0.405000          0.957441E-04
      0.410000          0.951526E-04
      0.415000          0.948398E-04
      0.420000          0.947494E-04
      0.425000          0.948223E-04
      0.430000          0.949984E-04
      0.435000          0.952187E-04
      0.440000          0.954270E-04
      0.445000          0.955716E-04
      0.450000          0.956067E-04
      0.455000          0.954935E-04
      0.460000          0.952015E-04
      0.465000          0.947086E-04
      0.470000          0.940022E-04
      0.475000          0.930784E-04
      0.480000          0.919423E-04
      0.485000          0.906075E-04
      0.490000          0.890947E-04
      0.495000          0.874314E-04
      0.500000          0.856500E-04
