 I_abs(s)[cm^-1]/c[mg/ml]
       0.00000          0.147037E-01
      0.500000E-02      0.146428E-01
      0.100000E-01      0.144620E-01
      0.150000E-01      0.141665E-01
      0.200000E-01      0.137643E-01
      0.250000E-01      0.132666E-01
      0.300000E-01      0.126866E-01
      0.350000E-01      0.120390E-01
      0.400000E-01      0.113395E-01
      0.450000E-01      0.106043E-01
      0.500000E-01      0.984892E-02
      0.550000E-01      0.908807E-02
      0.600000E-01      0.833506E-02
      0.650000E-01      0.760144E-02
      0.700000E-01      0.689677E-02
      0.750000E-01      0.622852E-02
      0.800000E-01      0.560209E-02
      0.850000E-01      0.502091E-02
      0.900000E-01      0.448667E-02
      0.950000E-01      0.399955E-02
      0.100000          0.355849E-02
      0.105000          0.316154E-02
      0.110000          0.280609E-02
      0.115000          0.248914E-02
      0.120000          0.220753E-02
      0.125000          0.195808E-02
      0.130000          0.173770E-02
      0.135000          0.154351E-02
      0.140000          0.137284E-02
      0.145000          0.122324E-02
      0.150000          0.109248E-02
      0.155000          0.978514E-03
      0.160000          0.879472E-03
      0.165000          0.793612E-03
      0.170000          0.719313E-03
      0.175000          0.655065E-03
      0.180000          0.599462E-03
      0.185000          0.551210E-03
      0.190000          0.509131E-03
      0.195000          0.472174E-03
      0.200000          0.439421E-03
      0.205000          0.410094E-03
      0.210000          0.383554E-03
      0.215000          0.359295E-03
      0.220000          0.336933E-03
      0.225000          0.316191E-03
      0.230000          0.296884E-03
      0.235000          0.278895E-03
      0.240000          0.262159E-03
      0.245000          0.246646E-03
      0.250000          0.232343E-03
      0.255000          0.219245E-03
      0.260000          0.207345E-03
      0.265000          0.196629E-03
      0.270000          0.187071E-03
      0.275000          0.178636E-03
      0.280000          0.171277E-03
      0.285000          0.164936E-03
      0.290000          0.159547E-03
      0.295000          0.155040E-03
      0.300000          0.151333E-03
      0.305000          0.148345E-03
      0.310000          0.145987E-03
      0.315000          0.144168E-03
      0.320000          0.142795E-03
      0.325000          0.141775E-03
      0.330000          0.141014E-03
      0.335000          0.140424E-03
      0.340000          0.139922E-03
      0.345000          0.139430E-03
      0.350000          0.138885E-03
      0.355000          0.138230E-03
      0.360000          0.137423E-03
      0.365000          0.136435E-03
      0.370000          0.135247E-03
      0.375000          0.133853E-03
      0.380000          0.132257E-03
      0.385000          0.130470E-03
      0.390000          0.128509E-03
      0.395000          0.126398E-03
      0.400000          0.124161E-03
      0.405000          0.121826E-03
      0.410000          0.119420E-03
      0.415000          0.116971E-03
      0.420000          0.114508E-03
      0.425000          0.112058E-03
      0.430000          0.109646E-03
      0.435000          0.107298E-03
      0.440000          0.105038E-03
      0.445000          0.102887E-03
      0.450000          0.100862E-03
      0.455000          0.989780E-04
      0.460000          0.972443E-04
      0.465000          0.956643E-04
      0.470000          0.942358E-04
      0.475000          0.929502E-04
      0.480000          0.917932E-04
      0.485000          0.907454E-04
      0.490000          0.897837E-04
      0.495000          0.888826E-04
      0.500000          0.880162E-04
