 I_abs(s)[cm^-1]/c[mg/ml]
       0.00000          0.144338E-01
      0.500000E-02      0.143506E-01
      0.100000E-01      0.141041E-01
      0.150000E-01      0.137027E-01
      0.200000E-01      0.131602E-01
      0.250000E-01      0.124950E-01
      0.300000E-01      0.117288E-01
      0.350000E-01      0.108859E-01
      0.400000E-01      0.999172E-02
      0.450000E-01      0.907195E-02
      0.500000E-01      0.815102E-02
      0.550000E-01      0.725128E-02
      0.600000E-01      0.639218E-02
      0.650000E-01      0.558956E-02
      0.700000E-01      0.485534E-02
      0.750000E-01      0.419738E-02
      0.800000E-01      0.361956E-02
      0.850000E-01      0.312209E-02
      0.900000E-01      0.270202E-02
      0.950000E-01      0.235382E-02
      0.100000          0.207003E-02
      0.105000          0.184200E-02
      0.110000          0.166050E-02
      0.115000          0.151635E-02
      0.120000          0.140089E-02
      0.125000          0.130639E-02
      0.130000          0.122630E-02
      0.135000          0.115537E-02
      0.140000          0.108970E-02
      0.145000          0.102663E-02
      0.150000          0.964633E-03
      0.155000          0.903074E-03
      0.160000          0.842031E-03
      0.165000          0.782047E-03
      0.170000          0.723925E-03
      0.175000          0.668551E-03
      0.180000          0.616747E-03
      0.185000          0.569170E-03
      0.190000          0.526256E-03
      0.195000          0.488190E-03
      0.200000          0.454920E-03
      0.205000          0.426189E-03
      0.210000          0.401575E-03
      0.215000          0.380548E-03
      0.220000          0.362524E-03
      0.225000          0.346910E-03
      0.230000          0.333146E-03
      0.235000          0.320736E-03
      0.240000          0.309260E-03
      0.245000          0.298391E-03
      0.250000          0.287890E-03
      0.255000          0.277601E-03
      0.260000          0.267442E-03
      0.265000          0.257392E-03
      0.270000          0.247476E-03
      0.275000          0.237752E-03
      0.280000          0.228302E-03
      0.285000          0.219215E-03
      0.290000          0.210586E-03
      0.295000          0.202503E-03
      0.300000          0.195042E-03
      0.305000          0.188262E-03
      0.310000          0.182205E-03
      0.315000          0.176888E-03
      0.320000          0.172306E-03
      0.325000          0.168431E-03
      0.330000          0.165212E-03
      0.335000          0.162581E-03
      0.340000          0.160453E-03
      0.345000          0.158733E-03
      0.350000          0.157319E-03
      0.355000          0.156110E-03
      0.360000          0.155010E-03
      0.365000          0.153932E-03
      0.370000          0.152802E-03
      0.375000          0.151560E-03
      0.380000          0.150164E-03
      0.385000          0.148587E-03
      0.390000          0.146819E-03
      0.395000          0.144861E-03
      0.400000          0.142728E-03
      0.405000          0.140439E-03
      0.410000          0.138024E-03
      0.415000          0.135515E-03
      0.420000          0.132944E-03
      0.425000          0.130350E-03
      0.430000          0.127766E-03
      0.435000          0.125232E-03
      0.440000          0.122782E-03
      0.445000          0.120454E-03
      0.450000          0.118282E-03
      0.455000          0.116300E-03
      0.460000          0.114537E-03
      0.465000          0.113016E-03
      0.470000          0.111754E-03
      0.475000          0.110756E-03
      0.480000          0.110016E-03
      0.485000          0.109517E-03
      0.490000          0.109226E-03
      0.495000          0.109097E-03
      0.500000          0.109075E-03
