 I_abs(s)[cm^-1]/c[mg/ml]
       0.00000          0.146718E-01
      0.500000E-02      0.146101E-01
      0.100000E-01      0.144267E-01
      0.150000E-01      0.141260E-01
      0.200000E-01      0.137156E-01
      0.250000E-01      0.132054E-01
      0.300000E-01      0.126076E-01
      0.350000E-01      0.119360E-01
      0.400000E-01      0.112058E-01
      0.450000E-01      0.104329E-01
      0.500000E-01      0.963304E-02
      0.550000E-01      0.882189E-02
      0.600000E-01      0.801411E-02
      0.650000E-01      0.722314E-02
      0.700000E-01      0.646081E-02
      0.750000E-01      0.573707E-02
      0.800000E-01      0.505988E-02
      0.850000E-01      0.443514E-02
      0.900000E-01      0.386665E-02
      0.950000E-01      0.335631E-02
      0.100000          0.290422E-02
      0.105000          0.250891E-02
      0.110000          0.216761E-02
      0.115000          0.187656E-02
      0.120000          0.163122E-02
      0.125000          0.142663E-02
      0.130000          0.125758E-02
      0.135000          0.111892E-02
      0.140000          0.100569E-02
      0.145000          0.913296E-03
      0.150000          0.837607E-03
      0.155000          0.775025E-03
      0.160000          0.722512E-03
      0.165000          0.677593E-03
      0.170000          0.638320E-03
      0.175000          0.603222E-03
      0.180000          0.571246E-03
      0.185000          0.541682E-03
      0.190000          0.514090E-03
      0.195000          0.488228E-03
      0.200000          0.463989E-03
      0.205000          0.441344E-03
      0.210000          0.420299E-03
      0.215000          0.400857E-03
      0.220000          0.382998E-03
      0.225000          0.366664E-03
      0.230000          0.351756E-03
      0.235000          0.338137E-03
      0.240000          0.325637E-03
      0.245000          0.314067E-03
      0.250000          0.303230E-03
      0.255000          0.292932E-03
      0.260000          0.283000E-03
      0.265000          0.273283E-03
      0.270000          0.263665E-03
      0.275000          0.254067E-03
      0.280000          0.244447E-03
      0.285000          0.234802E-03
      0.290000          0.225161E-03
      0.295000          0.215579E-03
      0.300000          0.206135E-03
      0.305000          0.196918E-03
      0.310000          0.188025E-03
      0.315000          0.179553E-03
      0.320000          0.171587E-03
      0.325000          0.164203E-03
      0.330000          0.157457E-03
      0.335000          0.151389E-03
      0.340000          0.146015E-03
      0.345000          0.141329E-03
      0.350000          0.137307E-03
      0.355000          0.133905E-03
      0.360000          0.131066E-03
      0.365000          0.128717E-03
      0.370000          0.126780E-03
      0.375000          0.125170E-03
      0.380000          0.123801E-03
      0.385000          0.122592E-03
      0.390000          0.121464E-03
      0.395000          0.120348E-03
      0.400000          0.119187E-03
      0.405000          0.117933E-03
      0.410000          0.116553E-03
      0.415000          0.115027E-03
      0.420000          0.113349E-03
      0.425000          0.111522E-03
      0.430000          0.109563E-03
      0.435000          0.107497E-03
      0.440000          0.105358E-03
      0.445000          0.103182E-03
      0.450000          0.101009E-03
      0.455000          0.988806E-04
      0.460000          0.968356E-04
      0.465000          0.949093E-04
      0.470000          0.931320E-04
      0.475000          0.915275E-04
      0.480000          0.901126E-04
      0.485000          0.888960E-04
      0.490000          0.878791E-04
      0.495000          0.870557E-04
      0.500000          0.864132E-04
