 I_abs(s)[cm^-1]/c[mg/ml]
       0.00000          0.146320E-01
      0.500000E-02      0.145800E-01
      0.100000E-01      0.144253E-01
      0.150000E-01      0.141712E-01
      0.200000E-01      0.138232E-01
      0.250000E-01      0.133887E-01
      0.300000E-01      0.128768E-01
      0.350000E-01      0.122980E-01
      0.400000E-01      0.116636E-01
      0.450000E-01      0.109857E-01
      0.500000E-01      0.102766E-01
      0.550000E-01      0.954853E-02
      0.600000E-01      0.881315E-02
      0.650000E-01      0.808143E-02
      0.700000E-01      0.736335E-02
      0.750000E-01      0.666765E-02
      0.800000E-01      0.600175E-02
      0.850000E-01      0.537164E-02
      0.900000E-01      0.478190E-02
      0.950000E-01      0.423568E-02
      0.100000          0.373484E-02
      0.105000          0.328004E-02
      0.110000          0.287087E-02
      0.115000          0.250604E-02
      0.120000          0.218353E-02
      0.125000          0.190078E-02
      0.130000          0.165485E-02
      0.135000          0.144254E-02
      0.140000          0.126056E-02
      0.145000          0.110561E-02
      0.150000          0.974484E-03
      0.155000          0.864144E-03
      0.160000          0.771750E-03
      0.165000          0.694704E-03
      0.170000          0.630657E-03
      0.175000          0.577517E-03
      0.180000          0.533439E-03
      0.185000          0.496817E-03
      0.190000          0.466264E-03
      0.195000          0.440592E-03
      0.200000          0.418799E-03
      0.205000          0.400042E-03
      0.210000          0.383625E-03
      0.215000          0.368979E-03
      0.220000          0.355646E-03
      0.225000          0.343269E-03
      0.230000          0.331573E-03
      0.235000          0.320357E-03
      0.240000          0.309482E-03
      0.245000          0.298858E-03
      0.250000          0.288435E-03
      0.255000          0.278197E-03
      0.260000          0.268148E-03
      0.265000          0.258310E-03
      0.270000          0.248712E-03
      0.275000          0.239390E-03
      0.280000          0.230379E-03
      0.285000          0.221711E-03
      0.290000          0.213415E-03
      0.295000          0.205513E-03
      0.300000          0.198023E-03
      0.305000          0.190956E-03
      0.310000          0.184316E-03
      0.315000          0.178105E-03
      0.320000          0.172319E-03
      0.325000          0.166948E-03
      0.330000          0.161980E-03
      0.335000          0.157399E-03
      0.340000          0.153184E-03
      0.345000          0.149312E-03
      0.350000          0.145754E-03
      0.355000          0.142481E-03
      0.360000          0.139459E-03
      0.365000          0.136655E-03
      0.370000          0.134031E-03
      0.375000          0.131555E-03
      0.380000          0.129191E-03
      0.385000          0.126910E-03
      0.390000          0.124685E-03
      0.395000          0.122493E-03
      0.400000          0.120320E-03
      0.405000          0.118154E-03
      0.410000          0.115991E-03
      0.415000          0.113832E-03
      0.420000          0.111683E-03
      0.425000          0.109553E-03
      0.430000          0.107454E-03
      0.435000          0.105400E-03
      0.440000          0.103404E-03
      0.445000          0.101480E-03
      0.450000          0.996375E-04
      0.455000          0.978850E-04
      0.460000          0.962274E-04
      0.465000          0.946661E-04
      0.470000          0.931993E-04
      0.475000          0.918224E-04
      0.480000          0.905283E-04
      0.485000          0.893082E-04
      0.490000          0.881521E-04
      0.495000          0.870498E-04
      0.500000          0.859913E-04
