 I_abs(s)[cm^-1]/c[mg/ml]
       0.00000          0.147037E-01
      0.500000E-02      0.146406E-01
      0.100000E-01      0.144528E-01
      0.150000E-01      0.141450E-01
      0.200000E-01      0.137245E-01
      0.250000E-01      0.132015E-01
      0.300000E-01      0.125880E-01
      0.350000E-01      0.118982E-01
      0.400000E-01      0.111473E-01
      0.450000E-01      0.103513E-01
      0.500000E-01      0.952660E-02
      0.550000E-01      0.868906E-02
      0.600000E-01      0.785389E-02
      0.650000E-01      0.703507E-02
      0.700000E-01      0.624502E-02
      0.750000E-01      0.549433E-02
      0.800000E-01      0.479160E-02
      0.850000E-01      0.414332E-02
      0.900000E-01      0.355387E-02
      0.950000E-01      0.302561E-02
      0.100000          0.255904E-02
      0.105000          0.215296E-02
      0.110000          0.180477E-02
      0.115000          0.151070E-02
      0.120000          0.126616E-02
      0.125000          0.106594E-02
      0.130000          0.904561E-03
      0.135000          0.776484E-03
      0.140000          0.676318E-03
      0.145000          0.599002E-03
      0.150000          0.539932E-03
      0.155000          0.495045E-03
      0.160000          0.460875E-03
      0.165000          0.434553E-03
      0.170000          0.413797E-03
      0.175000          0.396860E-03
      0.180000          0.382476E-03
      0.185000          0.369777E-03
      0.190000          0.358225E-03
      0.195000          0.347526E-03
      0.200000          0.337561E-03
      0.205000          0.328323E-03
      0.210000          0.319859E-03
      0.215000          0.312230E-03
      0.220000          0.305483E-03
      0.225000          0.299628E-03
      0.230000          0.294633E-03
      0.235000          0.290423E-03
      0.240000          0.286883E-03
      0.245000          0.283872E-03
      0.250000          0.281230E-03
      0.255000          0.278798E-03
      0.260000          0.276423E-03
      0.265000          0.273972E-03
      0.270000          0.271339E-03
      0.275000          0.268446E-03
      0.280000          0.265250E-03
      0.285000          0.261736E-03
      0.290000          0.257916E-03
      0.295000          0.253824E-03
      0.300000          0.249510E-03
      0.305000          0.245033E-03
      0.310000          0.240451E-03
      0.315000          0.235824E-03
      0.320000          0.231200E-03
      0.325000          0.226619E-03
      0.330000          0.222107E-03
      0.335000          0.217676E-03
      0.340000          0.213328E-03
      0.345000          0.209053E-03
      0.350000          0.204834E-03
      0.355000          0.200648E-03
      0.360000          0.196471E-03
      0.365000          0.192279E-03
      0.370000          0.188053E-03
      0.375000          0.183778E-03
      0.380000          0.179445E-03
      0.385000          0.175054E-03
      0.390000          0.170612E-03
      0.395000          0.166131E-03
      0.400000          0.161628E-03
      0.405000          0.157126E-03
      0.410000          0.152647E-03
      0.415000          0.148215E-03
      0.420000          0.143854E-03
      0.425000          0.139583E-03
      0.430000          0.135420E-03
      0.435000          0.131377E-03
      0.440000          0.127466E-03
      0.445000          0.123691E-03
      0.450000          0.120058E-03
      0.455000          0.116565E-03
      0.460000          0.113215E-03
      0.465000          0.110006E-03
      0.470000          0.106939E-03
      0.475000          0.104016E-03
      0.480000          0.101239E-03
      0.485000          0.986141E-04
      0.490000          0.961466E-04
      0.495000          0.938446E-04
      0.500000          0.917163E-04
