 I_abs(s)[cm^-1]/c[mg/ml]
       0.00000          0.147995E-01
      0.500000E-02      0.147531E-01
      0.100000E-01      0.146147E-01
      0.150000E-01      0.143869E-01
      0.200000E-01      0.140739E-01
      0.250000E-01      0.136814E-01
      0.300000E-01      0.132164E-01
      0.350000E-01      0.126872E-01
      0.400000E-01      0.121028E-01
      0.450000E-01      0.114729E-01
      0.500000E-01      0.108077E-01
      0.550000E-01      0.101175E-01
      0.600000E-01      0.941224E-02
      0.650000E-01      0.870185E-02
      0.700000E-01      0.799547E-02
      0.750000E-01      0.730151E-02
      0.800000E-01      0.662751E-02
      0.850000E-01      0.597994E-02
      0.900000E-01      0.536421E-02
      0.950000E-01      0.478460E-02
      0.100000          0.424427E-02
      0.105000          0.374529E-02
      0.110000          0.328871E-02
      0.115000          0.287467E-02
      0.120000          0.250247E-02
      0.125000          0.217072E-02
      0.130000          0.187749E-02
      0.135000          0.162037E-02
      0.140000          0.139666E-02
      0.145000          0.120348E-02
      0.150000          0.103784E-02
      0.155000          0.896772E-03
      0.160000          0.777385E-03
      0.165000          0.676937E-03
      0.170000          0.592876E-03
      0.175000          0.522871E-03
      0.180000          0.464830E-03
      0.185000          0.416904E-03
      0.190000          0.377479E-03
      0.195000          0.345165E-03
      0.200000          0.318777E-03
      0.205000          0.297315E-03
      0.210000          0.279934E-03
      0.215000          0.265927E-03
      0.220000          0.254699E-03
      0.225000          0.245746E-03
      0.230000          0.238640E-03
      0.235000          0.233012E-03
      0.240000          0.228541E-03
      0.245000          0.224947E-03
      0.250000          0.221983E-03
      0.255000          0.219430E-03
      0.260000          0.217101E-03
      0.265000          0.214832E-03
      0.270000          0.212487E-03
      0.275000          0.209957E-03
      0.280000          0.207156E-03
      0.285000          0.204028E-03
      0.290000          0.200539E-03
      0.295000          0.196679E-03
      0.300000          0.192458E-03
      0.305000          0.187907E-03
      0.310000          0.183070E-03
      0.315000          0.178006E-03
      0.320000          0.172779E-03
      0.325000          0.167463E-03
      0.330000          0.162131E-03
      0.335000          0.156855E-03
      0.340000          0.151705E-03
      0.345000          0.146743E-03
      0.350000          0.142025E-03
      0.355000          0.137595E-03
      0.360000          0.133490E-03
      0.365000          0.129732E-03
      0.370000          0.126334E-03
      0.375000          0.123299E-03
      0.380000          0.120619E-03
      0.385000          0.118276E-03
      0.390000          0.116243E-03
      0.395000          0.114490E-03
      0.400000          0.112977E-03
      0.405000          0.111664E-03
      0.410000          0.110507E-03
      0.415000          0.109461E-03
      0.420000          0.108483E-03
      0.425000          0.107533E-03
      0.430000          0.106574E-03
      0.435000          0.105572E-03
      0.440000          0.104503E-03
      0.445000          0.103345E-03
      0.450000          0.102085E-03
      0.455000          0.100716E-03
      0.460000          0.992395E-04
      0.465000          0.976604E-04
      0.470000          0.959909E-04
      0.475000          0.942476E-04
      0.480000          0.924509E-04
      0.485000          0.906238E-04
      0.490000          0.887911E-04
      0.495000          0.869777E-04
      0.500000          0.852080E-04
