 I_abs(s)[cm^-1]/c[mg/ml]
       0.00000          0.147595E-01
      0.500000E-02      0.146993E-01
      0.100000E-01      0.145201E-01
      0.150000E-01      0.142267E-01
      0.200000E-01      0.138264E-01
      0.250000E-01      0.133294E-01
      0.300000E-01      0.127478E-01
      0.350000E-01      0.120954E-01
      0.400000E-01      0.113871E-01
      0.450000E-01      0.106383E-01
      0.500000E-01      0.986444E-02
      0.550000E-01      0.908019E-02
      0.600000E-01      0.829939E-02
      0.650000E-01      0.753441E-02
      0.700000E-01      0.679592E-02
      0.750000E-01      0.609274E-02
      0.800000E-01      0.543169E-02
      0.850000E-01      0.481764E-02
      0.900000E-01      0.425359E-02
      0.950000E-01      0.374083E-02
      0.100000          0.327916E-02
      0.105000          0.286711E-02
      0.110000          0.250227E-02
      0.115000          0.218146E-02
      0.120000          0.190109E-02
      0.125000          0.165731E-02
      0.130000          0.144622E-02
      0.135000          0.126403E-02
      0.140000          0.110719E-02
      0.145000          0.972452E-03
      0.150000          0.856887E-03
      0.155000          0.757933E-03
      0.160000          0.673369E-03
      0.165000          0.601284E-03
      0.170000          0.540040E-03
      0.175000          0.488234E-03
      0.180000          0.444650E-03
      0.185000          0.408225E-03
      0.190000          0.378012E-03
      0.195000          0.353159E-03
      0.200000          0.332889E-03
      0.205000          0.316491E-03
      0.210000          0.303310E-03
      0.215000          0.292751E-03
      0.220000          0.284276E-03
      0.225000          0.277405E-03
      0.230000          0.271723E-03
      0.235000          0.266872E-03
      0.240000          0.262559E-03
      0.245000          0.258546E-03
      0.250000          0.254648E-03
      0.255000          0.250727E-03
      0.260000          0.246685E-03
      0.265000          0.242457E-03
      0.270000          0.238004E-03
      0.275000          0.233307E-03
      0.280000          0.228360E-03
      0.285000          0.223171E-03
      0.290000          0.217754E-03
      0.295000          0.212131E-03
      0.300000          0.206328E-03
      0.305000          0.200381E-03
      0.310000          0.194331E-03
      0.315000          0.188226E-03
      0.320000          0.182120E-03
      0.325000          0.176077E-03
      0.330000          0.170164E-03
      0.335000          0.164452E-03
      0.340000          0.159011E-03
      0.345000          0.153911E-03
      0.350000          0.149213E-03
      0.355000          0.144971E-03
      0.360000          0.141223E-03
      0.365000          0.137991E-03
      0.370000          0.135281E-03
      0.375000          0.133079E-03
      0.380000          0.131349E-03
      0.385000          0.130041E-03
      0.390000          0.129087E-03
      0.395000          0.128408E-03
      0.400000          0.127914E-03
      0.405000          0.127514E-03
      0.410000          0.127117E-03
      0.415000          0.126635E-03
      0.420000          0.125994E-03
      0.425000          0.125128E-03
      0.430000          0.123989E-03
      0.435000          0.122549E-03
      0.440000          0.120794E-03
      0.445000          0.118729E-03
      0.450000          0.116378E-03
      0.455000          0.113777E-03
      0.460000          0.110973E-03
      0.465000          0.108024E-03
      0.470000          0.104990E-03
      0.475000          0.101935E-03
      0.480000          0.989188E-04
      0.485000          0.959976E-04
      0.490000          0.932200E-04
      0.495000          0.906254E-04
      0.500000          0.882430E-04
