 I_abs(s)[cm^-1]/c[mg/ml]
       0.00000          0.149519E-01
      0.500000E-02      0.148959E-01
      0.100000E-01      0.147291E-01
      0.150000E-01      0.144552E-01
      0.200000E-01      0.140800E-01
      0.250000E-01      0.136117E-01
      0.300000E-01      0.130602E-01
      0.350000E-01      0.124366E-01
      0.400000E-01      0.117536E-01
      0.450000E-01      0.110243E-01
      0.500000E-01      0.102623E-01
      0.550000E-01      0.948101E-02
      0.600000E-01      0.869348E-02
      0.650000E-01      0.791193E-02
      0.700000E-01      0.714752E-02
      0.750000E-01      0.641008E-02
      0.800000E-01      0.570793E-02
      0.850000E-01      0.504783E-02
      0.900000E-01      0.443487E-02
      0.950000E-01      0.387251E-02
      0.100000          0.336264E-02
      0.105000          0.290574E-02
      0.110000          0.250098E-02
      0.115000          0.214645E-02
      0.120000          0.183935E-02
      0.125000          0.157619E-02
      0.130000          0.135300E-02
      0.135000          0.116557E-02
      0.140000          0.100955E-02
      0.145000          0.880693E-03
      0.150000          0.774909E-03
      0.155000          0.688418E-03
      0.160000          0.617800E-03
      0.165000          0.560042E-03
      0.170000          0.512559E-03
      0.175000          0.473186E-03
      0.180000          0.440163E-03
      0.185000          0.412096E-03
      0.190000          0.387915E-03
      0.195000          0.366822E-03
      0.200000          0.348241E-03
      0.205000          0.331768E-03
      0.210000          0.317126E-03
      0.215000          0.304122E-03
      0.220000          0.292616E-03
      0.225000          0.282494E-03
      0.230000          0.273647E-03
      0.235000          0.265963E-03
      0.240000          0.259319E-03
      0.245000          0.253577E-03
      0.250000          0.248591E-03
      0.255000          0.244209E-03
      0.260000          0.240281E-03
      0.265000          0.236664E-03
      0.270000          0.233230E-03
      0.275000          0.229871E-03
      0.280000          0.226499E-03
      0.285000          0.223055E-03
      0.290000          0.219502E-03
      0.295000          0.215828E-03
      0.300000          0.212040E-03
      0.305000          0.208164E-03
      0.310000          0.204235E-03
      0.315000          0.200298E-03
      0.320000          0.196396E-03
      0.325000          0.192573E-03
      0.330000          0.188863E-03
      0.335000          0.185293E-03
      0.340000          0.181879E-03
      0.345000          0.178621E-03
      0.350000          0.175511E-03
      0.355000          0.172529E-03
      0.360000          0.169646E-03
      0.365000          0.166825E-03
      0.370000          0.164030E-03
      0.375000          0.161220E-03
      0.380000          0.158361E-03
      0.385000          0.155421E-03
      0.390000          0.152378E-03
      0.395000          0.149218E-03
      0.400000          0.145939E-03
      0.405000          0.142547E-03
      0.410000          0.139060E-03
      0.415000          0.135504E-03
      0.420000          0.131913E-03
      0.425000          0.128326E-03
      0.430000          0.124783E-03
      0.435000          0.121328E-03
      0.440000          0.118001E-03
      0.445000          0.114837E-03
      0.450000          0.111869E-03
      0.455000          0.109119E-03
      0.460000          0.106602E-03
      0.465000          0.104325E-03
      0.470000          0.102285E-03
      0.475000          0.100472E-03
      0.480000          0.988688E-04
      0.485000          0.974508E-04
      0.490000          0.961896E-04
      0.495000          0.950536E-04
      0.500000          0.940098E-04
