 I_abs(s)[cm^-1]/c[mg/ml]
       0.00000          0.147995E-01
      0.500000E-02      0.147490E-01
      0.100000E-01      0.145983E-01
      0.150000E-01      0.143505E-01
      0.200000E-01      0.140106E-01
      0.250000E-01      0.135852E-01
      0.300000E-01      0.130826E-01
      0.350000E-01      0.125122E-01
      0.400000E-01      0.118846E-01
      0.450000E-01      0.112111E-01
      0.500000E-01      0.105032E-01
      0.550000E-01      0.977261E-02
      0.600000E-01      0.903081E-02
      0.650000E-01      0.828870E-02
      0.700000E-01      0.755641E-02
      0.750000E-01      0.684311E-02
      0.800000E-01      0.615679E-02
      0.850000E-01      0.550418E-02
      0.900000E-01      0.489068E-02
      0.950000E-01      0.432030E-02
      0.100000          0.379575E-02
      0.105000          0.331844E-02
      0.110000          0.288864E-02
      0.115000          0.250557E-02
      0.120000          0.216756E-02
      0.125000          0.187220E-02
      0.130000          0.161654E-02
      0.135000          0.139722E-02
      0.140000          0.121065E-02
      0.145000          0.105313E-02
      0.150000          0.921012E-03
      0.155000          0.810755E-03
      0.160000          0.719057E-03
      0.165000          0.642892E-03
      0.170000          0.579556E-03
      0.175000          0.526690E-03
      0.180000          0.482281E-03
      0.185000          0.444654E-03
      0.190000          0.412446E-03
      0.195000          0.384578E-03
      0.200000          0.360216E-03
      0.205000          0.338734E-03
      0.210000          0.319674E-03
      0.215000          0.302707E-03
      0.220000          0.287601E-03
      0.225000          0.274190E-03
      0.230000          0.262347E-03
      0.235000          0.251971E-03
      0.240000          0.242964E-03
      0.245000          0.235228E-03
      0.250000          0.228657E-03
      0.255000          0.223133E-03
      0.260000          0.218530E-03
      0.265000          0.214711E-03
      0.270000          0.211537E-03
      0.275000          0.208866E-03
      0.280000          0.206561E-03
      0.285000          0.204491E-03
      0.290000          0.202533E-03
      0.295000          0.200580E-03
      0.300000          0.198536E-03
      0.305000          0.196324E-03
      0.310000          0.193879E-03
      0.315000          0.191156E-03
      0.320000          0.188123E-03
      0.325000          0.184765E-03
      0.330000          0.181081E-03
      0.335000          0.177082E-03
      0.340000          0.172791E-03
      0.345000          0.168242E-03
      0.350000          0.163478E-03
      0.355000          0.158548E-03
      0.360000          0.153507E-03
      0.365000          0.148412E-03
      0.370000          0.143323E-03
      0.375000          0.138299E-03
      0.380000          0.133396E-03
      0.385000          0.128667E-03
      0.390000          0.124159E-03
      0.395000          0.119910E-03
      0.400000          0.115950E-03
      0.405000          0.112302E-03
      0.410000          0.108978E-03
      0.415000          0.105980E-03
      0.420000          0.103302E-03
      0.425000          0.100931E-03
      0.430000          0.988439E-04
      0.435000          0.970156E-04
      0.440000          0.954155E-04
      0.445000          0.940113E-04
      0.450000          0.927700E-04
      0.455000          0.916599E-04
      0.460000          0.906517E-04
      0.465000          0.897195E-04
      0.470000          0.888418E-04
      0.475000          0.880017E-04
      0.480000          0.871873E-04
      0.485000          0.863911E-04
      0.490000          0.856096E-04
      0.495000          0.848429E-04
      0.500000          0.840934E-04
