 I_abs(s)[cm^-1]/c[mg/ml]
       0.00000          0.147755E-01
      0.500000E-02      0.147169E-01
      0.100000E-01      0.145425E-01
      0.150000E-01      0.142571E-01
      0.200000E-01      0.138685E-01
      0.250000E-01      0.133869E-01
      0.300000E-01      0.128247E-01
      0.350000E-01      0.121955E-01
      0.400000E-01      0.115142E-01
      0.450000E-01      0.107958E-01
      0.500000E-01      0.100550E-01
      0.550000E-01      0.930563E-02
      0.600000E-01      0.856032E-02
      0.650000E-01      0.783010E-02
      0.700000E-01      0.712420E-02
      0.750000E-01      0.644994E-02
      0.800000E-01      0.581275E-02
      0.850000E-01      0.521630E-02
      0.900000E-01      0.466264E-02
      0.950000E-01      0.415249E-02
      0.100000          0.368543E-02
      0.105000          0.326022E-02
      0.110000          0.287506E-02
      0.115000          0.252775E-02
      0.120000          0.221596E-02
      0.125000          0.193728E-02
      0.130000          0.168939E-02
      0.135000          0.147005E-02
      0.140000          0.127716E-02
      0.145000          0.110873E-02
      0.150000          0.962844E-03
      0.155000          0.837658E-03
      0.160000          0.731351E-03
      0.165000          0.642106E-03
      0.170000          0.568109E-03
      0.175000          0.507545E-03
      0.180000          0.458623E-03
      0.185000          0.419595E-03
      0.190000          0.388792E-03
      0.195000          0.364657E-03
      0.200000          0.345777E-03
      0.205000          0.330902E-03
      0.210000          0.318969E-03
      0.215000          0.309099E-03
      0.220000          0.300597E-03
      0.225000          0.292936E-03
      0.230000          0.285734E-03
      0.235000          0.278731E-03
      0.240000          0.271757E-03
      0.245000          0.264712E-03
      0.250000          0.257533E-03
      0.255000          0.250187E-03
      0.260000          0.242647E-03
      0.265000          0.234895E-03
      0.270000          0.226913E-03
      0.275000          0.218690E-03
      0.280000          0.210225E-03
      0.285000          0.201534E-03
      0.290000          0.192655E-03
      0.295000          0.183652E-03
      0.300000          0.174615E-03
      0.305000          0.165660E-03
      0.310000          0.156921E-03
      0.315000          0.148544E-03
      0.320000          0.140679E-03
      0.325000          0.133465E-03
      0.330000          0.127026E-03
      0.335000          0.121457E-03
      0.340000          0.116822E-03
      0.345000          0.113148E-03
      0.350000          0.110425E-03
      0.355000          0.108605E-03
      0.360000          0.107611E-03
      0.365000          0.107342E-03
      0.370000          0.107678E-03
      0.375000          0.108492E-03
      0.380000          0.109654E-03
      0.385000          0.111042E-03
      0.390000          0.112545E-03
      0.395000          0.114067E-03
      0.400000          0.115529E-03
      0.405000          0.116871E-03
      0.410000          0.118050E-03
      0.415000          0.119037E-03
      0.420000          0.119814E-03
      0.425000          0.120373E-03
      0.430000          0.120710E-03
      0.435000          0.120826E-03
      0.440000          0.120720E-03
      0.445000          0.120394E-03
      0.450000          0.119848E-03
      0.455000          0.119080E-03
      0.460000          0.118091E-03
      0.465000          0.116882E-03
      0.470000          0.115459E-03
      0.475000          0.113829E-03
      0.480000          0.112005E-03
      0.485000          0.110004E-03
      0.490000          0.107849E-03
      0.495000          0.105567E-03
      0.500000          0.103186E-03
