 I_abs(s)[cm^-1]/c[mg/ml]
       0.00000          0.141195E-01
      0.500000E-02      0.140545E-01
      0.100000E-01      0.138618E-01
      0.150000E-01      0.135479E-01
      0.200000E-01      0.131232E-01
      0.250000E-01      0.126015E-01
      0.300000E-01      0.119989E-01
      0.350000E-01      0.113334E-01
      0.400000E-01      0.106235E-01
      0.450000E-01      0.988739E-02
      0.500000E-01      0.914244E-02
      0.550000E-01      0.840409E-02
      0.600000E-01      0.768559E-02
      0.650000E-01      0.699758E-02
      0.700000E-01      0.634805E-02
      0.750000E-01      0.574234E-02
      0.800000E-01      0.518338E-02
      0.850000E-01      0.467200E-02
      0.900000E-01      0.420735E-02
      0.950000E-01      0.378731E-02
      0.100000          0.340891E-02
      0.105000          0.306870E-02
      0.110000          0.276309E-02
      0.115000          0.248856E-02
      0.120000          0.224184E-02
      0.125000          0.201998E-02
      0.130000          0.182044E-02
      0.135000          0.164101E-02
      0.140000          0.147980E-02
      0.145000          0.133520E-02
      0.150000          0.120577E-02
      0.155000          0.109024E-02
      0.160000          0.987436E-03
      0.165000          0.896260E-03
      0.170000          0.815667E-03
      0.175000          0.744663E-03
      0.180000          0.682298E-03
      0.185000          0.627673E-03
      0.190000          0.579937E-03
      0.195000          0.538293E-03
      0.200000          0.501993E-03
      0.205000          0.470342E-03
      0.210000          0.442694E-03
      0.215000          0.418455E-03
      0.220000          0.397079E-03
      0.225000          0.378074E-03
      0.230000          0.361008E-03
      0.235000          0.345506E-03
      0.240000          0.331262E-03
      0.245000          0.318031E-03
      0.250000          0.305633E-03
      0.255000          0.293946E-03
      0.260000          0.282891E-03
      0.265000          0.272428E-03
      0.270000          0.262532E-03
      0.275000          0.253187E-03
      0.280000          0.244368E-03
      0.285000          0.236034E-03
      0.290000          0.228121E-03
      0.295000          0.220545E-03
      0.300000          0.213203E-03
      0.305000          0.205983E-03
      0.310000          0.198774E-03
      0.315000          0.191478E-03
      0.320000          0.184021E-03
      0.325000          0.176361E-03
      0.330000          0.168492E-03
      0.335000          0.160447E-03
      0.340000          0.152293E-03
      0.345000          0.144127E-03
      0.350000          0.136062E-03
      0.355000          0.128221E-03
      0.360000          0.120727E-03
      0.365000          0.113690E-03
      0.370000          0.107199E-03
      0.375000          0.101324E-03
      0.380000          0.961042E-04
      0.385000          0.915572E-04
      0.390000          0.876757E-04
      0.395000          0.844334E-04
      0.400000          0.817892E-04
      0.405000          0.796919E-04
      0.410000          0.780839E-04
      0.415000          0.769044E-04
      0.420000          0.760920E-04
      0.425000          0.755857E-04
      0.430000          0.753261E-04
      0.435000          0.752559E-04
      0.440000          0.753200E-04
      0.445000          0.754666E-04
      0.450000          0.756479E-04
      0.455000          0.758209E-04
      0.460000          0.759493E-04
      0.465000          0.760044E-04
      0.470000          0.759657E-04
      0.475000          0.758221E-04
      0.480000          0.755709E-04
      0.485000          0.752174E-04
      0.490000          0.747732E-04
      0.495000          0.742540E-04
      0.500000          0.736775E-04
