 I_abs(s)[cm^-1]/c[mg/ml]
       0.00000          0.148556E-01
      0.500000E-02      0.148103E-01
      0.100000E-01      0.146755E-01
      0.150000E-01      0.144534E-01
      0.200000E-01      0.141479E-01
      0.250000E-01      0.137643E-01
      0.300000E-01      0.133092E-01
      0.350000E-01      0.127902E-01
      0.400000E-01      0.122157E-01
      0.450000E-01      0.115951E-01
      0.500000E-01      0.109378E-01
      0.550000E-01      0.102537E-01
      0.600000E-01      0.955243E-02
      0.650000E-01      0.884359E-02
      0.700000E-01      0.813618E-02
      0.750000E-01      0.743859E-02
      0.800000E-01      0.675845E-02
      0.850000E-01      0.610244E-02
      0.900000E-01      0.547631E-02
      0.950000E-01      0.488474E-02
      0.100000          0.433134E-02
      0.105000          0.381870E-02
      0.110000          0.334842E-02
      0.115000          0.292111E-02
      0.120000          0.253658E-02
      0.125000          0.219386E-02
      0.130000          0.189135E-02
      0.135000          0.162691E-02
      0.140000          0.139800E-02
      0.145000          0.120180E-02
      0.150000          0.103529E-02
      0.155000          0.895376E-03
      0.160000          0.778968E-03
      0.165000          0.683054E-03
      0.170000          0.604767E-03
      0.175000          0.541427E-03
      0.180000          0.490580E-03
      0.185000          0.450016E-03
      0.190000          0.417780E-03
      0.195000          0.392175E-03
      0.200000          0.371748E-03
      0.205000          0.355280E-03
      0.210000          0.341768E-03
      0.215000          0.330397E-03
      0.220000          0.320523E-03
      0.225000          0.311642E-03
      0.230000          0.303373E-03
      0.235000          0.295433E-03
      0.240000          0.287616E-03
      0.245000          0.279781E-03
      0.250000          0.271832E-03
      0.255000          0.263711E-03
      0.260000          0.255387E-03
      0.265000          0.246847E-03
      0.270000          0.238096E-03
      0.275000          0.229151E-03
      0.280000          0.220038E-03
      0.285000          0.210793E-03
      0.290000          0.201460E-03
      0.295000          0.192092E-03
      0.300000          0.182746E-03
      0.305000          0.173488E-03
      0.310000          0.164390E-03
      0.315000          0.155525E-03
      0.320000          0.146971E-03
      0.325000          0.138805E-03
      0.330000          0.131101E-03
      0.335000          0.123928E-03
      0.340000          0.117351E-03
      0.345000          0.111421E-03
      0.350000          0.106181E-03
      0.355000          0.101658E-03
      0.360000          0.978659E-04
      0.365000          0.948028E-04
      0.370000          0.924513E-04
      0.375000          0.907789E-04
      0.380000          0.897386E-04
      0.385000          0.892708E-04
      0.390000          0.893050E-04
      0.395000          0.897621E-04
      0.400000          0.905569E-04
      0.405000          0.916009E-04
      0.410000          0.928052E-04
      0.415000          0.940830E-04
      0.420000          0.953523E-04
      0.425000          0.965384E-04
      0.430000          0.975752E-04
      0.435000          0.984078E-04
      0.440000          0.989927E-04
      0.445000          0.992989E-04
      0.450000          0.993080E-04
      0.455000          0.990141E-04
      0.460000          0.984226E-04
      0.465000          0.975498E-04
      0.470000          0.964211E-04
      0.475000          0.950694E-04
      0.480000          0.935334E-04
      0.485000          0.918559E-04
      0.490000          0.900817E-04
      0.495000          0.882559E-04
      0.500000          0.864221E-04
