 I_abs(s)[cm^-1]/c[mg/ml]
       0.00000          0.145129E-01
      0.500000E-02      0.144515E-01
      0.100000E-01      0.142690E-01
      0.150000E-01      0.139700E-01
      0.200000E-01      0.135621E-01
      0.250000E-01      0.130553E-01
      0.300000E-01      0.124620E-01
      0.350000E-01      0.117962E-01
      0.400000E-01      0.110730E-01
      0.450000E-01      0.103082E-01
      0.500000E-01      0.951749E-02
      0.550000E-01      0.871627E-02
      0.600000E-01      0.791884E-02
      0.650000E-01      0.713817E-02
      0.700000E-01      0.638559E-02
      0.750000E-01      0.567053E-02
      0.800000E-01      0.500043E-02
      0.850000E-01      0.438071E-02
      0.900000E-01      0.381484E-02
      0.950000E-01      0.330446E-02
      0.100000          0.284962E-02
      0.105000          0.244894E-02
      0.110000          0.209995E-02
      0.115000          0.179931E-02
      0.120000          0.154308E-02
      0.125000          0.132697E-02
      0.130000          0.114654E-02
      0.135000          0.997399E-03
      0.140000          0.875304E-03
      0.145000          0.776292E-03
      0.150000          0.696733E-03
      0.155000          0.633364E-03
      0.160000          0.583303E-03
      0.165000          0.544030E-03
      0.170000          0.513371E-03
      0.175000          0.489462E-03
      0.180000          0.470719E-03
      0.185000          0.455801E-03
      0.190000          0.443588E-03
      0.195000          0.433145E-03
      0.200000          0.423711E-03
      0.205000          0.414681E-03
      0.210000          0.405587E-03
      0.215000          0.396094E-03
      0.220000          0.385985E-03
      0.225000          0.375149E-03
      0.230000          0.363571E-03
      0.235000          0.351312E-03
      0.240000          0.338501E-03
      0.245000          0.325309E-03
      0.250000          0.311936E-03
      0.255000          0.298596E-03
      0.260000          0.285495E-03
      0.265000          0.272825E-03
      0.270000          0.260749E-03
      0.275000          0.249399E-03
      0.280000          0.238866E-03
      0.285000          0.229206E-03
      0.290000          0.220442E-03
      0.295000          0.212564E-03
      0.300000          0.205542E-03
      0.305000          0.199325E-03
      0.310000          0.193853E-03
      0.315000          0.189060E-03
      0.320000          0.184878E-03
      0.325000          0.181244E-03
      0.330000          0.178094E-03
      0.335000          0.175369E-03
      0.340000          0.173014E-03
      0.345000          0.170976E-03
      0.350000          0.169201E-03
      0.355000          0.167635E-03
      0.360000          0.166224E-03
      0.365000          0.164909E-03
      0.370000          0.163634E-03
      0.375000          0.162344E-03
      0.380000          0.160984E-03
      0.385000          0.159508E-03
      0.390000          0.157873E-03
      0.395000          0.156051E-03
      0.400000          0.154021E-03
      0.405000          0.151776E-03
      0.410000          0.149323E-03
      0.415000          0.146679E-03
      0.420000          0.143870E-03
      0.425000          0.140933E-03
      0.430000          0.137908E-03
      0.435000          0.134840E-03
      0.440000          0.131770E-03
      0.445000          0.128740E-03
      0.450000          0.125786E-03
      0.455000          0.122936E-03
      0.460000          0.120212E-03
      0.465000          0.117629E-03
      0.470000          0.115194E-03
      0.475000          0.112910E-03
      0.480000          0.110771E-03
      0.485000          0.108771E-03
      0.490000          0.106903E-03
      0.495000          0.105155E-03
      0.500000          0.103520E-03
