 I_abs(s)[cm^-1]/c[mg/ml]
       0.00000          0.144338E-01
      0.500000E-02      0.143691E-01
      0.100000E-01      0.141770E-01
      0.150000E-01      0.138628E-01
      0.200000E-01      0.134352E-01
      0.250000E-01      0.129059E-01
      0.300000E-01      0.122890E-01
      0.350000E-01      0.116005E-01
      0.400000E-01      0.108577E-01
      0.450000E-01      0.100782E-01
      0.500000E-01      0.927979E-02
      0.550000E-01      0.847920E-02
      0.600000E-01      0.769193E-02
      0.650000E-01      0.693166E-02
      0.700000E-01      0.620988E-02
      0.750000E-01      0.553566E-02
      0.800000E-01      0.491555E-02
      0.850000E-01      0.435358E-02
      0.900000E-01      0.385140E-02
      0.950000E-01      0.340851E-02
      0.100000          0.302254E-02
      0.105000          0.268963E-02
      0.110000          0.240483E-02
      0.115000          0.216245E-02
      0.120000          0.195649E-02
      0.125000          0.178095E-02
      0.130000          0.163012E-02
      0.135000          0.149883E-02
      0.140000          0.138262E-02
      0.145000          0.127778E-02
      0.150000          0.118146E-02
      0.155000          0.109159E-02
      0.160000          0.100683E-02
      0.165000          0.926443E-03
      0.170000          0.850202E-03
      0.175000          0.778220E-03
      0.180000          0.710825E-03
      0.185000          0.648432E-03
      0.190000          0.591437E-03
      0.195000          0.540134E-03
      0.200000          0.494658E-03
      0.205000          0.454960E-03
      0.210000          0.420794E-03
      0.215000          0.391743E-03
      0.220000          0.367247E-03
      0.225000          0.346643E-03
      0.230000          0.329222E-03
      0.235000          0.314271E-03
      0.240000          0.301120E-03
      0.245000          0.289178E-03
      0.250000          0.277962E-03
      0.255000          0.267106E-03
      0.260000          0.256372E-03
      0.265000          0.245640E-03
      0.270000          0.234893E-03
      0.275000          0.224198E-03
      0.280000          0.213681E-03
      0.285000          0.203500E-03
      0.290000          0.193823E-03
      0.295000          0.184806E-03
      0.300000          0.176575E-03
      0.305000          0.169217E-03
      0.310000          0.162769E-03
      0.315000          0.157224E-03
      0.320000          0.152527E-03
      0.325000          0.148591E-03
      0.330000          0.145298E-03
      0.335000          0.142516E-03
      0.340000          0.140109E-03
      0.345000          0.137944E-03
      0.350000          0.135904E-03
      0.355000          0.133890E-03
      0.360000          0.131829E-03
      0.365000          0.129671E-03
      0.370000          0.127394E-03
      0.375000          0.124994E-03
      0.380000          0.122489E-03
      0.385000          0.119909E-03
      0.390000          0.117293E-03
      0.395000          0.114684E-03
      0.400000          0.112125E-03
      0.405000          0.109657E-03
      0.410000          0.107314E-03
      0.415000          0.105125E-03
      0.420000          0.103108E-03
      0.425000          0.101278E-03
      0.430000          0.996390E-04
      0.435000          0.981932E-04
      0.440000          0.969362E-04
      0.445000          0.958607E-04
      0.450000          0.949567E-04
      0.455000          0.942126E-04
      0.460000          0.936148E-04
      0.465000          0.931485E-04
      0.470000          0.927972E-04
      0.475000          0.925427E-04
      0.480000          0.923649E-04
      0.485000          0.922419E-04
      0.490000          0.921501E-04
      0.495000          0.920644E-04
      0.500000          0.919592E-04
