 I_abs(s)[cm^-1]/c[mg/ml]
       0.00000          0.146798E-01
      0.500000E-02      0.146224E-01
      0.100000E-01      0.144518E-01
      0.150000E-01      0.141721E-01
      0.200000E-01      0.137897E-01
      0.250000E-01      0.133138E-01
      0.300000E-01      0.127550E-01
      0.350000E-01      0.121258E-01
      0.400000E-01      0.114397E-01
      0.450000E-01      0.107109E-01
      0.500000E-01      0.995362E-02
      0.550000E-01      0.918182E-02
      0.600000E-01      0.840876E-02
      0.650000E-01      0.764660E-02
      0.700000E-01      0.690613E-02
      0.750000E-01      0.619658E-02
      0.800000E-01      0.552542E-02
      0.850000E-01      0.489837E-02
      0.900000E-01      0.431941E-02
      0.950000E-01      0.379085E-02
      0.100000          0.331348E-02
      0.105000          0.288677E-02
      0.110000          0.250908E-02
      0.115000          0.217789E-02
      0.120000          0.189000E-02
      0.125000          0.164180E-02
      0.130000          0.142943E-02
      0.135000          0.124898E-02
      0.140000          0.109661E-02
      0.145000          0.968662E-03
      0.150000          0.861738E-03
      0.155000          0.772756E-03
      0.160000          0.698960E-03
      0.165000          0.637920E-03
      0.170000          0.587521E-03
      0.175000          0.545932E-03
      0.180000          0.511577E-03
      0.185000          0.483102E-03
      0.190000          0.459344E-03
      0.195000          0.439303E-03
      0.200000          0.422123E-03
      0.205000          0.407073E-03
      0.210000          0.393537E-03
      0.215000          0.381005E-03
      0.220000          0.369068E-03
      0.225000          0.357414E-03
      0.230000          0.345821E-03
      0.235000          0.334153E-03
      0.240000          0.322350E-03
      0.245000          0.310417E-03
      0.250000          0.298411E-03
      0.255000          0.286428E-03
      0.260000          0.274587E-03
      0.265000          0.263017E-03
      0.270000          0.251839E-03
      0.275000          0.241161E-03
      0.280000          0.231065E-03
      0.285000          0.221605E-03
      0.290000          0.212800E-03
      0.295000          0.204642E-03
      0.300000          0.197096E-03
      0.305000          0.190105E-03
      0.310000          0.183602E-03
      0.315000          0.177514E-03
      0.320000          0.171772E-03
      0.325000          0.166315E-03
      0.330000          0.161098E-03
      0.335000          0.156094E-03
      0.340000          0.151294E-03
      0.345000          0.146707E-03
      0.350000          0.142355E-03
      0.355000          0.138274E-03
      0.360000          0.134503E-03
      0.365000          0.131080E-03
      0.370000          0.128039E-03
      0.375000          0.125404E-03
      0.380000          0.123185E-03
      0.385000          0.121376E-03
      0.390000          0.119955E-03
      0.395000          0.118882E-03
      0.400000          0.118106E-03
      0.405000          0.117561E-03
      0.410000          0.117175E-03
      0.415000          0.116873E-03
      0.420000          0.116581E-03
      0.425000          0.116227E-03
      0.430000          0.115749E-03
      0.435000          0.115095E-03
      0.440000          0.114227E-03
      0.445000          0.113120E-03
      0.450000          0.111761E-03
      0.455000          0.110154E-03
      0.460000          0.108313E-03
      0.465000          0.106263E-03
      0.470000          0.104037E-03
      0.475000          0.101677E-03
      0.480000          0.992253E-04
      0.485000          0.967285E-04
      0.490000          0.942324E-04
      0.495000          0.917810E-04
      0.500000          0.894149E-04
