 I_abs(s)[cm^-1]/c[mg/ml]
       0.00000          0.146798E-01
      0.500000E-02      0.146310E-01
      0.100000E-01      0.144856E-01
      0.150000E-01      0.142465E-01
      0.200000E-01      0.139185E-01
      0.250000E-01      0.135079E-01
      0.300000E-01      0.130226E-01
      0.350000E-01      0.124718E-01
      0.400000E-01      0.118655E-01
      0.450000E-01      0.112144E-01
      0.500000E-01      0.105297E-01
      0.550000E-01      0.982248E-02
      0.600000E-01      0.910369E-02
      0.650000E-01      0.838370E-02
      0.700000E-01      0.767218E-02
      0.750000E-01      0.697784E-02
      0.800000E-01      0.630830E-02
      0.850000E-01      0.566997E-02
      0.900000E-01      0.506799E-02
      0.950000E-01      0.450626E-02
      0.100000          0.398738E-02
      0.105000          0.351282E-02
      0.110000          0.308294E-02
      0.115000          0.269715E-02
      0.120000          0.235403E-02
      0.125000          0.205150E-02
      0.130000          0.178696E-02
      0.135000          0.155745E-02
      0.140000          0.135978E-02
      0.145000          0.119065E-02
      0.150000          0.104679E-02
      0.155000          0.925007E-03
      0.160000          0.822309E-03
      0.165000          0.735919E-03
      0.170000          0.663324E-03
      0.175000          0.602291E-03
      0.180000          0.550870E-03
      0.185000          0.507389E-03
      0.190000          0.470431E-03
      0.195000          0.438818E-03
      0.200000          0.411576E-03
      0.205000          0.387915E-03
      0.210000          0.367193E-03
      0.215000          0.348894E-03
      0.220000          0.332604E-03
      0.225000          0.317987E-03
      0.230000          0.304769E-03
      0.235000          0.292727E-03
      0.240000          0.281674E-03
      0.245000          0.271452E-03
      0.250000          0.261926E-03
      0.255000          0.252982E-03
      0.260000          0.244521E-03
      0.265000          0.236456E-03
      0.270000          0.228716E-03
      0.275000          0.221237E-03
      0.280000          0.213969E-03
      0.285000          0.206866E-03
      0.290000          0.199896E-03
      0.295000          0.193030E-03
      0.300000          0.186247E-03
      0.305000          0.179533E-03
      0.310000          0.172881E-03
      0.315000          0.166288E-03
      0.320000          0.159758E-03
      0.325000          0.153302E-03
      0.330000          0.146934E-03
      0.335000          0.140679E-03
      0.340000          0.134562E-03
      0.345000          0.128617E-03
      0.350000          0.122879E-03
      0.355000          0.117388E-03
      0.360000          0.112183E-03
      0.365000          0.107305E-03
      0.370000          0.102789E-03
      0.375000          0.986681E-04
      0.380000          0.949694E-04
      0.385000          0.917117E-04
      0.390000          0.889053E-04
      0.395000          0.865513E-04
      0.400000          0.846409E-04
      0.405000          0.831564E-04
      0.410000          0.820714E-04
      0.415000          0.813521E-04
      0.420000          0.809588E-04
      0.425000          0.808478E-04
      0.430000          0.809732E-04
      0.435000          0.812888E-04
      0.440000          0.817496E-04
      0.445000          0.823137E-04
      0.450000          0.829430E-04
      0.455000          0.836045E-04
      0.460000          0.842704E-04
      0.465000          0.849183E-04
      0.470000          0.855311E-04
      0.475000          0.860959E-04
      0.480000          0.866038E-04
      0.485000          0.870487E-04
      0.490000          0.874266E-04
      0.495000          0.877344E-04
      0.500000          0.879696E-04
