 I_abs(s)[cm^-1]/c[mg/ml]
       0.00000          0.149760E-01
      0.500000E-02      0.149238E-01
      0.100000E-01      0.147682E-01
      0.150000E-01      0.145122E-01
      0.200000E-01      0.141608E-01
      0.250000E-01      0.137206E-01
      0.300000E-01      0.132000E-01
      0.350000E-01      0.126085E-01
      0.400000E-01      0.119569E-01
      0.450000E-01      0.112566E-01
      0.500000E-01      0.105195E-01
      0.550000E-01      0.975778E-02
      0.600000E-01      0.898324E-02
      0.650000E-01      0.820740E-02
      0.700000E-01      0.744104E-02
      0.750000E-01      0.669400E-02
      0.800000E-01      0.597500E-02
      0.850000E-01      0.529153E-02
      0.900000E-01      0.464967E-02
      0.950000E-01      0.405416E-02
      0.100000          0.350829E-02
      0.105000          0.301399E-02
      0.110000          0.257192E-02
      0.115000          0.218154E-02
      0.120000          0.184128E-02
      0.125000          0.154869E-02
      0.130000          0.130060E-02
      0.135000          0.109329E-02
      0.140000          0.922696E-03
      0.145000          0.784515E-03
      0.150000          0.674412E-03
      0.155000          0.588128E-03
      0.160000          0.521598E-03
      0.165000          0.471048E-03
      0.170000          0.433061E-03
      0.175000          0.404626E-03
      0.180000          0.383162E-03
      0.185000          0.366530E-03
      0.190000          0.353014E-03
      0.195000          0.341302E-03
      0.200000          0.330445E-03
      0.205000          0.319814E-03
      0.210000          0.309053E-03
      0.215000          0.298022E-03
      0.220000          0.286749E-03
      0.225000          0.275379E-03
      0.230000          0.264134E-03
      0.235000          0.253268E-03
      0.240000          0.243038E-03
      0.245000          0.233679E-03
      0.250000          0.225384E-03
      0.255000          0.218291E-03
      0.260000          0.212477E-03
      0.265000          0.207959E-03
      0.270000          0.204691E-03
      0.275000          0.202580E-03
      0.280000          0.201484E-03
      0.285000          0.201230E-03
      0.290000          0.201622E-03
      0.295000          0.202451E-03
      0.300000          0.203508E-03
      0.305000          0.204591E-03
      0.310000          0.205516E-03
      0.315000          0.206117E-03
      0.320000          0.206261E-03
      0.325000          0.205841E-03
      0.330000          0.204784E-03
      0.335000          0.203049E-03
      0.340000          0.200625E-03
      0.345000          0.197531E-03
      0.350000          0.193811E-03
      0.355000          0.189530E-03
      0.360000          0.184770E-03
      0.365000          0.179628E-03
      0.370000          0.174205E-03
      0.375000          0.168608E-03
      0.380000          0.162944E-03
      0.385000          0.157311E-03
      0.390000          0.151803E-03
      0.395000          0.146501E-03
      0.400000          0.141471E-03
      0.405000          0.136767E-03
      0.410000          0.132425E-03
      0.415000          0.128466E-03
      0.420000          0.124897E-03
      0.425000          0.121710E-03
      0.430000          0.118883E-03
      0.435000          0.116388E-03
      0.440000          0.114186E-03
      0.445000          0.112234E-03
      0.450000          0.110486E-03
      0.455000          0.108897E-03
      0.460000          0.107422E-03
      0.465000          0.106024E-03
      0.470000          0.104669E-03
      0.475000          0.103332E-03
      0.480000          0.101994E-03
      0.485000          0.100646E-03
      0.490000          0.992863E-04
      0.495000          0.979205E-04
      0.500000          0.965599E-04
