 I_abs(s)[cm^-1]/c[mg/ml]
       0.00000          0.148075E-01
      0.500000E-02      0.147558E-01
      0.100000E-01      0.146019E-01
      0.150000E-01      0.143489E-01
      0.200000E-01      0.140024E-01
      0.250000E-01      0.135694E-01
      0.300000E-01      0.130588E-01
      0.350000E-01      0.124808E-01
      0.400000E-01      0.118465E-01
      0.450000E-01      0.111679E-01
      0.500000E-01      0.104569E-01
      0.550000E-01      0.972562E-02
      0.600000E-01      0.898563E-02
      0.650000E-01      0.824787E-02
      0.700000E-01      0.752229E-02
      0.750000E-01      0.681769E-02
      0.800000E-01      0.614159E-02
      0.850000E-01      0.550013E-02
      0.900000E-01      0.489804E-02
      0.950000E-01      0.433865E-02
      0.100000          0.382401E-02
      0.105000          0.335494E-02
      0.110000          0.293123E-02
      0.115000          0.255172E-02
      0.120000          0.221456E-02
      0.125000          0.191730E-02
      0.130000          0.165711E-02
      0.135000          0.143090E-02
      0.140000          0.123548E-02
      0.145000          0.106765E-02
      0.150000          0.924301E-03
      0.155000          0.802503E-03
      0.160000          0.699519E-03
      0.165000          0.612860E-03
      0.170000          0.540283E-03
      0.175000          0.479796E-03
      0.180000          0.429643E-03
      0.185000          0.388289E-03
      0.190000          0.354394E-03
      0.195000          0.326795E-03
      0.200000          0.304478E-03
      0.205000          0.286563E-03
      0.210000          0.272282E-03
      0.215000          0.260968E-03
      0.220000          0.252044E-03
      0.225000          0.245011E-03
      0.230000          0.239446E-03
      0.235000          0.234991E-03
      0.240000          0.231355E-03
      0.245000          0.228304E-03
      0.250000          0.225656E-03
      0.255000          0.223280E-03
      0.260000          0.221082E-03
      0.265000          0.219005E-03
      0.270000          0.217018E-03
      0.275000          0.215108E-03
      0.280000          0.213272E-03
      0.285000          0.211515E-03
      0.290000          0.209840E-03
      0.295000          0.208246E-03
      0.300000          0.206724E-03
      0.305000          0.205255E-03
      0.310000          0.203814E-03
      0.315000          0.202366E-03
      0.320000          0.200869E-03
      0.325000          0.199280E-03
      0.330000          0.197554E-03
      0.335000          0.195648E-03
      0.340000          0.193525E-03
      0.345000          0.191155E-03
      0.350000          0.188515E-03
      0.355000          0.185595E-03
      0.360000          0.182391E-03
      0.365000          0.178912E-03
      0.370000          0.175172E-03
      0.375000          0.171195E-03
      0.380000          0.167009E-03
      0.385000          0.162648E-03
      0.390000          0.158145E-03
      0.395000          0.153537E-03
      0.400000          0.148860E-03
      0.405000          0.144148E-03
      0.410000          0.139434E-03
      0.415000          0.134749E-03
      0.420000          0.130122E-03
      0.425000          0.125579E-03
      0.430000          0.121147E-03
      0.435000          0.116849E-03
      0.440000          0.112709E-03
      0.445000          0.108748E-03
      0.450000          0.104989E-03
      0.455000          0.101453E-03
      0.460000          0.981573E-04
      0.465000          0.951211E-04
      0.470000          0.923596E-04
      0.475000          0.898851E-04
      0.480000          0.877067E-04
      0.485000          0.858291E-04
      0.490000          0.842524E-04
      0.495000          0.829714E-04
      0.500000          0.819759E-04
