 I_abs(s)[cm^-1]/c[mg/ml]
       0.00000          0.146320E-01
      0.500000E-02      0.145613E-01
      0.100000E-01      0.143518E-01
      0.150000E-01      0.140110E-01
      0.200000E-01      0.135508E-01
      0.250000E-01      0.129867E-01
      0.300000E-01      0.123371E-01
      0.350000E-01      0.116219E-01
      0.400000E-01      0.108617E-01
      0.450000E-01      0.100765E-01
      0.500000E-01      0.928480E-02
      0.550000E-01      0.850303E-02
      0.600000E-01      0.774494E-02
      0.650000E-01      0.702134E-02
      0.700000E-01      0.634011E-02
      0.750000E-01      0.570632E-02
      0.800000E-01      0.512254E-02
      0.850000E-01      0.458928E-02
      0.900000E-01      0.410541E-02
      0.950000E-01      0.366863E-02
      0.100000          0.327588E-02
      0.105000          0.292370E-02
      0.110000          0.260845E-02
      0.115000          0.232660E-02
      0.120000          0.207477E-02
      0.125000          0.184983E-02
      0.130000          0.164894E-02
      0.135000          0.146952E-02
      0.140000          0.130926E-02
      0.145000          0.116611E-02
      0.150000          0.103825E-02
      0.155000          0.924075E-03
      0.160000          0.822192E-03
      0.165000          0.731413E-03
      0.170000          0.650725E-03
      0.175000          0.579274E-03
      0.180000          0.516335E-03
      0.185000          0.461278E-03
      0.190000          0.413537E-03
      0.195000          0.372575E-03
      0.200000          0.337863E-03
      0.205000          0.308863E-03
      0.210000          0.285015E-03
      0.215000          0.265743E-03
      0.220000          0.250465E-03
      0.225000          0.238602E-03
      0.230000          0.229596E-03
      0.235000          0.222925E-03
      0.240000          0.218111E-03
      0.245000          0.214728E-03
      0.250000          0.212404E-03
      0.255000          0.210816E-03
      0.260000          0.209685E-03
      0.265000          0.208771E-03
      0.270000          0.207867E-03
      0.275000          0.206792E-03
      0.280000          0.205398E-03
      0.285000          0.203564E-03
      0.290000          0.201203E-03
      0.295000          0.198266E-03
      0.300000          0.194745E-03
      0.305000          0.190671E-03
      0.310000          0.186111E-03
      0.315000          0.181168E-03
      0.320000          0.175964E-03
      0.325000          0.170632E-03
      0.330000          0.165304E-03
      0.335000          0.160098E-03
      0.340000          0.155110E-03
      0.345000          0.150405E-03
      0.350000          0.146018E-03
      0.355000          0.141951E-03
      0.360000          0.138181E-03
      0.365000          0.134666E-03
      0.370000          0.131354E-03
      0.375000          0.128192E-03
      0.380000          0.125135E-03
      0.385000          0.122151E-03
      0.390000          0.119228E-03
      0.395000          0.116370E-03
      0.400000          0.113599E-03
      0.405000          0.110949E-03
      0.410000          0.108463E-03
      0.415000          0.106184E-03
      0.420000          0.104151E-03
      0.425000          0.102394E-03
      0.430000          0.100928E-03
      0.435000          0.997520E-04
      0.440000          0.988500E-04
      0.445000          0.981902E-04
      0.450000          0.977289E-04
      0.455000          0.974143E-04
      0.460000          0.971904E-04
      0.465000          0.970016E-04
      0.470000          0.967971E-04
      0.475000          0.965334E-04
      0.480000          0.961776E-04
      0.485000          0.957078E-04
      0.490000          0.951139E-04
      0.495000          0.943966E-04
      0.500000          0.935657E-04
