 I_abs(s)[cm^-1]/c[mg/ml]
       0.00000          0.149921E-01
      0.500000E-02      0.149386E-01
      0.100000E-01      0.147792E-01
      0.150000E-01      0.145175E-01
      0.200000E-01      0.141591E-01
      0.250000E-01      0.137118E-01
      0.300000E-01      0.131850E-01
      0.350000E-01      0.125897E-01
      0.400000E-01      0.119377E-01
      0.450000E-01      0.112415E-01
      0.500000E-01      0.105140E-01
      0.550000E-01      0.976773E-02
      0.600000E-01      0.901491E-02
      0.650000E-01      0.826687E-02
      0.700000E-01      0.753385E-02
      0.750000E-01      0.682477E-02
      0.800000E-01      0.614714E-02
      0.850000E-01      0.550692E-02
      0.900000E-01      0.490854E-02
      0.950000E-01      0.435492E-02
      0.100000          0.384760E-02
      0.105000          0.338682E-02
      0.110000          0.297176E-02
      0.115000          0.260069E-02
      0.120000          0.227117E-02
      0.125000          0.198028E-02
      0.130000          0.172477E-02
      0.135000          0.150127E-02
      0.140000          0.130643E-02
      0.145000          0.113700E-02
      0.150000          0.989989E-03
      0.155000          0.862657E-03
      0.160000          0.752593E-03
      0.165000          0.657699E-03
      0.170000          0.576186E-03
      0.175000          0.506538E-03
      0.180000          0.447475E-03
      0.185000          0.397908E-03
      0.190000          0.356887E-03
      0.195000          0.323564E-03
      0.200000          0.297148E-03
      0.205000          0.276882E-03
      0.210000          0.262015E-03
      0.215000          0.251797E-03
      0.220000          0.245474E-03
      0.225000          0.242294E-03
      0.230000          0.241518E-03
      0.235000          0.242437E-03
      0.240000          0.244385E-03
      0.245000          0.246761E-03
      0.250000          0.249042E-03
      0.255000          0.250793E-03
      0.260000          0.251678E-03
      0.265000          0.251461E-03
      0.270000          0.250004E-03
      0.275000          0.247261E-03
      0.280000          0.243266E-03
      0.285000          0.238123E-03
      0.290000          0.231986E-03
      0.295000          0.225045E-03
      0.300000          0.217512E-03
      0.305000          0.209601E-03
      0.310000          0.201518E-03
      0.315000          0.193451E-03
      0.320000          0.185559E-03
      0.325000          0.177972E-03
      0.330000          0.170783E-03
      0.335000          0.164053E-03
      0.340000          0.157812E-03
      0.345000          0.152062E-03
      0.350000          0.146787E-03
      0.355000          0.141953E-03
      0.360000          0.137516E-03
      0.365000          0.133431E-03
      0.370000          0.129652E-03
      0.375000          0.126136E-03
      0.380000          0.122851E-03
      0.385000          0.119770E-03
      0.390000          0.116876E-03
      0.395000          0.114161E-03
      0.400000          0.111623E-03
      0.405000          0.109264E-03
      0.410000          0.107093E-03
      0.415000          0.105114E-03
      0.420000          0.103335E-03
      0.425000          0.101757E-03
      0.430000          0.100379E-03
      0.435000          0.991928E-04
      0.440000          0.981865E-04
      0.445000          0.973418E-04
      0.450000          0.966357E-04
      0.455000          0.960414E-04
      0.460000          0.955294E-04
      0.465000          0.950690E-04
      0.470000          0.946294E-04
      0.475000          0.941813E-04
      0.480000          0.936978E-04
      0.485000          0.931558E-04
      0.490000          0.925363E-04
      0.495000          0.918255E-04
      0.500000          0.910144E-04
