 I_abs(s)[cm^-1]/c[mg/ml]
       0.00000          0.148235E-01
      0.500000E-02      0.147605E-01
      0.100000E-01      0.145731E-01
      0.150000E-01      0.142664E-01
      0.200000E-01      0.138487E-01
      0.250000E-01      0.133310E-01
      0.300000E-01      0.127266E-01
      0.350000E-01      0.120506E-01
      0.400000E-01      0.113191E-01
      0.450000E-01      0.105487E-01
      0.500000E-01      0.975586E-02
      0.550000E-01      0.895633E-02
      0.600000E-01      0.816450E-02
      0.650000E-01      0.739312E-02
      0.700000E-01      0.665298E-02
      0.750000E-01      0.595269E-02
      0.800000E-01      0.529861E-02
      0.850000E-01      0.469496E-02
      0.900000E-01      0.414389E-02
      0.950000E-01      0.364575E-02
      0.100000          0.319935E-02
      0.105000          0.280227E-02
      0.110000          0.245121E-02
      0.115000          0.214230E-02
      0.120000          0.187137E-02
      0.125000          0.163424E-02
      0.130000          0.142687E-02
      0.135000          0.124556E-02
      0.140000          0.108701E-02
      0.145000          0.948379E-03
      0.150000          0.827272E-03
      0.155000          0.721711E-03
      0.160000          0.630076E-03
      0.165000          0.551032E-03
      0.170000          0.483452E-03
      0.175000          0.426344E-03
      0.180000          0.378788E-03
      0.185000          0.339894E-03
      0.190000          0.308764E-03
      0.195000          0.284482E-03
      0.200000          0.266115E-03
      0.205000          0.252727E-03
      0.210000          0.243396E-03
      0.215000          0.237243E-03
      0.220000          0.233458E-03
      0.225000          0.231319E-03
      0.230000          0.230213E-03
      0.235000          0.229643E-03
      0.240000          0.229232E-03
      0.245000          0.228720E-03
      0.250000          0.227947E-03
      0.255000          0.226839E-03
      0.260000          0.225390E-03
      0.265000          0.223642E-03
      0.270000          0.221659E-03
      0.275000          0.219517E-03
      0.280000          0.217285E-03
      0.285000          0.215017E-03
      0.290000          0.212745E-03
      0.295000          0.210474E-03
      0.300000          0.208191E-03
      0.305000          0.205861E-03
      0.310000          0.203438E-03
      0.315000          0.200869E-03
      0.320000          0.198102E-03
      0.325000          0.195091E-03
      0.330000          0.191802E-03
      0.335000          0.188217E-03
      0.340000          0.184333E-03
      0.345000          0.180166E-03
      0.350000          0.175747E-03
      0.355000          0.171121E-03
      0.360000          0.166344E-03
      0.365000          0.161480E-03
      0.370000          0.156595E-03
      0.375000          0.151756E-03
      0.380000          0.147028E-03
      0.385000          0.142467E-03
      0.390000          0.138123E-03
      0.395000          0.134034E-03
      0.400000          0.130228E-03
      0.405000          0.126720E-03
      0.410000          0.123513E-03
      0.415000          0.120599E-03
      0.420000          0.117959E-03
      0.425000          0.115566E-03
      0.430000          0.113385E-03
      0.435000          0.111380E-03
      0.440000          0.109509E-03
      0.445000          0.107735E-03
      0.450000          0.106022E-03
      0.455000          0.104339E-03
      0.460000          0.102665E-03
      0.465000          0.100985E-03
      0.470000          0.992959E-04
      0.475000          0.976025E-04
      0.480000          0.959188E-04
      0.485000          0.942663E-04
      0.490000          0.926716E-04
      0.495000          0.911645E-04
      0.500000          0.897751E-04
