 I_abs(s)[cm^-1]/c[mg/ml]
       0.00000          0.147835E-01
      0.500000E-02      0.147367E-01
      0.100000E-01      0.145969E-01
      0.150000E-01      0.143668E-01
      0.200000E-01      0.140505E-01
      0.250000E-01      0.136535E-01
      0.300000E-01      0.131827E-01
      0.350000E-01      0.126463E-01
      0.400000E-01      0.120531E-01
      0.450000E-01      0.114130E-01
      0.500000E-01      0.107359E-01
      0.550000E-01      0.100323E-01
      0.600000E-01      0.931241E-02
      0.650000E-01      0.858615E-02
      0.700000E-01      0.786303E-02
      0.750000E-01      0.715183E-02
      0.800000E-01      0.646049E-02
      0.850000E-01      0.579597E-02
      0.900000E-01      0.516417E-02
      0.950000E-01      0.456984E-02
      0.100000          0.401665E-02
      0.105000          0.350710E-02
      0.110000          0.304264E-02
      0.115000          0.262371E-02
      0.120000          0.224984E-02
      0.125000          0.191976E-02
      0.130000          0.163154E-02
      0.135000          0.138269E-02
      0.140000          0.117031E-02
      0.145000          0.991219E-03
      0.150000          0.842051E-03
      0.155000          0.719393E-03
      0.160000          0.619868E-03
      0.165000          0.540213E-03
      0.170000          0.477354E-03
      0.175000          0.428447E-03
      0.180000          0.390920E-03
      0.185000          0.362489E-03
      0.190000          0.341168E-03
      0.195000          0.325261E-03
      0.200000          0.313356E-03
      0.205000          0.304299E-03
      0.210000          0.297171E-03
      0.215000          0.291261E-03
      0.220000          0.286037E-03
      0.225000          0.281112E-03
      0.230000          0.276223E-03
      0.235000          0.271201E-03
      0.240000          0.265950E-03
      0.245000          0.260424E-03
      0.250000          0.254617E-03
      0.255000          0.248546E-03
      0.260000          0.242241E-03
      0.265000          0.235742E-03
      0.270000          0.229091E-03
      0.275000          0.222329E-03
      0.280000          0.215499E-03
      0.285000          0.208641E-03
      0.290000          0.201792E-03
      0.295000          0.194992E-03
      0.300000          0.188279E-03
      0.305000          0.181689E-03
      0.310000          0.175260E-03
      0.315000          0.169030E-03
      0.320000          0.163036E-03
      0.325000          0.157310E-03
      0.330000          0.151886E-03
      0.335000          0.146792E-03
      0.340000          0.142049E-03
      0.345000          0.137676E-03
      0.350000          0.133684E-03
      0.355000          0.130077E-03
      0.360000          0.126851E-03
      0.365000          0.123998E-03
      0.370000          0.121501E-03
      0.375000          0.119337E-03
      0.380000          0.117480E-03
      0.385000          0.115898E-03
      0.390000          0.114557E-03
      0.395000          0.113422E-03
      0.400000          0.112457E-03
      0.405000          0.111625E-03
      0.410000          0.110893E-03
      0.415000          0.110229E-03
      0.420000          0.109603E-03
      0.425000          0.108990E-03
      0.430000          0.108369E-03
      0.435000          0.107723E-03
      0.440000          0.107037E-03
      0.445000          0.106302E-03
      0.450000          0.105513E-03
      0.455000          0.104665E-03
      0.460000          0.103760E-03
      0.465000          0.102800E-03
      0.470000          0.101790E-03
      0.475000          0.100736E-03
      0.480000          0.996459E-04
      0.485000          0.985273E-04
      0.490000          0.973893E-04
      0.495000          0.962406E-04
      0.500000          0.950900E-04
