 I_abs(s)[cm^-1]/c[mg/ml]
       0.00000          0.145684E-01
      0.500000E-02      0.145224E-01
      0.100000E-01      0.143853E-01
      0.150000E-01      0.141599E-01
      0.200000E-01      0.138504E-01
      0.250000E-01      0.134630E-01
      0.300000E-01      0.130049E-01
      0.350000E-01      0.124846E-01
      0.400000E-01      0.119114E-01
      0.450000E-01      0.112954E-01
      0.500000E-01      0.106468E-01
      0.550000E-01      0.997590E-02
      0.600000E-01      0.929272E-02
      0.650000E-01      0.860685E-02
      0.700000E-01      0.792714E-02
      0.750000E-01      0.726160E-02
      0.800000E-01      0.661719E-02
      0.850000E-01      0.599981E-02
      0.900000E-01      0.541420E-02
      0.950000E-01      0.486396E-02
      0.100000          0.435157E-02
      0.105000          0.387848E-02
      0.110000          0.344520E-02
      0.115000          0.305140E-02
      0.120000          0.269605E-02
      0.125000          0.237753E-02
      0.130000          0.209380E-02
      0.135000          0.184252E-02
      0.140000          0.162111E-02
      0.145000          0.142696E-02
      0.150000          0.125740E-02
      0.155000          0.110986E-02
      0.160000          0.981889E-03
      0.165000          0.871191E-03
      0.170000          0.775653E-03
      0.175000          0.693361E-03
      0.180000          0.622596E-03
      0.185000          0.561828E-03
      0.190000          0.509705E-03
      0.195000          0.465033E-03
      0.200000          0.426767E-03
      0.205000          0.393986E-03
      0.210000          0.365881E-03
      0.215000          0.341739E-03
      0.220000          0.320935E-03
      0.225000          0.302917E-03
      0.230000          0.287202E-03
      0.235000          0.273370E-03
      0.240000          0.261060E-03
      0.245000          0.249962E-03
      0.250000          0.239822E-03
      0.255000          0.230429E-03
      0.260000          0.221621E-03
      0.265000          0.213274E-03
      0.270000          0.205301E-03
      0.275000          0.197647E-03
      0.280000          0.190281E-03
      0.285000          0.183196E-03
      0.290000          0.176398E-03
      0.295000          0.169905E-03
      0.300000          0.163739E-03
      0.305000          0.157926E-03
      0.310000          0.152489E-03
      0.315000          0.147446E-03
      0.320000          0.142810E-03
      0.325000          0.138588E-03
      0.330000          0.134776E-03
      0.335000          0.131366E-03
      0.340000          0.128343E-03
      0.345000          0.125684E-03
      0.350000          0.123363E-03
      0.355000          0.121349E-03
      0.360000          0.119612E-03
      0.365000          0.118116E-03
      0.370000          0.116827E-03
      0.375000          0.115712E-03
      0.380000          0.114738E-03
      0.385000          0.113871E-03
      0.390000          0.113083E-03
      0.395000          0.112344E-03
      0.400000          0.111628E-03
      0.405000          0.110909E-03
      0.410000          0.110167E-03
      0.415000          0.109380E-03
      0.420000          0.108531E-03
      0.425000          0.107605E-03
      0.430000          0.106591E-03
      0.435000          0.105481E-03
      0.440000          0.104268E-03
      0.445000          0.102952E-03
      0.450000          0.101536E-03
      0.455000          0.100024E-03
      0.460000          0.984276E-04
      0.465000          0.967588E-04
      0.470000          0.950335E-04
      0.475000          0.932699E-04
      0.480000          0.914877E-04
      0.485000          0.897078E-04
      0.490000          0.879514E-04
      0.495000          0.862389E-04
      0.500000          0.845897E-04
