 I_abs(s)[cm^-1]/c[mg/ml]
       0.00000          0.148476E-01
      0.500000E-02      0.148064E-01
      0.100000E-01      0.146835E-01
      0.150000E-01      0.144809E-01
      0.200000E-01      0.142017E-01
      0.250000E-01      0.138503E-01
      0.300000E-01      0.134320E-01
      0.350000E-01      0.129533E-01
      0.400000E-01      0.124212E-01
      0.450000E-01      0.118435E-01
      0.500000E-01      0.112281E-01
      0.550000E-01      0.105836E-01
      0.600000E-01      0.991826E-02
      0.650000E-01      0.924048E-02
      0.700000E-01      0.855827E-02
      0.750000E-01      0.787925E-02
      0.800000E-01      0.721047E-02
      0.850000E-01      0.655832E-02
      0.900000E-01      0.592847E-02
      0.950000E-01      0.532577E-02
      0.100000          0.475423E-02
      0.105000          0.421702E-02
      0.110000          0.371647E-02
      0.115000          0.325411E-02
      0.120000          0.283070E-02
      0.125000          0.244631E-02
      0.130000          0.210041E-02
      0.135000          0.179189E-02
      0.140000          0.151921E-02
      0.145000          0.128047E-02
      0.150000          0.107346E-02
      0.155000          0.895788E-03
      0.160000          0.744940E-03
      0.165000          0.618338E-03
      0.170000          0.513412E-03
      0.175000          0.427650E-03
      0.180000          0.358638E-03
      0.185000          0.304096E-03
      0.190000          0.261899E-03
      0.195000          0.230098E-03
      0.200000          0.206926E-03
      0.205000          0.190803E-03
      0.210000          0.180333E-03
      0.215000          0.174300E-03
      0.220000          0.171657E-03
      0.225000          0.171513E-03
      0.230000          0.173124E-03
      0.235000          0.175875E-03
      0.240000          0.179269E-03
      0.245000          0.182911E-03
      0.250000          0.186495E-03
      0.255000          0.189793E-03
      0.260000          0.192638E-03
      0.265000          0.194920E-03
      0.270000          0.196572E-03
      0.275000          0.197562E-03
      0.280000          0.197886E-03
      0.285000          0.197560E-03
      0.290000          0.196615E-03
      0.295000          0.195091E-03
      0.300000          0.193036E-03
      0.305000          0.190499E-03
      0.310000          0.187528E-03
      0.315000          0.184171E-03
      0.320000          0.180471E-03
      0.325000          0.176469E-03
      0.330000          0.172201E-03
      0.335000          0.167699E-03
      0.340000          0.162993E-03
      0.345000          0.158111E-03
      0.350000          0.153078E-03
      0.355000          0.147922E-03
      0.360000          0.142670E-03
      0.365000          0.137351E-03
      0.370000          0.131997E-03
      0.375000          0.126643E-03
      0.380000          0.121327E-03
      0.385000          0.116090E-03
      0.390000          0.110976E-03
      0.395000          0.106028E-03
      0.400000          0.101294E-03
      0.405000          0.968165E-04
      0.410000          0.926402E-04
      0.415000          0.888043E-04
      0.420000          0.853441E-04
      0.425000          0.822887E-04
      0.430000          0.796606E-04
      0.435000          0.774741E-04
      0.440000          0.757353E-04
      0.445000          0.744415E-04
      0.450000          0.735812E-04
      0.455000          0.731345E-04
      0.460000          0.730734E-04
      0.465000          0.733631E-04
      0.470000          0.739626E-04
      0.475000          0.748261E-04
      0.480000          0.759046E-04
      0.485000          0.771469E-04
      0.490000          0.785011E-04
      0.495000          0.799164E-04
      0.500000          0.813440E-04
