 I_abs(s)[cm^-1]/c[mg/ml]
       0.00000          0.143628E-01
      0.500000E-02      0.142998E-01
      0.100000E-01      0.141127E-01
      0.150000E-01      0.138065E-01
      0.200000E-01      0.133897E-01
      0.250000E-01      0.128733E-01
      0.300000E-01      0.122709E-01
      0.350000E-01      0.115978E-01
      0.400000E-01      0.108704E-01
      0.450000E-01      0.101056E-01
      0.500000E-01      0.932020E-02
      0.550000E-01      0.853033E-02
      0.600000E-01      0.775077E-02
      0.650000E-01      0.699461E-02
      0.700000E-01      0.627294E-02
      0.750000E-01      0.559459E-02
      0.800000E-01      0.496606E-02
      0.850000E-01      0.439158E-02
      0.900000E-01      0.387318E-02
      0.950000E-01      0.341093E-02
      0.100000          0.300326E-02
      0.105000          0.264721E-02
      0.110000          0.233884E-02
      0.115000          0.207354E-02
      0.120000          0.184636E-02
      0.125000          0.165230E-02
      0.130000          0.148653E-02
      0.135000          0.134461E-02
      0.140000          0.122257E-02
      0.145000          0.111700E-02
      0.150000          0.102505E-02
      0.155000          0.944430E-03
      0.160000          0.873340E-03
      0.165000          0.810385E-03
      0.170000          0.754491E-03
      0.175000          0.704817E-03
      0.180000          0.660673E-03
      0.185000          0.621452E-03
      0.190000          0.586578E-03
      0.195000          0.555477E-03
      0.200000          0.527566E-03
      0.205000          0.502253E-03
      0.210000          0.478954E-03
      0.215000          0.457121E-03
      0.220000          0.436260E-03
      0.225000          0.415966E-03
      0.230000          0.395936E-03
      0.235000          0.375985E-03
      0.240000          0.356050E-03
      0.245000          0.336179E-03
      0.250000          0.316518E-03
      0.255000          0.297289E-03
      0.260000          0.278756E-03
      0.265000          0.261199E-03
      0.270000          0.244884E-03
      0.275000          0.230033E-03
      0.280000          0.216801E-03
      0.285000          0.205269E-03
      0.290000          0.195429E-03
      0.295000          0.187191E-03
      0.300000          0.180390E-03
      0.305000          0.174799E-03
      0.310000          0.170152E-03
      0.315000          0.166164E-03
      0.320000          0.162555E-03
      0.325000          0.159066E-03
      0.330000          0.155484E-03
      0.335000          0.151648E-03
      0.340000          0.147461E-03
      0.345000          0.142891E-03
      0.350000          0.137968E-03
      0.355000          0.132775E-03
      0.360000          0.127437E-03
      0.365000          0.122109E-03
      0.370000          0.116957E-03
      0.375000          0.112143E-03
      0.380000          0.107814E-03
      0.385000          0.104090E-03
      0.390000          0.101050E-03
      0.395000          0.987360E-04
      0.400000          0.971435E-04
      0.405000          0.962285E-04
      0.410000          0.959108E-04
      0.415000          0.960816E-04
      0.420000          0.966128E-04
      0.425000          0.973661E-04
      0.430000          0.982031E-04
      0.435000          0.989944E-04
      0.440000          0.996263E-04
      0.445000          0.100007E-03
      0.450000          0.100072E-03
      0.455000          0.997799E-04
      0.460000          0.991194E-04
      0.465000          0.981018E-04
      0.470000          0.967593E-04
      0.475000          0.951398E-04
      0.480000          0.933020E-04
      0.485000          0.913103E-04
      0.490000          0.892295E-04
      0.495000          0.871211E-04
      0.500000          0.850399E-04
