 I_abs(s)[cm^-1]/c[mg/ml]
       0.00000          0.144971E-01
      0.500000E-02      0.144179E-01
      0.100000E-01      0.141831E-01
      0.150000E-01      0.138003E-01
      0.200000E-01      0.132819E-01
      0.250000E-01      0.126444E-01
      0.300000E-01      0.119073E-01
      0.350000E-01      0.110928E-01
      0.400000E-01      0.102241E-01
      0.450000E-01      0.932478E-02
      0.500000E-01      0.841759E-02
      0.550000E-01      0.752360E-02
      0.600000E-01      0.666143E-02
      0.650000E-01      0.584666E-02
      0.700000E-01      0.509147E-02
      0.750000E-01      0.440444E-02
      0.800000E-01      0.379061E-02
      0.850000E-01      0.325168E-02
      0.900000E-01      0.278640E-02
      0.950000E-01      0.239104E-02
      0.100000          0.205997E-02
      0.105000          0.178623E-02
      0.110000          0.156213E-02
      0.115000          0.137979E-02
      0.120000          0.123158E-02
      0.125000          0.111051E-02
      0.130000          0.101045E-02
      0.135000          0.926301E-03
      0.140000          0.854062E-03
      0.145000          0.790753E-03
      0.150000          0.734326E-03
      0.155000          0.683501E-03
      0.160000          0.637582E-03
      0.165000          0.596265E-03
      0.170000          0.559462E-03
      0.175000          0.527149E-03
      0.180000          0.499247E-03
      0.185000          0.475553E-03
      0.190000          0.455699E-03
      0.195000          0.439160E-03
      0.200000          0.425282E-03
      0.205000          0.413337E-03
      0.210000          0.402585E-03
      0.215000          0.392338E-03
      0.220000          0.382022E-03
      0.225000          0.371213E-03
      0.230000          0.359669E-03
      0.235000          0.347336E-03
      0.240000          0.334331E-03
      0.245000          0.320916E-03
      0.250000          0.307453E-03
      0.255000          0.294358E-03
      0.260000          0.282047E-03
      0.265000          0.270891E-03
      0.270000          0.261173E-03
      0.275000          0.253062E-03
      0.280000          0.246594E-03
      0.285000          0.241677E-03
      0.290000          0.238096E-03
      0.295000          0.235538E-03
      0.300000          0.233625E-03
      0.305000          0.231946E-03
      0.310000          0.230095E-03
      0.315000          0.227705E-03
      0.320000          0.224480E-03
      0.325000          0.220211E-03
      0.330000          0.214793E-03
      0.335000          0.208227E-03
      0.340000          0.200613E-03
      0.345000          0.192136E-03
      0.350000          0.183048E-03
      0.355000          0.173642E-03
      0.360000          0.164228E-03
      0.365000          0.155108E-03
      0.370000          0.146552E-03
      0.375000          0.138780E-03
      0.380000          0.131955E-03
      0.385000          0.126169E-03
      0.390000          0.121449E-03
      0.395000          0.117759E-03
      0.400000          0.115010E-03
      0.405000          0.113075E-03
      0.410000          0.111799E-03
      0.415000          0.111021E-03
      0.420000          0.110582E-03
      0.425000          0.110339E-03
      0.430000          0.110176E-03
      0.435000          0.110006E-03
      0.440000          0.109774E-03
      0.445000          0.109457E-03
      0.450000          0.109058E-03
      0.455000          0.108601E-03
      0.460000          0.108120E-03
      0.465000          0.107654E-03
      0.470000          0.107240E-03
      0.475000          0.106903E-03
      0.480000          0.106654E-03
      0.485000          0.106487E-03
      0.490000          0.106378E-03
      0.495000          0.106288E-03
      0.500000          0.106166E-03
