 I_abs(s)[cm^-1]/c[mg/ml]
       0.00000          0.149439E-01
      0.500000E-02      0.148888E-01
      0.100000E-01      0.147250E-01
      0.150000E-01      0.144561E-01
      0.200000E-01      0.140884E-01
      0.250000E-01      0.136301E-01
      0.300000E-01      0.130912E-01
      0.350000E-01      0.124834E-01
      0.400000E-01      0.118192E-01
      0.450000E-01      0.111117E-01
      0.500000E-01      0.103742E-01
      0.550000E-01      0.961983E-02
      0.600000E-01      0.886087E-02
      0.650000E-01      0.810880E-02
      0.700000E-01      0.737380E-02
      0.750000E-01      0.666465E-02
      0.800000E-01      0.598857E-02
      0.850000E-01      0.535122E-02
      0.900000E-01      0.475667E-02
      0.950000E-01      0.420751E-02
      0.100000          0.370497E-02
      0.105000          0.324909E-02
      0.110000          0.283890E-02
      0.115000          0.247264E-02
      0.120000          0.214791E-02
      0.125000          0.186192E-02
      0.130000          0.161162E-02
      0.135000          0.139384E-02
      0.140000          0.120545E-02
      0.145000          0.104340E-02
      0.150000          0.904811E-03
      0.155000          0.787030E-03
      0.160000          0.687608E-03
      0.165000          0.604331E-03
      0.170000          0.535193E-03
      0.175000          0.478387E-03
      0.180000          0.432278E-03
      0.185000          0.395381E-03
      0.190000          0.366340E-03
      0.195000          0.343913E-03
      0.200000          0.326957E-03
      0.205000          0.314425E-03
      0.210000          0.305359E-03
      0.215000          0.298892E-03
      0.220000          0.294249E-03
      0.225000          0.290753E-03
      0.230000          0.287823E-03
      0.235000          0.284982E-03
      0.240000          0.281851E-03
      0.245000          0.278151E-03
      0.250000          0.273695E-03
      0.255000          0.268383E-03
      0.260000          0.262187E-03
      0.265000          0.255149E-03
      0.270000          0.247358E-03
      0.275000          0.238947E-03
      0.280000          0.230073E-03
      0.285000          0.220908E-03
      0.290000          0.211628E-03
      0.295000          0.202402E-03
      0.300000          0.193386E-03
      0.305000          0.184715E-03
      0.310000          0.176501E-03
      0.315000          0.168825E-03
      0.320000          0.161745E-03
      0.325000          0.155288E-03
      0.330000          0.149457E-03
      0.335000          0.144235E-03
      0.340000          0.139586E-03
      0.345000          0.135460E-03
      0.350000          0.131799E-03
      0.355000          0.128543E-03
      0.360000          0.125630E-03
      0.365000          0.123003E-03
      0.370000          0.120614E-03
      0.375000          0.118423E-03
      0.380000          0.116399E-03
      0.385000          0.114524E-03
      0.390000          0.112786E-03
      0.395000          0.111182E-03
      0.400000          0.109716E-03
      0.405000          0.108391E-03
      0.410000          0.107212E-03
      0.415000          0.106180E-03
      0.420000          0.105291E-03
      0.425000          0.104535E-03
      0.430000          0.103892E-03
      0.435000          0.103337E-03
      0.440000          0.102837E-03
      0.445000          0.102354E-03
      0.450000          0.101846E-03
      0.455000          0.101273E-03
      0.460000          0.100596E-03
      0.465000          0.997809E-04
      0.470000          0.988031E-04
      0.475000          0.976473E-04
      0.480000          0.963100E-04
      0.485000          0.947999E-04
      0.490000          0.931376E-04
      0.495000          0.913546E-04
      0.500000          0.894916E-04
