 I_abs(s)[cm^-1]/c[mg/ml]
       0.00000          0.147515E-01
      0.500000E-02      0.146971E-01
      0.100000E-01      0.145350E-01
      0.150000E-01      0.142689E-01
      0.200000E-01      0.139050E-01
      0.250000E-01      0.134514E-01
      0.300000E-01      0.129182E-01
      0.350000E-01      0.123166E-01
      0.400000E-01      0.116591E-01
      0.450000E-01      0.109587E-01
      0.500000E-01      0.102286E-01
      0.550000E-01      0.948172E-02
      0.600000E-01      0.873035E-02
      0.650000E-01      0.798585E-02
      0.700000E-01      0.725837E-02
      0.750000E-01      0.655668E-02
      0.800000E-01      0.588801E-02
      0.850000E-01      0.525805E-02
      0.900000E-01      0.467093E-02
      0.950000E-01      0.412928E-02
      0.100000          0.363441E-02
      0.105000          0.318641E-02
      0.110000          0.278435E-02
      0.115000          0.242647E-02
      0.120000          0.211037E-02
      0.125000          0.183321E-02
      0.130000          0.159185E-02
      0.135000          0.138301E-02
      0.140000          0.120339E-02
      0.145000          0.104979E-02
      0.150000          0.919124E-03
      0.155000          0.808544E-03
      0.160000          0.715409E-03
      0.165000          0.637323E-03
      0.170000          0.572134E-03
      0.175000          0.517920E-03
      0.180000          0.472981E-03
      0.185000          0.435815E-03
      0.190000          0.405107E-03
      0.195000          0.379707E-03
      0.200000          0.358621E-03
      0.205000          0.340987E-03
      0.210000          0.326074E-03
      0.215000          0.313265E-03
      0.220000          0.302046E-03
      0.225000          0.292002E-03
      0.230000          0.282802E-03
      0.235000          0.274191E-03
      0.240000          0.265981E-03
      0.245000          0.258039E-03
      0.250000          0.250278E-03
      0.255000          0.242644E-03
      0.260000          0.235113E-03
      0.265000          0.227676E-03
      0.270000          0.220340E-03
      0.275000          0.213114E-03
      0.280000          0.206015E-03
      0.285000          0.199056E-03
      0.290000          0.192254E-03
      0.295000          0.185623E-03
      0.300000          0.179179E-03
      0.305000          0.172938E-03
      0.310000          0.166919E-03
      0.315000          0.161145E-03
      0.320000          0.155638E-03
      0.325000          0.150426E-03
      0.330000          0.145537E-03
      0.335000          0.141000E-03
      0.340000          0.136841E-03
      0.345000          0.133083E-03
      0.350000          0.129744E-03
      0.355000          0.126835E-03
      0.360000          0.124355E-03
      0.365000          0.122297E-03
      0.370000          0.120643E-03
      0.375000          0.119363E-03
      0.380000          0.118421E-03
      0.385000          0.117769E-03
      0.390000          0.117358E-03
      0.395000          0.117131E-03
      0.400000          0.117032E-03
      0.405000          0.117004E-03
      0.410000          0.116994E-03
      0.415000          0.116954E-03
      0.420000          0.116844E-03
      0.425000          0.116629E-03
      0.430000          0.116287E-03
      0.435000          0.115802E-03
      0.440000          0.115170E-03
      0.445000          0.114394E-03
      0.450000          0.113486E-03
      0.455000          0.112466E-03
      0.460000          0.111355E-03
      0.465000          0.110181E-03
      0.470000          0.108971E-03
      0.475000          0.107755E-03
      0.480000          0.106558E-03
      0.485000          0.105403E-03
      0.490000          0.104308E-03
      0.495000          0.103286E-03
      0.500000          0.102342E-03
