 I_abs(s)[cm^-1]/c[mg/ml]
       0.00000          0.141273E-01
      0.500000E-02      0.140587E-01
      0.100000E-01      0.138551E-01
      0.150000E-01      0.135234E-01
      0.200000E-01      0.130746E-01
      0.250000E-01      0.125233E-01
      0.300000E-01      0.118866E-01
      0.350000E-01      0.111837E-01
      0.400000E-01      0.104345E-01
      0.450000E-01      0.965907E-02
      0.500000E-01      0.887616E-02
      0.550000E-01      0.810296E-02
      0.600000E-01      0.735426E-02
      0.650000E-01      0.664210E-02
      0.700000E-01      0.597550E-02
      0.750000E-01      0.536052E-02
      0.800000E-01      0.480035E-02
      0.850000E-01      0.429567E-02
      0.900000E-01      0.384501E-02
      0.950000E-01      0.344528E-02
      0.100000          0.309224E-02
      0.105000          0.278096E-02
      0.110000          0.250629E-02
      0.115000          0.226319E-02
      0.120000          0.204702E-02
      0.125000          0.185371E-02
      0.130000          0.167983E-02
      0.135000          0.152264E-02
      0.140000          0.138003E-02
      0.145000          0.125044E-02
      0.150000          0.113271E-02
      0.155000          0.102599E-02
      0.160000          0.929641E-03
      0.165000          0.843094E-03
      0.170000          0.765802E-03
      0.175000          0.697189E-03
      0.180000          0.636622E-03
      0.185000          0.583412E-03
      0.190000          0.536828E-03
      0.195000          0.496116E-03
      0.200000          0.460534E-03
      0.205000          0.429373E-03
      0.210000          0.401983E-03
      0.215000          0.377787E-03
      0.220000          0.356291E-03
      0.225000          0.337080E-03
      0.230000          0.319820E-03
      0.235000          0.304241E-03
      0.240000          0.290130E-03
      0.245000          0.277317E-03
      0.250000          0.265661E-03
      0.255000          0.255046E-03
      0.260000          0.245369E-03
      0.265000          0.236537E-03
      0.270000          0.228467E-03
      0.275000          0.221079E-03
      0.280000          0.214301E-03
      0.285000          0.208068E-03
      0.290000          0.202319E-03
      0.295000          0.197000E-03
      0.300000          0.192061E-03
      0.305000          0.187454E-03
      0.310000          0.183131E-03
      0.315000          0.179047E-03
      0.320000          0.175152E-03
      0.325000          0.171397E-03
      0.330000          0.167731E-03
      0.335000          0.164104E-03
      0.340000          0.160471E-03
      0.345000          0.156790E-03
      0.350000          0.153031E-03
      0.355000          0.149174E-03
      0.360000          0.145213E-03
      0.365000          0.141157E-03
      0.370000          0.137029E-03
      0.375000          0.132865E-03
      0.380000          0.128713E-03
      0.385000          0.124626E-03
      0.390000          0.120661E-03
      0.395000          0.116872E-03
      0.400000          0.113307E-03
      0.405000          0.110004E-03
      0.410000          0.106988E-03
      0.415000          0.104266E-03
      0.420000          0.101832E-03
      0.425000          0.996625E-04
      0.430000          0.977238E-04
      0.435000          0.959718E-04
      0.440000          0.943574E-04
      0.445000          0.928317E-04
      0.450000          0.913495E-04
      0.455000          0.898740E-04
      0.460000          0.883794E-04
      0.465000          0.868525E-04
      0.470000          0.852938E-04
      0.475000          0.837157E-04
      0.480000          0.821410E-04
      0.485000          0.805991E-04
      0.490000          0.791224E-04
      0.495000          0.777423E-04
      0.500000          0.764852E-04
