 I_abs(s)[cm^-1]/c[mg/ml]
       0.00000          0.147515E-01
      0.500000E-02      0.147022E-01
      0.100000E-01      0.145552E-01
      0.150000E-01      0.143132E-01
      0.200000E-01      0.139808E-01
      0.250000E-01      0.135642E-01
      0.300000E-01      0.130710E-01
      0.350000E-01      0.125101E-01
      0.400000E-01      0.118914E-01
      0.450000E-01      0.112253E-01
      0.500000E-01      0.105231E-01
      0.550000E-01      0.979581E-02
      0.600000E-01      0.905458E-02
      0.650000E-01      0.831010E-02
      0.700000E-01      0.757246E-02
      0.750000E-01      0.685090E-02
      0.800000E-01      0.615369E-02
      0.850000E-01      0.548796E-02
      0.900000E-01      0.485963E-02
      0.950000E-01      0.427334E-02
      0.100000          0.373247E-02
      0.105000          0.323914E-02
      0.110000          0.279431E-02
      0.115000          0.239785E-02
      0.120000          0.204865E-02
      0.125000          0.174479E-02
      0.130000          0.148366E-02
      0.135000          0.126213E-02
      0.140000          0.107668E-02
      0.145000          0.923554E-03
      0.150000          0.798903E-03
      0.155000          0.698900E-03
      0.160000          0.619841E-03
      0.165000          0.558233E-03
      0.170000          0.510859E-03
      0.175000          0.474827E-03
      0.180000          0.447593E-03
      0.185000          0.426979E-03
      0.190000          0.411165E-03
      0.195000          0.398675E-03
      0.200000          0.388353E-03
      0.205000          0.379327E-03
      0.210000          0.370971E-03
      0.215000          0.362872E-03
      0.220000          0.354779E-03
      0.225000          0.346573E-03
      0.230000          0.338229E-03
      0.235000          0.329782E-03
      0.240000          0.321306E-03
      0.245000          0.312886E-03
      0.250000          0.304605E-03
      0.255000          0.296535E-03
      0.260000          0.288724E-03
      0.265000          0.281199E-03
      0.270000          0.273963E-03
      0.275000          0.266996E-03
      0.280000          0.260264E-03
      0.285000          0.253720E-03
      0.290000          0.247310E-03
      0.295000          0.240982E-03
      0.300000          0.234686E-03
      0.305000          0.228381E-03
      0.310000          0.222038E-03
      0.315000          0.215640E-03
      0.320000          0.209182E-03
      0.325000          0.202676E-03
      0.330000          0.196142E-03
      0.335000          0.189611E-03
      0.340000          0.183121E-03
      0.345000          0.176715E-03
      0.350000          0.170437E-03
      0.355000          0.164328E-03
      0.360000          0.158427E-03
      0.365000          0.152767E-03
      0.370000          0.147372E-03
      0.375000          0.142261E-03
      0.380000          0.137440E-03
      0.385000          0.132909E-03
      0.390000          0.128660E-03
      0.395000          0.124677E-03
      0.400000          0.120939E-03
      0.405000          0.117422E-03
      0.410000          0.114098E-03
      0.415000          0.110940E-03
      0.420000          0.107922E-03
      0.425000          0.105022E-03
      0.430000          0.102219E-03
      0.435000          0.994998E-04
      0.440000          0.968554E-04
      0.445000          0.942828E-04
      0.450000          0.917844E-04
      0.455000          0.893680E-04
      0.460000          0.870459E-04
      0.465000          0.848340E-04
      0.470000          0.827504E-04
      0.475000          0.808148E-04
      0.480000          0.790465E-04
      0.485000          0.774637E-04
      0.490000          0.760822E-04
      0.495000          0.749142E-04
      0.500000          0.739676E-04
