 I_abs(s)[cm^-1]/c[mg/ml]
       0.00000          0.144496E-01
      0.500000E-02      0.143995E-01
      0.100000E-01      0.142503E-01
      0.150000E-01      0.140051E-01
      0.200000E-01      0.136691E-01
      0.250000E-01      0.132492E-01
      0.300000E-01      0.127540E-01
      0.350000E-01      0.121931E-01
      0.400000E-01      0.115775E-01
      0.450000E-01      0.109184E-01
      0.500000E-01      0.102278E-01
      0.550000E-01      0.951716E-02
      0.600000E-01      0.879788E-02
      0.650000E-01      0.808062E-02
      0.700000E-01      0.737514E-02
      0.750000E-01      0.669011E-02
      0.800000E-01      0.603295E-02
      0.850000E-01      0.540977E-02
      0.900000E-01      0.482528E-02
      0.950000E-01      0.428285E-02
      0.100000          0.378456E-02
      0.105000          0.333128E-02
      0.110000          0.292282E-02
      0.115000          0.255808E-02
      0.120000          0.223518E-02
      0.125000          0.195169E-02
      0.130000          0.170473E-02
      0.135000          0.149116E-02
      0.140000          0.130773E-02
      0.145000          0.115114E-02
      0.150000          0.101823E-02
      0.155000          0.905960E-03
      0.160000          0.811535E-03
      0.165000          0.732402E-03
      0.170000          0.666276E-03
      0.175000          0.611142E-03
      0.180000          0.565242E-03
      0.185000          0.527055E-03
      0.190000          0.495275E-03
      0.195000          0.468784E-03
      0.200000          0.446623E-03
      0.205000          0.427971E-03
      0.210000          0.412120E-03
      0.215000          0.398460E-03
      0.220000          0.386461E-03
      0.225000          0.375665E-03
      0.230000          0.365681E-03
      0.235000          0.356174E-03
      0.240000          0.346869E-03
      0.245000          0.337542E-03
      0.250000          0.328023E-03
      0.255000          0.318194E-03
      0.260000          0.307982E-03
      0.265000          0.297359E-03
      0.270000          0.286337E-03
      0.275000          0.274959E-03
      0.280000          0.263299E-03
      0.285000          0.251450E-03
      0.290000          0.239519E-03
      0.295000          0.227622E-03
      0.300000          0.215877E-03
      0.305000          0.204397E-03
      0.310000          0.193290E-03
      0.315000          0.182651E-03
      0.320000          0.172561E-03
      0.325000          0.163086E-03
      0.330000          0.154276E-03
      0.335000          0.146164E-03
      0.340000          0.138765E-03
      0.345000          0.132081E-03
      0.350000          0.126099E-03
      0.355000          0.120793E-03
      0.360000          0.116124E-03
      0.365000          0.112048E-03
      0.370000          0.108510E-03
      0.375000          0.105450E-03
      0.380000          0.102807E-03
      0.385000          0.100516E-03
      0.390000          0.985165E-04
      0.395000          0.967473E-04
      0.400000          0.951539E-04
      0.405000          0.936878E-04
      0.410000          0.923083E-04
      0.415000          0.909832E-04
      0.420000          0.896896E-04
      0.425000          0.884141E-04
      0.430000          0.871521E-04
      0.435000          0.859072E-04
      0.440000          0.846899E-04
      0.445000          0.835159E-04
      0.450000          0.824046E-04
      0.455000          0.813767E-04
      0.460000          0.804523E-04
      0.465000          0.796491E-04
      0.470000          0.789807E-04
      0.475000          0.784554E-04
      0.480000          0.780750E-04
      0.485000          0.778344E-04
      0.490000          0.777220E-04
      0.495000          0.777197E-04
      0.500000          0.778041E-04
