 I_abs(s)[cm^-1]/c[mg/ml]
       0.00000          0.145288E-01
      0.500000E-02      0.144769E-01
      0.100000E-01      0.143226E-01
      0.150000E-01      0.140690E-01
      0.200000E-01      0.137216E-01
      0.250000E-01      0.132876E-01
      0.300000E-01      0.127760E-01
      0.350000E-01      0.121971E-01
      0.400000E-01      0.115623E-01
      0.450000E-01      0.108835E-01
      0.500000E-01      0.101732E-01
      0.550000E-01      0.944367E-02
      0.600000E-01      0.870680E-02
      0.650000E-01      0.797384E-02
      0.700000E-01      0.725510E-02
      0.750000E-01      0.655968E-02
      0.800000E-01      0.589536E-02
      0.850000E-01      0.526847E-02
      0.900000E-01      0.468385E-02
      0.950000E-01      0.414489E-02
      0.100000          0.365351E-02
      0.105000          0.321034E-02
      0.110000          0.281483E-02
      0.115000          0.246540E-02
      0.120000          0.215965E-02
      0.125000          0.189452E-02
      0.130000          0.166650E-02
      0.135000          0.147180E-02
      0.140000          0.130651E-02
      0.145000          0.116677E-02
      0.150000          0.104885E-02
      0.155000          0.949284E-03
      0.160000          0.864920E-03
      0.165000          0.792967E-03
      0.170000          0.731016E-03
      0.175000          0.677045E-03
      0.180000          0.629403E-03
      0.185000          0.586776E-03
      0.190000          0.548155E-03
      0.195000          0.512793E-03
      0.200000          0.480153E-03
      0.205000          0.449870E-03
      0.210000          0.421706E-03
      0.215000          0.395512E-03
      0.220000          0.371197E-03
      0.225000          0.348703E-03
      0.230000          0.327981E-03
      0.235000          0.308984E-03
      0.240000          0.291655E-03
      0.245000          0.275920E-03
      0.250000          0.261693E-03
      0.255000          0.248872E-03
      0.260000          0.237345E-03
      0.265000          0.226996E-03
      0.270000          0.217704E-03
      0.275000          0.209350E-03
      0.280000          0.201820E-03
      0.285000          0.195005E-03
      0.290000          0.188806E-03
      0.295000          0.183134E-03
      0.300000          0.177906E-03
      0.305000          0.173052E-03
      0.310000          0.168506E-03
      0.315000          0.164213E-03
      0.320000          0.160125E-03
      0.325000          0.156198E-03
      0.330000          0.152396E-03
      0.335000          0.148690E-03
      0.340000          0.145056E-03
      0.345000          0.141476E-03
      0.350000          0.137939E-03
      0.355000          0.134438E-03
      0.360000          0.130976E-03
      0.365000          0.127559E-03
      0.370000          0.124199E-03
      0.375000          0.120913E-03
      0.380000          0.117721E-03
      0.385000          0.114647E-03
      0.390000          0.111712E-03
      0.395000          0.108942E-03
      0.400000          0.106357E-03
      0.405000          0.103974E-03
      0.410000          0.101809E-03
      0.415000          0.998695E-04
      0.420000          0.981581E-04
      0.425000          0.966717E-04
      0.430000          0.954007E-04
      0.435000          0.943299E-04
      0.440000          0.934391E-04
      0.445000          0.927043E-04
      0.450000          0.920981E-04
      0.455000          0.915917E-04
      0.460000          0.911560E-04
      0.465000          0.907624E-04
      0.470000          0.903847E-04
      0.475000          0.899993E-04
      0.480000          0.895865E-04
      0.485000          0.891308E-04
      0.490000          0.886210E-04
      0.495000          0.880506E-04
      0.500000          0.874170E-04
