 I_abs(s)[cm^-1]/c[mg/ml]
       0.00000          0.145525E-01
      0.500000E-02      0.144948E-01
      0.100000E-01      0.143228E-01
      0.150000E-01      0.140406E-01
      0.200000E-01      0.136548E-01
      0.250000E-01      0.131742E-01
      0.300000E-01      0.126094E-01
      0.350000E-01      0.119728E-01
      0.400000E-01      0.112779E-01
      0.450000E-01      0.105389E-01
      0.500000E-01      0.976999E-02
      0.550000E-01      0.898543E-02
      0.600000E-01      0.819870E-02
      0.650000E-01      0.742232E-02
      0.700000E-01      0.666752E-02
      0.750000E-01      0.594399E-02
      0.800000E-01      0.525975E-02
      0.850000E-01      0.462107E-02
      0.900000E-01      0.403244E-02
      0.950000E-01      0.349666E-02
      0.100000          0.301494E-02
      0.105000          0.258707E-02
      0.110000          0.221161E-02
      0.115000          0.188612E-02
      0.120000          0.160734E-02
      0.125000          0.137149E-02
      0.130000          0.117439E-02
      0.135000          0.101173E-02
      0.140000          0.879160E-03
      0.145000          0.772481E-03
      0.150000          0.687721E-03
      0.155000          0.621214E-03
      0.160000          0.569652E-03
      0.165000          0.530103E-03
      0.170000          0.500020E-03
      0.175000          0.477224E-03
      0.180000          0.459887E-03
      0.185000          0.446496E-03
      0.190000          0.435822E-03
      0.195000          0.426885E-03
      0.200000          0.418919E-03
      0.205000          0.411343E-03
      0.210000          0.403731E-03
      0.215000          0.395787E-03
      0.220000          0.387324E-03
      0.225000          0.378247E-03
      0.230000          0.368536E-03
      0.235000          0.358227E-03
      0.240000          0.347406E-03
      0.245000          0.336190E-03
      0.250000          0.324717E-03
      0.255000          0.313136E-03
      0.260000          0.301596E-03
      0.265000          0.290237E-03
      0.270000          0.279184E-03
      0.275000          0.268539E-03
      0.280000          0.258380E-03
      0.285000          0.248758E-03
      0.290000          0.239697E-03
      0.295000          0.231199E-03
      0.300000          0.223243E-03
      0.305000          0.215795E-03
      0.310000          0.208808E-03
      0.315000          0.202230E-03
      0.320000          0.196013E-03
      0.325000          0.190108E-03
      0.330000          0.184478E-03
      0.335000          0.179092E-03
      0.340000          0.173934E-03
      0.345000          0.168995E-03
      0.350000          0.164276E-03
      0.355000          0.159785E-03
      0.360000          0.155533E-03
      0.365000          0.151533E-03
      0.370000          0.147795E-03
      0.375000          0.144326E-03
      0.380000          0.141126E-03
      0.385000          0.138187E-03
      0.390000          0.135494E-03
      0.395000          0.133026E-03
      0.400000          0.130754E-03
      0.405000          0.128646E-03
      0.410000          0.126666E-03
      0.415000          0.124779E-03
      0.420000          0.122953E-03
      0.425000          0.121160E-03
      0.430000          0.119376E-03
      0.435000          0.117586E-03
      0.440000          0.115781E-03
      0.445000          0.113960E-03
      0.450000          0.112129E-03
      0.455000          0.110299E-03
      0.460000          0.108487E-03
      0.465000          0.106709E-03
      0.470000          0.104986E-03
      0.475000          0.103334E-03
      0.480000          0.101769E-03
      0.485000          0.100302E-03
      0.490000          0.989387E-04
      0.495000          0.976800E-04
      0.500000          0.965206E-04
