 I_abs(s)[cm^-1]/c[mg/ml]
       0.00000          0.144417E-01
      0.500000E-02      0.143698E-01
      0.100000E-01      0.141563E-01
      0.150000E-01      0.138074E-01
      0.200000E-01      0.133330E-01
      0.250000E-01      0.127465E-01
      0.300000E-01      0.120643E-01
      0.350000E-01      0.113045E-01
      0.400000E-01      0.104869E-01
      0.450000E-01      0.963190E-02
      0.500000E-01      0.875950E-02
      0.550000E-01      0.788893E-02
      0.600000E-01      0.703779E-02
      0.650000E-01      0.622158E-02
      0.700000E-01      0.545325E-02
      0.750000E-01      0.474294E-02
      0.800000E-01      0.409789E-02
      0.850000E-01      0.352239E-02
      0.900000E-01      0.301801E-02
      0.950000E-01      0.258379E-02
      0.100000          0.221664E-02
      0.105000          0.191172E-02
      0.110000          0.166290E-02
      0.115000          0.146322E-02
      0.120000          0.130529E-02
      0.125000          0.118173E-02
      0.130000          0.108545E-02
      0.135000          0.101000E-02
      0.140000          0.949674E-03
      0.145000          0.899705E-03
      0.150000          0.856275E-03
      0.155000          0.816516E-03
      0.160000          0.778442E-03
      0.165000          0.740842E-03
      0.170000          0.703151E-03
      0.175000          0.665302E-03
      0.180000          0.627579E-03
      0.185000          0.590480E-03
      0.190000          0.554596E-03
      0.195000          0.520506E-03
      0.200000          0.488708E-03
      0.205000          0.459568E-03
      0.210000          0.433293E-03
      0.215000          0.409927E-03
      0.220000          0.389367E-03
      0.225000          0.371383E-03
      0.230000          0.355655E-03
      0.235000          0.341810E-03
      0.240000          0.329450E-03
      0.245000          0.318193E-03
      0.250000          0.307689E-03
      0.255000          0.297648E-03
      0.260000          0.287843E-03
      0.265000          0.278117E-03
      0.270000          0.268384E-03
      0.275000          0.258616E-03
      0.280000          0.248836E-03
      0.285000          0.239108E-03
      0.290000          0.229520E-03
      0.295000          0.220173E-03
      0.300000          0.211172E-03
      0.305000          0.202615E-03
      0.310000          0.194588E-03
      0.315000          0.187156E-03
      0.320000          0.180368E-03
      0.325000          0.174247E-03
      0.330000          0.168798E-03
      0.335000          0.164004E-03
      0.340000          0.159833E-03
      0.345000          0.156233E-03
      0.350000          0.153145E-03
      0.355000          0.150497E-03
      0.360000          0.148213E-03
      0.365000          0.146213E-03
      0.370000          0.144416E-03
      0.375000          0.142746E-03
      0.380000          0.141132E-03
      0.385000          0.139512E-03
      0.390000          0.137834E-03
      0.395000          0.136059E-03
      0.400000          0.134161E-03
      0.405000          0.132130E-03
      0.410000          0.129968E-03
      0.415000          0.127690E-03
      0.420000          0.125322E-03
      0.425000          0.122899E-03
      0.430000          0.120461E-03
      0.435000          0.118050E-03
      0.440000          0.115706E-03
      0.445000          0.113468E-03
      0.450000          0.111363E-03
      0.455000          0.109412E-03
      0.460000          0.107625E-03
      0.465000          0.106000E-03
      0.470000          0.104525E-03
      0.475000          0.103177E-03
      0.480000          0.101927E-03
      0.485000          0.100738E-03
      0.490000          0.995741E-04
      0.495000          0.983970E-04
      0.500000          0.971729E-04
