 I_abs(s)[cm^-1]/c[mg/ml]
       0.00000          0.148315E-01
      0.500000E-02      0.147877E-01
      0.100000E-01      0.146570E-01
      0.150000E-01      0.144416E-01
      0.200000E-01      0.141450E-01
      0.250000E-01      0.137723E-01
      0.300000E-01      0.133294E-01
      0.350000E-01      0.128235E-01
      0.400000E-01      0.122626E-01
      0.450000E-01      0.116551E-01
      0.500000E-01      0.110101E-01
      0.550000E-01      0.103370E-01
      0.600000E-01      0.964503E-02
      0.650000E-01      0.894325E-02
      0.700000E-01      0.824043E-02
      0.750000E-01      0.754480E-02
      0.800000E-01      0.686389E-02
      0.850000E-01      0.620446E-02
      0.900000E-01      0.557236E-02
      0.950000E-01      0.497252E-02
      0.100000          0.440889E-02
      0.105000          0.388444E-02
      0.110000          0.340117E-02
      0.115000          0.296018E-02
      0.120000          0.256173E-02
      0.125000          0.220530E-02
      0.130000          0.188969E-02
      0.135000          0.161315E-02
      0.140000          0.137345E-02
      0.145000          0.116799E-02
      0.150000          0.993916E-03
      0.155000          0.848225E-03
      0.160000          0.727834E-03
      0.165000          0.629668E-03
      0.170000          0.550737E-03
      0.175000          0.488186E-03
      0.180000          0.439344E-03
      0.185000          0.401760E-03
      0.190000          0.373222E-03
      0.195000          0.351775E-03
      0.200000          0.335721E-03
      0.205000          0.323618E-03
      0.210000          0.314267E-03
      0.215000          0.306698E-03
      0.220000          0.300147E-03
      0.225000          0.294039E-03
      0.230000          0.287959E-03
      0.235000          0.281631E-03
      0.240000          0.274893E-03
      0.245000          0.267675E-03
      0.250000          0.259975E-03
      0.255000          0.251846E-03
      0.260000          0.243373E-03
      0.265000          0.234664E-03
      0.270000          0.225835E-03
      0.275000          0.217003E-03
      0.280000          0.208276E-03
      0.285000          0.199753E-03
      0.290000          0.191516E-03
      0.295000          0.183631E-03
      0.300000          0.176148E-03
      0.305000          0.169098E-03
      0.310000          0.162500E-03
      0.315000          0.156359E-03
      0.320000          0.150668E-03
      0.325000          0.145414E-03
      0.330000          0.140574E-03
      0.335000          0.136124E-03
      0.340000          0.132035E-03
      0.345000          0.128280E-03
      0.350000          0.124828E-03
      0.355000          0.121654E-03
      0.360000          0.118731E-03
      0.365000          0.116037E-03
      0.370000          0.113549E-03
      0.375000          0.111250E-03
      0.380000          0.109121E-03
      0.385000          0.107148E-03
      0.390000          0.105317E-03
      0.395000          0.103614E-03
      0.400000          0.102027E-03
      0.405000          0.100544E-03
      0.410000          0.991540E-04
      0.415000          0.978451E-04
      0.420000          0.966065E-04
      0.425000          0.954277E-04
      0.430000          0.942986E-04
      0.435000          0.932102E-04
      0.440000          0.921544E-04
      0.445000          0.911246E-04
      0.450000          0.901156E-04
      0.455000          0.891238E-04
      0.460000          0.881474E-04
      0.465000          0.871865E-04
      0.470000          0.862428E-04
      0.475000          0.853193E-04
      0.480000          0.844205E-04
      0.485000          0.835516E-04
      0.490000          0.827183E-04
      0.495000          0.819262E-04
      0.500000          0.811809E-04
