 I_abs(s)[cm^-1]/c[mg/ml]
       0.00000          0.147515E-01
      0.500000E-02      0.147106E-01
      0.100000E-01      0.145884E-01
      0.150000E-01      0.143868E-01
      0.200000E-01      0.141092E-01
      0.250000E-01      0.137597E-01
      0.300000E-01      0.133440E-01
      0.350000E-01      0.128682E-01
      0.400000E-01      0.123396E-01
      0.450000E-01      0.117658E-01
      0.500000E-01      0.111549E-01
      0.550000E-01      0.105153E-01
      0.600000E-01      0.985536E-02
      0.650000E-01      0.918338E-02
      0.700000E-01      0.850735E-02
      0.750000E-01      0.783481E-02
      0.800000E-01      0.717277E-02
      0.850000E-01      0.652754E-02
      0.900000E-01      0.590471E-02
      0.950000E-01      0.530905E-02
      0.100000          0.474451E-02
      0.105000          0.421417E-02
      0.110000          0.372030E-02
      0.115000          0.326436E-02
      0.120000          0.284708E-02
      0.125000          0.246849E-02
      0.130000          0.212801E-02
      0.135000          0.182453E-02
      0.140000          0.155651E-02
      0.145000          0.132203E-02
      0.150000          0.111892E-02
      0.155000          0.944780E-03
      0.160000          0.797127E-03
      0.165000          0.673400E-03
      0.170000          0.571050E-03
      0.175000          0.487584E-03
      0.180000          0.420600E-03
      0.185000          0.367828E-03
      0.190000          0.327146E-03
      0.195000          0.296602E-03
      0.200000          0.274422E-03
      0.205000          0.259013E-03
      0.210000          0.248963E-03
      0.215000          0.243036E-03
      0.220000          0.240165E-03
      0.225000          0.239441E-03
      0.230000          0.240101E-03
      0.235000          0.241517E-03
      0.240000          0.243183E-03
      0.245000          0.244700E-03
      0.250000          0.245766E-03
      0.255000          0.246162E-03
      0.260000          0.245742E-03
      0.265000          0.244421E-03
      0.270000          0.242165E-03
      0.275000          0.238982E-03
      0.280000          0.234913E-03
      0.285000          0.230027E-03
      0.290000          0.224411E-03
      0.295000          0.218165E-03
      0.300000          0.211396E-03
      0.305000          0.204217E-03
      0.310000          0.196739E-03
      0.315000          0.189070E-03
      0.320000          0.181311E-03
      0.325000          0.173558E-03
      0.330000          0.165895E-03
      0.335000          0.158399E-03
      0.340000          0.151136E-03
      0.345000          0.144162E-03
      0.350000          0.137521E-03
      0.355000          0.131252E-03
      0.360000          0.125381E-03
      0.365000          0.119927E-03
      0.370000          0.114904E-03
      0.375000          0.110315E-03
      0.380000          0.106160E-03
      0.385000          0.102433E-03
      0.390000          0.991209E-04
      0.395000          0.962093E-04
      0.400000          0.936784E-04
      0.405000          0.915052E-04
      0.410000          0.896641E-04
      0.415000          0.881270E-04
      0.420000          0.868640E-04
      0.425000          0.858440E-04
      0.430000          0.850351E-04
      0.435000          0.844048E-04
      0.440000          0.839215E-04
      0.445000          0.835539E-04
      0.450000          0.832724E-04
      0.455000          0.830493E-04
      0.460000          0.828590E-04
      0.465000          0.826788E-04
      0.470000          0.824890E-04
      0.475000          0.822729E-04
      0.480000          0.820173E-04
      0.485000          0.817124E-04
      0.490000          0.813516E-04
      0.495000          0.809313E-04
      0.500000          0.804509E-04
