 I_abs(s)[cm^-1]/c[mg/ml]
       0.00000          0.146161E-01
      0.500000E-02      0.145617E-01
      0.100000E-01      0.143998E-01
      0.150000E-01      0.141340E-01
      0.200000E-01      0.137701E-01
      0.250000E-01      0.133162E-01
      0.300000E-01      0.127818E-01
      0.350000E-01      0.121782E-01
      0.400000E-01      0.115175E-01
      0.450000E-01      0.108128E-01
      0.500000E-01      0.100773E-01
      0.550000E-01      0.932392E-02
      0.600000E-01      0.856540E-02
      0.650000E-01      0.781347E-02
      0.700000E-01      0.707883E-02
      0.750000E-01      0.637083E-02
      0.800000E-01      0.569733E-02
      0.850000E-01      0.506465E-02
      0.900000E-01      0.447746E-02
      0.950000E-01      0.393888E-02
      0.100000          0.345055E-02
      0.105000          0.301272E-02
      0.110000          0.262447E-02
      0.115000          0.228386E-02
      0.120000          0.198815E-02
      0.125000          0.173397E-02
      0.130000          0.151757E-02
      0.135000          0.133496E-02
      0.140000          0.118211E-02
      0.145000          0.105504E-02
      0.150000          0.949976E-03
      0.155000          0.863411E-03
      0.160000          0.792172E-03
      0.165000          0.733443E-03
      0.170000          0.684783E-03
      0.175000          0.644118E-03
      0.180000          0.609713E-03
      0.185000          0.580150E-03
      0.190000          0.554285E-03
      0.195000          0.531208E-03
      0.200000          0.510210E-03
      0.205000          0.490740E-03
      0.210000          0.472375E-03
      0.215000          0.454792E-03
      0.220000          0.437748E-03
      0.225000          0.421058E-03
      0.230000          0.404586E-03
      0.235000          0.388236E-03
      0.240000          0.371944E-03
      0.245000          0.355673E-03
      0.250000          0.339416E-03
      0.255000          0.323188E-03
      0.260000          0.307024E-03
      0.265000          0.290981E-03
      0.270000          0.275130E-03
      0.275000          0.259555E-03
      0.280000          0.244349E-03
      0.285000          0.229609E-03
      0.290000          0.215430E-03
      0.295000          0.201904E-03
      0.300000          0.189115E-03
      0.305000          0.177136E-03
      0.310000          0.166024E-03
      0.315000          0.155824E-03
      0.320000          0.146562E-03
      0.325000          0.138247E-03
      0.330000          0.130874E-03
      0.335000          0.124419E-03
      0.340000          0.118848E-03
      0.345000          0.114112E-03
      0.350000          0.110151E-03
      0.355000          0.106898E-03
      0.360000          0.104279E-03
      0.365000          0.102216E-03
      0.370000          0.100628E-03
      0.375000          0.994342E-04
      0.380000          0.985562E-04
      0.385000          0.979186E-04
      0.390000          0.974515E-04
      0.395000          0.970919E-04
      0.400000          0.967845E-04
      0.405000          0.964833E-04
      0.410000          0.961517E-04
      0.415000          0.957631E-04
      0.420000          0.953006E-04
      0.425000          0.947568E-04
      0.430000          0.941329E-04
      0.435000          0.934373E-04
      0.440000          0.926845E-04
      0.445000          0.918935E-04
      0.450000          0.910858E-04
      0.455000          0.902838E-04
      0.460000          0.895091E-04
      0.465000          0.887808E-04
      0.470000          0.881145E-04
      0.475000          0.875210E-04
      0.480000          0.870059E-04
      0.485000          0.865694E-04
      0.490000          0.862059E-04
      0.495000          0.859053E-04
      0.500000          0.856531E-04
