 I_abs(s)[cm^-1]/c[mg/ml]
       0.00000          0.148075E-01
      0.500000E-02      0.147590E-01
      0.100000E-01      0.146145E-01
      0.150000E-01      0.143767E-01
      0.200000E-01      0.140501E-01
      0.250000E-01      0.136411E-01
      0.300000E-01      0.131570E-01
      0.350000E-01      0.126069E-01
      0.400000E-01      0.120003E-01
      0.450000E-01      0.113477E-01
      0.500000E-01      0.106599E-01
      0.550000E-01      0.994777E-02
      0.600000E-01      0.922195E-02
      0.650000E-01      0.849266E-02
      0.700000E-01      0.776946E-02
      0.750000E-01      0.706102E-02
      0.800000E-01      0.637502E-02
      0.850000E-01      0.571800E-02
      0.900000E-01      0.509532E-02
      0.950000E-01      0.451116E-02
      0.100000          0.396850E-02
      0.105000          0.346920E-02
      0.110000          0.301408E-02
      0.115000          0.260304E-02
      0.120000          0.223517E-02
      0.125000          0.190888E-02
      0.130000          0.162205E-02
      0.135000          0.137217E-02
      0.140000          0.115645E-02
      0.145000          0.971945E-03
      0.150000          0.815666E-03
      0.155000          0.684642E-03
      0.160000          0.576006E-03
      0.165000          0.487034E-03
      0.170000          0.415190E-03
      0.175000          0.358136E-03
      0.180000          0.313749E-03
      0.185000          0.280115E-03
      0.190000          0.255519E-03
      0.195000          0.238438E-03
      0.200000          0.227519E-03
      0.205000          0.221566E-03
      0.210000          0.219520E-03
      0.215000          0.220450E-03
      0.220000          0.223535E-03
      0.225000          0.228058E-03
      0.230000          0.233394E-03
      0.235000          0.239011E-03
      0.240000          0.244457E-03
      0.245000          0.249364E-03
      0.250000          0.253441E-03
      0.255000          0.256473E-03
      0.260000          0.258312E-03
      0.265000          0.258880E-03
      0.270000          0.258153E-03
      0.275000          0.256165E-03
      0.280000          0.252990E-03
      0.285000          0.248738E-03
      0.290000          0.243547E-03
      0.295000          0.237572E-03
      0.300000          0.230974E-03
      0.305000          0.223919E-03
      0.310000          0.216564E-03
      0.315000          0.209057E-03
      0.320000          0.201528E-03
      0.325000          0.194090E-03
      0.330000          0.186837E-03
      0.335000          0.179839E-03
      0.340000          0.173152E-03
      0.345000          0.166810E-03
      0.350000          0.160833E-03
      0.355000          0.155227E-03
      0.360000          0.149989E-03
      0.365000          0.145105E-03
      0.370000          0.140558E-03
      0.375000          0.136325E-03
      0.380000          0.132382E-03
      0.385000          0.128705E-03
      0.390000          0.125269E-03
      0.395000          0.122050E-03
      0.400000          0.119025E-03
      0.405000          0.116175E-03
      0.410000          0.113480E-03
      0.415000          0.110925E-03
      0.420000          0.108495E-03
      0.425000          0.106178E-03
      0.430000          0.103966E-03
      0.435000          0.101851E-03
      0.440000          0.998291E-04
      0.445000          0.979001E-04
      0.450000          0.960647E-04
      0.455000          0.943265E-04
      0.460000          0.926913E-04
      0.465000          0.911661E-04
      0.470000          0.897591E-04
      0.475000          0.884787E-04
      0.480000          0.873326E-04
      0.485000          0.863273E-04
      0.490000          0.854671E-04
      0.495000          0.847536E-04
      0.500000          0.841851E-04
