 I_abs(s)[cm^-1]/c[mg/ml]
       0.00000          0.143313E-01
      0.500000E-02      0.142595E-01
      0.100000E-01      0.140464E-01
      0.150000E-01      0.136988E-01
      0.200000E-01      0.132278E-01
      0.250000E-01      0.126479E-01
      0.300000E-01      0.119767E-01
      0.350000E-01      0.112338E-01
      0.400000E-01      0.104400E-01
      0.450000E-01      0.961619E-02
      0.500000E-01      0.878285E-02
      0.550000E-01      0.795883E-02
      0.600000E-01      0.716088E-02
      0.650000E-01      0.640304E-02
      0.700000E-01      0.569637E-02
      0.750000E-01      0.504868E-02
      0.800000E-01      0.446466E-02
      0.850000E-01      0.394600E-02
      0.900000E-01      0.349171E-02
      0.950000E-01      0.309859E-02
      0.100000          0.276169E-02
      0.105000          0.247487E-02
      0.110000          0.223131E-02
      0.115000          0.202399E-02
      0.120000          0.184614E-02
      0.125000          0.169157E-02
      0.130000          0.155489E-02
      0.135000          0.143172E-02
      0.140000          0.131866E-02
      0.145000          0.121333E-02
      0.150000          0.111423E-02
      0.155000          0.102064E-02
      0.160000          0.932384E-03
      0.165000          0.849706E-03
      0.170000          0.773045E-03
      0.175000          0.702893E-03
      0.180000          0.639666E-03
      0.185000          0.583604E-03
      0.190000          0.534725E-03
      0.195000          0.492799E-03
      0.200000          0.457363E-03
      0.205000          0.427762E-03
      0.210000          0.403200E-03
      0.215000          0.382804E-03
      0.220000          0.365692E-03
      0.225000          0.351027E-03
      0.230000          0.338065E-03
      0.235000          0.326190E-03
      0.240000          0.314932E-03
      0.245000          0.303966E-03
      0.250000          0.293109E-03
      0.255000          0.282291E-03
      0.260000          0.271537E-03
      0.265000          0.260930E-03
      0.270000          0.250585E-03
      0.275000          0.240622E-03
      0.280000          0.231145E-03
      0.285000          0.222228E-03
      0.290000          0.213907E-03
      0.295000          0.206179E-03
      0.300000          0.199007E-03
      0.305000          0.192330E-03
      0.310000          0.186070E-03
      0.315000          0.180148E-03
      0.320000          0.174490E-03
      0.325000          0.169038E-03
      0.330000          0.163756E-03
      0.335000          0.158630E-03
      0.340000          0.153668E-03
      0.345000          0.148895E-03
      0.350000          0.144348E-03
      0.355000          0.140072E-03
      0.360000          0.136105E-03
      0.365000          0.132481E-03
      0.370000          0.129215E-03
      0.375000          0.126310E-03
      0.380000          0.123746E-03
      0.385000          0.121488E-03
      0.390000          0.119485E-03
      0.395000          0.117676E-03
      0.400000          0.115994E-03
      0.405000          0.114373E-03
      0.410000          0.112753E-03
      0.415000          0.111082E-03
      0.420000          0.109325E-03
      0.425000          0.107460E-03
      0.430000          0.105482E-03
      0.435000          0.103403E-03
      0.440000          0.101244E-03
      0.445000          0.990401E-04
      0.450000          0.968300E-04
      0.455000          0.946552E-04
      0.460000          0.925553E-04
      0.465000          0.905651E-04
      0.470000          0.887118E-04
      0.475000          0.870135E-04
      0.480000          0.854786E-04
      0.485000          0.841059E-04
      0.490000          0.828858E-04
      0.495000          0.818018E-04
      0.500000          0.808327E-04
