 I_abs(s)[cm^-1]/c[mg/ml]
       0.00000          0.145922E-01
      0.500000E-02      0.145136E-01
      0.100000E-01      0.142804E-01
      0.150000E-01      0.139004E-01
      0.200000E-01      0.133862E-01
      0.250000E-01      0.127544E-01
      0.300000E-01      0.120247E-01
      0.350000E-01      0.112192E-01
      0.400000E-01      0.103607E-01
      0.450000E-01      0.947222E-02
      0.500000E-01      0.857568E-02
      0.550000E-01      0.769112E-02
      0.600000E-01      0.683603E-02
      0.650000E-01      0.602489E-02
      0.700000E-01      0.526887E-02
      0.750000E-01      0.457586E-02
      0.800000E-01      0.395054E-02
      0.850000E-01      0.339475E-02
      0.900000E-01      0.290783E-02
      0.950000E-01      0.248712E-02
      0.100000          0.212847E-02
      0.105000          0.182666E-02
      0.110000          0.157588E-02
      0.115000          0.137006E-02
      0.120000          0.120318E-02
      0.125000          0.106947E-02
      0.130000          0.963548E-03
      0.135000          0.880521E-03
      0.140000          0.815991E-03
      0.145000          0.766068E-03
      0.150000          0.727357E-03
      0.155000          0.696927E-03
      0.160000          0.672283E-03
      0.165000          0.651344E-03
      0.170000          0.632419E-03
      0.175000          0.614188E-03
      0.180000          0.595684E-03
      0.185000          0.576266E-03
      0.190000          0.555589E-03
      0.195000          0.533571E-03
      0.200000          0.510342E-03
      0.205000          0.486201E-03
      0.210000          0.461557E-03
      0.215000          0.436884E-03
      0.220000          0.412666E-03
      0.225000          0.389360E-03
      0.230000          0.367366E-03
      0.235000          0.346997E-03
      0.240000          0.328480E-03
      0.245000          0.311942E-03
      0.250000          0.297424E-03
      0.255000          0.284887E-03
      0.260000          0.274223E-03
      0.265000          0.265277E-03
      0.270000          0.257849E-03
      0.275000          0.251716E-03
      0.280000          0.246632E-03
      0.285000          0.242342E-03
      0.290000          0.238588E-03
      0.295000          0.235115E-03
      0.300000          0.231678E-03
      0.305000          0.228052E-03
      0.310000          0.224039E-03
      0.315000          0.219481E-03
      0.320000          0.214266E-03
      0.325000          0.208336E-03
      0.330000          0.201692E-03
      0.335000          0.194393E-03
      0.340000          0.186556E-03
      0.345000          0.178343E-03
      0.350000          0.169955E-03
      0.355000          0.161610E-03
      0.360000          0.153530E-03
      0.365000          0.145926E-03
      0.370000          0.138977E-03
      0.375000          0.132818E-03
      0.380000          0.127538E-03
      0.385000          0.123166E-03
      0.390000          0.119680E-03
      0.395000          0.117009E-03
      0.400000          0.115046E-03
      0.405000          0.113654E-03
      0.410000          0.112687E-03
      0.415000          0.111998E-03
      0.420000          0.111454E-03
      0.425000          0.110944E-03
      0.430000          0.110386E-03
      0.435000          0.109728E-03
      0.440000          0.108949E-03
      0.445000          0.108054E-03
      0.450000          0.107070E-03
      0.455000          0.106036E-03
      0.460000          0.104997E-03
      0.465000          0.103996E-03
      0.470000          0.103069E-03
      0.475000          0.102239E-03
      0.480000          0.101515E-03
      0.485000          0.100889E-03
      0.490000          0.100343E-03
      0.495000          0.998437E-04
      0.500000          0.993542E-04
