 I_abs(s)[cm^-1]/c[mg/ml]
       0.00000          0.146957E-01
      0.500000E-02      0.146492E-01
      0.100000E-01      0.145108E-01
      0.150000E-01      0.142829E-01
      0.200000E-01      0.139699E-01
      0.250000E-01      0.135775E-01
      0.300000E-01      0.131129E-01
      0.350000E-01      0.125842E-01
      0.400000E-01      0.120007E-01
      0.450000E-01      0.113722E-01
      0.500000E-01      0.107089E-01
      0.550000E-01      0.100211E-01
      0.600000E-01      0.931895E-02
      0.650000E-01      0.861223E-02
      0.700000E-01      0.791013E-02
      0.750000E-01      0.722106E-02
      0.800000E-01      0.655250E-02
      0.850000E-01      0.591089E-02
      0.900000E-01      0.530156E-02
      0.950000E-01      0.472873E-02
      0.100000          0.419548E-02
      0.105000          0.370380E-02
      0.110000          0.325469E-02
      0.115000          0.284820E-02
      0.120000          0.248360E-02
      0.125000          0.215943E-02
      0.130000          0.187372E-02
      0.135000          0.162404E-02
      0.140000          0.140765E-02
      0.145000          0.122162E-02
      0.150000          0.106295E-02
      0.155000          0.928627E-03
      0.160000          0.815723E-03
      0.165000          0.721449E-03
      0.170000          0.643201E-03
      0.175000          0.578590E-03
      0.180000          0.525460E-03
      0.185000          0.481892E-03
      0.190000          0.446207E-03
      0.195000          0.416949E-03
      0.200000          0.392874E-03
      0.205000          0.372930E-03
      0.210000          0.356236E-03
      0.215000          0.342059E-03
      0.220000          0.329799E-03
      0.225000          0.318963E-03
      0.230000          0.309153E-03
      0.235000          0.300047E-03
      0.240000          0.291390E-03
      0.245000          0.282981E-03
      0.250000          0.274665E-03
      0.255000          0.266327E-03
      0.260000          0.257885E-03
      0.265000          0.249286E-03
      0.270000          0.240506E-03
      0.275000          0.231540E-03
      0.280000          0.222405E-03
      0.285000          0.213137E-03
      0.290000          0.203784E-03
      0.295000          0.194408E-03
      0.300000          0.185082E-03
      0.305000          0.175883E-03
      0.310000          0.166893E-03
      0.315000          0.158196E-03
      0.320000          0.149874E-03
      0.325000          0.142004E-03
      0.330000          0.134657E-03
      0.335000          0.127895E-03
      0.340000          0.121770E-03
      0.345000          0.116322E-03
      0.350000          0.111577E-03
      0.355000          0.107549E-03
      0.360000          0.104236E-03
      0.365000          0.101625E-03
      0.370000          0.996866E-04
      0.375000          0.983826E-04
      0.380000          0.976622E-04
      0.385000          0.974658E-04
      0.390000          0.977266E-04
      0.395000          0.983722E-04
      0.400000          0.993268E-04
      0.405000          0.100513E-03
      0.410000          0.101855E-03
      0.415000          0.103279E-03
      0.420000          0.104713E-03
      0.425000          0.106096E-03
      0.430000          0.107368E-03
      0.435000          0.108481E-03
      0.440000          0.109393E-03
      0.445000          0.110072E-03
      0.450000          0.110495E-03
      0.455000          0.110647E-03
      0.460000          0.110520E-03
      0.465000          0.110117E-03
      0.470000          0.109445E-03
      0.475000          0.108517E-03
      0.480000          0.107352E-03
      0.485000          0.105973E-03
      0.490000          0.104405E-03
      0.495000          0.102674E-03
      0.500000          0.100809E-03
