 I_abs(s)[cm^-1]/c[mg/ml]
       0.00000          0.146559E-01
      0.500000E-02      0.146037E-01
      0.100000E-01      0.144482E-01
      0.150000E-01      0.141928E-01
      0.200000E-01      0.138429E-01
      0.250000E-01      0.134060E-01
      0.300000E-01      0.128911E-01
      0.350000E-01      0.123086E-01
      0.400000E-01      0.116700E-01
      0.450000E-01      0.109874E-01
      0.500000E-01      0.102734E-01
      0.550000E-01      0.954039E-02
      0.600000E-01      0.880030E-02
      0.650000E-01      0.806447E-02
      0.700000E-01      0.734320E-02
      0.750000E-01      0.664561E-02
      0.800000E-01      0.597946E-02
      0.850000E-01      0.535103E-02
      0.900000E-01      0.476511E-02
      0.950000E-01      0.422498E-02
      0.100000          0.373251E-02
      0.105000          0.328822E-02
      0.110000          0.289147E-02
      0.115000          0.254062E-02
      0.120000          0.223317E-02
      0.125000          0.196601E-02
      0.130000          0.173560E-02
      0.135000          0.153810E-02
      0.140000          0.136961E-02
      0.145000          0.122625E-02
      0.150000          0.110434E-02
      0.155000          0.100042E-02
      0.160000          0.911389E-03
      0.165000          0.834507E-03
      0.170000          0.767428E-03
      0.175000          0.708194E-03
      0.180000          0.655222E-03
      0.185000          0.607269E-03
      0.190000          0.563399E-03
      0.195000          0.522932E-03
      0.200000          0.485398E-03
      0.205000          0.450495E-03
      0.210000          0.418040E-03
      0.215000          0.387931E-03
      0.220000          0.360116E-03
      0.225000          0.334566E-03
      0.230000          0.311251E-03
      0.235000          0.290127E-03
      0.240000          0.271130E-03
      0.245000          0.254169E-03
      0.250000          0.239126E-03
      0.255000          0.225861E-03
      0.260000          0.214212E-03
      0.265000          0.204010E-03
      0.270000          0.195077E-03
      0.275000          0.187236E-03
      0.280000          0.180320E-03
      0.285000          0.174171E-03
      0.290000          0.168651E-03
      0.295000          0.163638E-03
      0.300000          0.159033E-03
      0.305000          0.154758E-03
      0.310000          0.150754E-03
      0.315000          0.146982E-03
      0.320000          0.143421E-03
      0.325000          0.140060E-03
      0.330000          0.136902E-03
      0.335000          0.133955E-03
      0.340000          0.131232E-03
      0.345000          0.128746E-03
      0.350000          0.126509E-03
      0.355000          0.124529E-03
      0.360000          0.122807E-03
      0.365000          0.121338E-03
      0.370000          0.120111E-03
      0.375000          0.119105E-03
      0.380000          0.118294E-03
      0.385000          0.117646E-03
      0.390000          0.117125E-03
      0.395000          0.116691E-03
      0.400000          0.116303E-03
      0.405000          0.115921E-03
      0.410000          0.115507E-03
      0.415000          0.115027E-03
      0.420000          0.114452E-03
      0.425000          0.113758E-03
      0.430000          0.112927E-03
      0.435000          0.111950E-03
      0.440000          0.110822E-03
      0.445000          0.109546E-03
      0.450000          0.108129E-03
      0.455000          0.106584E-03
      0.460000          0.104926E-03
      0.465000          0.103177E-03
      0.470000          0.101355E-03
      0.475000          0.994827E-04
      0.480000          0.975818E-04
      0.485000          0.956725E-04
      0.490000          0.937735E-04
      0.495000          0.919016E-04
      0.500000          0.900711E-04
