 I_abs(s)[cm^-1]/c[mg/ml]
       0.00000          0.147835E-01
      0.500000E-02      0.147301E-01
      0.100000E-01      0.145711E-01
      0.150000E-01      0.143102E-01
      0.200000E-01      0.139535E-01
      0.250000E-01      0.135092E-01
      0.300000E-01      0.129870E-01
      0.350000E-01      0.123984E-01
      0.400000E-01      0.117556E-01
      0.450000E-01      0.110714E-01
      0.500000E-01      0.103589E-01
      0.550000E-01      0.963057E-02
      0.600000E-01      0.889851E-02
      0.650000E-01      0.817369E-02
      0.700000E-01      0.746586E-02
      0.750000E-01      0.678335E-02
      0.800000E-01      0.613296E-02
      0.850000E-01      0.551990E-02
      0.900000E-01      0.494786E-02
      0.950000E-01      0.441908E-02
      0.100000          0.393448E-02
      0.105000          0.349385E-02
      0.110000          0.309605E-02
      0.115000          0.273917E-02
      0.120000          0.242077E-02
      0.125000          0.213807E-02
      0.130000          0.188807E-02
      0.135000          0.166776E-02
      0.140000          0.147417E-02
      0.145000          0.130448E-02
      0.150000          0.115606E-02
      0.155000          0.102654E-02
      0.160000          0.913758E-03
      0.165000          0.815811E-03
      0.170000          0.730995E-03
      0.175000          0.657799E-03
      0.180000          0.594877E-03
      0.185000          0.541018E-03
      0.190000          0.495123E-03
      0.195000          0.456189E-03
      0.200000          0.423293E-03
      0.205000          0.395585E-03
      0.210000          0.372280E-03
      0.215000          0.352663E-03
      0.220000          0.336082E-03
      0.225000          0.321954E-03
      0.230000          0.309766E-03
      0.235000          0.299069E-03
      0.240000          0.289483E-03
      0.245000          0.280691E-03
      0.250000          0.272431E-03
      0.255000          0.264495E-03
      0.260000          0.256719E-03
      0.265000          0.248978E-03
      0.270000          0.241179E-03
      0.275000          0.233257E-03
      0.280000          0.225169E-03
      0.285000          0.216895E-03
      0.290000          0.208431E-03
      0.295000          0.199795E-03
      0.300000          0.191017E-03
      0.305000          0.182148E-03
      0.310000          0.173254E-03
      0.315000          0.164415E-03
      0.320000          0.155725E-03
      0.325000          0.147285E-03
      0.330000          0.139202E-03
      0.335000          0.131581E-03
      0.340000          0.124524E-03
      0.345000          0.118121E-03
      0.350000          0.112443E-03
      0.355000          0.107544E-03
      0.360000          0.103452E-03
      0.365000          0.100170E-03
      0.370000          0.976745E-04
      0.375000          0.959180E-04
      0.380000          0.948304E-04
      0.385000          0.943240E-04
      0.390000          0.942980E-04
      0.395000          0.946441E-04
      0.400000          0.952522E-04
      0.405000          0.960161E-04
      0.410000          0.968379E-04
      0.415000          0.976321E-04
      0.420000          0.983288E-04
      0.425000          0.988749E-04
      0.430000          0.992344E-04
      0.435000          0.993884E-04
      0.440000          0.993324E-04
      0.445000          0.990746E-04
      0.450000          0.986325E-04
      0.455000          0.980296E-04
      0.460000          0.972929E-04
      0.465000          0.964494E-04
      0.470000          0.955241E-04
      0.475000          0.945378E-04
      0.480000          0.935068E-04
      0.485000          0.924416E-04
      0.490000          0.913475E-04
      0.495000          0.902255E-04
      0.500000          0.890727E-04
