 I_abs(s)[cm^-1]/c[mg/ml]
       0.00000          0.146081E-01
      0.500000E-02      0.145543E-01
      0.100000E-01      0.143942E-01
      0.150000E-01      0.141316E-01
      0.200000E-01      0.137726E-01
      0.250000E-01      0.133257E-01
      0.300000E-01      0.128008E-01
      0.350000E-01      0.122097E-01
      0.400000E-01      0.115647E-01
      0.450000E-01      0.108792E-01
      0.500000E-01      0.101662E-01
      0.550000E-01      0.943863E-02
      0.600000E-01      0.870879E-02
      0.650000E-01      0.798780E-02
      0.700000E-01      0.728550E-02
      0.750000E-01      0.661026E-02
      0.800000E-01      0.596884E-02
      0.850000E-01      0.536634E-02
      0.900000E-01      0.480626E-02
      0.950000E-01      0.429058E-02
      0.100000          0.381992E-02
      0.105000          0.339370E-02
      0.110000          0.301038E-02
      0.115000          0.266768E-02
      0.120000          0.236277E-02
      0.125000          0.209252E-02
      0.130000          0.185362E-02
      0.135000          0.164280E-02
      0.140000          0.145694E-02
      0.145000          0.129312E-02
      0.150000          0.114873E-02
      0.155000          0.102145E-02
      0.160000          0.909298E-03
      0.165000          0.810572E-03
      0.170000          0.723841E-03
      0.175000          0.647898E-03
      0.180000          0.581711E-03
      0.185000          0.524380E-03
      0.190000          0.475101E-03
      0.195000          0.433124E-03
      0.200000          0.397738E-03
      0.205000          0.368245E-03
      0.210000          0.343956E-03
      0.215000          0.324191E-03
      0.220000          0.308277E-03
      0.225000          0.295563E-03
      0.230000          0.285427E-03
      0.235000          0.277284E-03
      0.240000          0.270604E-03
      0.245000          0.264911E-03
      0.250000          0.259798E-03
      0.255000          0.254923E-03
      0.260000          0.250015E-03
      0.265000          0.244869E-03
      0.270000          0.239344E-03
      0.275000          0.233357E-03
      0.280000          0.226875E-03
      0.285000          0.219910E-03
      0.290000          0.212509E-03
      0.295000          0.204749E-03
      0.300000          0.196727E-03
      0.305000          0.188555E-03
      0.310000          0.180354E-03
      0.315000          0.172246E-03
      0.320000          0.164350E-03
      0.325000          0.156780E-03
      0.330000          0.149633E-03
      0.335000          0.142996E-03
      0.340000          0.136936E-03
      0.345000          0.131500E-03
      0.350000          0.126713E-03
      0.355000          0.122582E-03
      0.360000          0.119092E-03
      0.365000          0.116210E-03
      0.370000          0.113886E-03
      0.375000          0.112059E-03
      0.380000          0.110657E-03
      0.385000          0.109605E-03
      0.390000          0.108824E-03
      0.395000          0.108238E-03
      0.400000          0.107777E-03
      0.405000          0.107380E-03
      0.410000          0.106995E-03
      0.415000          0.106581E-03
      0.420000          0.106108E-03
      0.425000          0.105557E-03
      0.430000          0.104921E-03
      0.435000          0.104199E-03
      0.440000          0.103395E-03
      0.445000          0.102519E-03
      0.450000          0.101584E-03
      0.455000          0.100599E-03
      0.460000          0.995750E-04
      0.465000          0.985195E-04
      0.470000          0.974366E-04
      0.475000          0.963271E-04
      0.480000          0.951887E-04
      0.485000          0.940169E-04
      0.490000          0.928054E-04
      0.495000          0.915471E-04
      0.500000          0.902358E-04
