 I_abs(s)[cm^-1]/c[mg/ml]
       0.00000          0.147515E-01
      0.500000E-02      0.146995E-01
      0.100000E-01      0.145443E-01
      0.150000E-01      0.142893E-01
      0.200000E-01      0.139395E-01
      0.250000E-01      0.135019E-01
      0.300000E-01      0.129851E-01
      0.350000E-01      0.123990E-01
      0.400000E-01      0.117547E-01
      0.450000E-01      0.110639E-01
      0.500000E-01      0.103387E-01
      0.550000E-01      0.959129E-02
      0.600000E-01      0.883364E-02
      0.650000E-01      0.807712E-02
      0.700000E-01      0.733231E-02
      0.750000E-01      0.660875E-02
      0.800000E-01      0.591476E-02
      0.850000E-01      0.525733E-02
      0.900000E-01      0.464205E-02
      0.950000E-01      0.407307E-02
      0.100000          0.355312E-02
      0.105000          0.308361E-02
      0.110000          0.266470E-02
      0.115000          0.229543E-02
      0.120000          0.197389E-02
      0.125000          0.169738E-02
      0.130000          0.146258E-02
      0.135000          0.126574E-02
      0.140000          0.110282E-02
      0.145000          0.969648E-03
      0.150000          0.862077E-03
      0.155000          0.776085E-03
      0.160000          0.707877E-03
      0.165000          0.653964E-03
      0.170000          0.611209E-03
      0.175000          0.576867E-03
      0.180000          0.548598E-03
      0.185000          0.524463E-03
      0.190000          0.502912E-03
      0.195000          0.482756E-03
      0.200000          0.463132E-03
      0.205000          0.443464E-03
      0.210000          0.423423E-03
      0.215000          0.402875E-03
      0.220000          0.381848E-03
      0.225000          0.360481E-03
      0.230000          0.338997E-03
      0.235000          0.317662E-03
      0.240000          0.296761E-03
      0.245000          0.276575E-03
      0.250000          0.257361E-03
      0.255000          0.239340E-03
      0.260000          0.222690E-03
      0.265000          0.207537E-03
      0.270000          0.193958E-03
      0.275000          0.181979E-03
      0.280000          0.171583E-03
      0.285000          0.162711E-03
      0.290000          0.155273E-03
      0.295000          0.149153E-03
      0.300000          0.144217E-03
      0.305000          0.140319E-03
      0.310000          0.137309E-03
      0.315000          0.135042E-03
      0.320000          0.133376E-03
      0.325000          0.132180E-03
      0.330000          0.131338E-03
      0.335000          0.130748E-03
      0.340000          0.130321E-03
      0.345000          0.129987E-03
      0.350000          0.129686E-03
      0.355000          0.129375E-03
      0.360000          0.129018E-03
      0.365000          0.128590E-03
      0.370000          0.128074E-03
      0.375000          0.127456E-03
      0.380000          0.126729E-03
      0.385000          0.125886E-03
      0.390000          0.124925E-03
      0.395000          0.123844E-03
      0.400000          0.122642E-03
      0.405000          0.121321E-03
      0.410000          0.119884E-03
      0.415000          0.118336E-03
      0.420000          0.116686E-03
      0.425000          0.114945E-03
      0.430000          0.113126E-03
      0.435000          0.111248E-03
      0.440000          0.109329E-03
      0.445000          0.107393E-03
      0.450000          0.105463E-03
      0.455000          0.103567E-03
      0.460000          0.101730E-03
      0.465000          0.999769E-04
      0.470000          0.983327E-04
      0.475000          0.968185E-04
      0.480000          0.954524E-04
      0.485000          0.942482E-04
      0.490000          0.932153E-04
      0.495000          0.923576E-04
      0.500000          0.916739E-04
