 I_abs(s)[cm^-1]/c[mg/ml]
       0.00000          0.148957E-01
      0.500000E-02      0.148526E-01
      0.100000E-01      0.147242E-01
      0.150000E-01      0.145126E-01
      0.200000E-01      0.142213E-01
      0.250000E-01      0.138550E-01
      0.300000E-01      0.134196E-01
      0.350000E-01      0.129221E-01
      0.400000E-01      0.123701E-01
      0.450000E-01      0.117720E-01
      0.500000E-01      0.111365E-01
      0.550000E-01      0.104726E-01
      0.600000E-01      0.978915E-02
      0.650000E-01      0.909506E-02
      0.700000E-01      0.839870E-02
      0.750000E-01      0.770800E-02
      0.800000E-01      0.703023E-02
      0.850000E-01      0.637192E-02
      0.900000E-01      0.573876E-02
      0.950000E-01      0.513557E-02
      0.100000          0.456624E-02
      0.105000          0.403377E-02
      0.110000          0.354028E-02
      0.115000          0.308705E-02
      0.120000          0.267456E-02
      0.125000          0.230260E-02
      0.130000          0.197032E-02
      0.135000          0.167634E-02
      0.140000          0.141882E-02
      0.145000          0.119558E-02
      0.150000          0.100416E-02
      0.155000          0.841908E-03
      0.160000          0.706079E-03
      0.165000          0.593878E-03
      0.170000          0.502534E-03
      0.175000          0.429350E-03
      0.180000          0.371750E-03
      0.185000          0.327310E-03
      0.190000          0.293785E-03
      0.195000          0.269132E-03
      0.200000          0.251517E-03
      0.205000          0.239323E-03
      0.210000          0.231151E-03
      0.215000          0.225812E-03
      0.220000          0.222320E-03
      0.225000          0.219876E-03
      0.230000          0.217859E-03
      0.235000          0.215801E-03
      0.240000          0.213374E-03
      0.245000          0.210369E-03
      0.250000          0.206674E-03
      0.255000          0.202262E-03
      0.260000          0.197163E-03
      0.265000          0.191458E-03
      0.270000          0.185258E-03
      0.275000          0.178691E-03
      0.280000          0.171893E-03
      0.285000          0.164999E-03
      0.290000          0.158136E-03
      0.295000          0.151417E-03
      0.300000          0.144939E-03
      0.305000          0.138782E-03
      0.310000          0.133006E-03
      0.315000          0.127657E-03
      0.320000          0.122764E-03
      0.325000          0.118341E-03
      0.330000          0.114394E-03
      0.335000          0.110916E-03
      0.340000          0.107895E-03
      0.345000          0.105315E-03
      0.350000          0.103154E-03
      0.355000          0.101388E-03
      0.360000          0.999914E-04
      0.365000          0.989373E-04
      0.370000          0.981974E-04
      0.375000          0.977428E-04
      0.380000          0.975431E-04
      0.385000          0.975673E-04
      0.390000          0.977836E-04
      0.395000          0.981592E-04
      0.400000          0.986611E-04
      0.405000          0.992564E-04
      0.410000          0.999126E-04
      0.415000          0.100598E-03
      0.420000          0.101284E-03
      0.425000          0.101944E-03
      0.430000          0.102552E-03
      0.435000          0.103090E-03
      0.440000          0.103541E-03
      0.445000          0.103892E-03
      0.450000          0.104137E-03
      0.455000          0.104271E-03
      0.460000          0.104296E-03
      0.465000          0.104214E-03
      0.470000          0.104033E-03
      0.475000          0.103761E-03
      0.480000          0.103411E-03
      0.485000          0.102992E-03
      0.490000          0.102517E-03
      0.495000          0.101997E-03
      0.500000          0.101442E-03
