 I_abs(s)[cm^-1]/c[mg/ml]
       0.00000          0.147515E-01
      0.500000E-02      0.147073E-01
      0.100000E-01      0.145754E-01
      0.150000E-01      0.143582E-01
      0.200000E-01      0.140596E-01
      0.250000E-01      0.136848E-01
      0.300000E-01      0.132402E-01
      0.350000E-01      0.127334E-01
      0.400000E-01      0.121728E-01
      0.450000E-01      0.115672E-01
      0.500000E-01      0.109261E-01
      0.550000E-01      0.102590E-01
      0.600000E-01      0.957521E-02
      0.650000E-01      0.888387E-02
      0.700000E-01      0.819358E-02
      0.750000E-01      0.751233E-02
      0.800000E-01      0.684731E-02
      0.850000E-01      0.620481E-02
      0.900000E-01      0.559019E-02
      0.950000E-01      0.500784E-02
      0.100000          0.446115E-02
      0.105000          0.395254E-02
      0.110000          0.348355E-02
      0.115000          0.305486E-02
      0.120000          0.266639E-02
      0.125000          0.231739E-02
      0.130000          0.200656E-02
      0.135000          0.173213E-02
      0.140000          0.149196E-02
      0.145000          0.128366E-02
      0.150000          0.110464E-02
      0.155000          0.952227E-03
      0.160000          0.823713E-03
      0.165000          0.716427E-03
      0.170000          0.627777E-03
      0.175000          0.555295E-03
      0.180000          0.496663E-03
      0.185000          0.449740E-03
      0.190000          0.412569E-03
      0.195000          0.383391E-03
      0.200000          0.360643E-03
      0.205000          0.342956E-03
      0.210000          0.329149E-03
      0.215000          0.318219E-03
      0.220000          0.309331E-03
      0.225000          0.301801E-03
      0.230000          0.295087E-03
      0.235000          0.288771E-03
      0.240000          0.282546E-03
      0.245000          0.276197E-03
      0.250000          0.269594E-03
      0.255000          0.262671E-03
      0.260000          0.255417E-03
      0.265000          0.247863E-03
      0.270000          0.240070E-03
      0.275000          0.232119E-03
      0.280000          0.224103E-03
      0.285000          0.216119E-03
      0.290000          0.208262E-03
      0.295000          0.200618E-03
      0.300000          0.193263E-03
      0.305000          0.186258E-03
      0.310000          0.179648E-03
      0.315000          0.173461E-03
      0.320000          0.167711E-03
      0.325000          0.162394E-03
      0.330000          0.157495E-03
      0.335000          0.152986E-03
      0.340000          0.148831E-03
      0.345000          0.144987E-03
      0.350000          0.141409E-03
      0.355000          0.138051E-03
      0.360000          0.134866E-03
      0.365000          0.131815E-03
      0.370000          0.128860E-03
      0.375000          0.125972E-03
      0.380000          0.123130E-03
      0.385000          0.120320E-03
      0.390000          0.117534E-03
      0.395000          0.114775E-03
      0.400000          0.112050E-03
      0.405000          0.109370E-03
      0.410000          0.106752E-03
      0.415000          0.104215E-03
      0.420000          0.101777E-03
      0.425000          0.994581E-04
      0.430000          0.972738E-04
      0.435000          0.952382E-04
      0.440000          0.933610E-04
      0.445000          0.916475E-04
      0.450000          0.900980E-04
      0.455000          0.887083E-04
      0.460000          0.874695E-04
      0.465000          0.863689E-04
      0.470000          0.853905E-04
      0.475000          0.845159E-04
      0.480000          0.837254E-04
      0.485000          0.829987E-04
      0.490000          0.823162E-04
      0.495000          0.816595E-04
      0.500000          0.810123E-04
