 I_abs(s)[cm^-1]/c[mg/ml]
       0.00000          0.143470E-01
      0.500000E-02      0.142988E-01
      0.100000E-01      0.141550E-01
      0.150000E-01      0.139186E-01
      0.200000E-01      0.135939E-01
      0.250000E-01      0.131874E-01
      0.300000E-01      0.127066E-01
      0.350000E-01      0.121604E-01
      0.400000E-01      0.115587E-01
      0.450000E-01      0.109121E-01
      0.500000E-01      0.102315E-01
      0.550000E-01      0.952809E-02
      0.600000E-01      0.881275E-02
      0.650000E-01      0.809599E-02
      0.700000E-01      0.738763E-02
      0.750000E-01      0.669662E-02
      0.800000E-01      0.603088E-02
      0.850000E-01      0.539712E-02
      0.900000E-01      0.480084E-02
      0.950000E-01      0.424621E-02
      0.100000          0.373616E-02
      0.105000          0.327233E-02
      0.110000          0.285524E-02
      0.115000          0.248433E-02
      0.120000          0.215814E-02
      0.125000          0.187443E-02
      0.130000          0.163034E-02
      0.135000          0.142255E-02
      0.140000          0.124744E-02
      0.145000          0.110125E-02
      0.150000          0.980183E-03
      0.155000          0.880538E-03
      0.160000          0.798814E-03
      0.165000          0.731774E-03
      0.170000          0.676507E-03
      0.175000          0.630459E-03
      0.180000          0.591450E-03
      0.185000          0.557673E-03
      0.190000          0.527680E-03
      0.195000          0.500350E-03
      0.200000          0.474859E-03
      0.205000          0.450636E-03
      0.210000          0.427318E-03
      0.215000          0.404712E-03
      0.220000          0.382747E-03
      0.225000          0.361437E-03
      0.230000          0.340850E-03
      0.235000          0.321079E-03
      0.240000          0.302220E-03
      0.245000          0.284355E-03
      0.250000          0.267546E-03
      0.255000          0.251823E-03
      0.260000          0.237188E-03
      0.265000          0.223618E-03
      0.270000          0.211062E-03
      0.275000          0.199455E-03
      0.280000          0.188722E-03
      0.285000          0.178780E-03
      0.290000          0.169551E-03
      0.295000          0.160962E-03
      0.300000          0.152949E-03
      0.305000          0.145460E-03
      0.310000          0.138457E-03
      0.315000          0.131914E-03
      0.320000          0.125817E-03
      0.325000          0.120159E-03
      0.330000          0.114944E-03
      0.335000          0.110176E-03
      0.340000          0.105864E-03
      0.345000          0.102015E-03
      0.350000          0.986324E-04
      0.355000          0.957165E-04
      0.360000          0.932622E-04
      0.365000          0.912584E-04
      0.370000          0.896885E-04
      0.375000          0.885304E-04
      0.380000          0.877573E-04
      0.385000          0.873389E-04
      0.390000          0.872418E-04
      0.395000          0.874309E-04
      0.400000          0.878704E-04
      0.405000          0.885239E-04
      0.410000          0.893556E-04
      0.415000          0.903307E-04
      0.420000          0.914152E-04
      0.425000          0.925763E-04
      0.430000          0.937824E-04
      0.435000          0.950029E-04
      0.440000          0.962084E-04
      0.445000          0.973703E-04
      0.450000          0.984612E-04
      0.455000          0.994550E-04
      0.460000          0.100327E-03
      0.465000          0.101055E-03
      0.470000          0.101618E-03
      0.475000          0.102000E-03
      0.480000          0.102187E-03
      0.485000          0.102170E-03
      0.490000          0.101943E-03
      0.495000          0.101509E-03
      0.500000          0.100871E-03
