 I_abs(s)[cm^-1]/c[mg/ml]
       0.00000          0.147835E-01
      0.500000E-02      0.147261E-01
      0.100000E-01      0.145553E-01
      0.150000E-01      0.142749E-01
      0.200000E-01      0.138913E-01
      0.250000E-01      0.134133E-01
      0.300000E-01      0.128513E-01
      0.350000E-01      0.122174E-01
      0.400000E-01      0.115250E-01
      0.450000E-01      0.107879E-01
      0.500000E-01      0.100205E-01
      0.550000E-01      0.923683E-02
      0.600000E-01      0.845037E-02
      0.650000E-01      0.767368E-02
      0.700000E-01      0.691804E-02
      0.750000E-01      0.619325E-02
      0.800000E-01      0.550746E-02
      0.850000E-01      0.486702E-02
      0.900000E-01      0.427653E-02
      0.950000E-01      0.373881E-02
      0.100000          0.325508E-02
      0.105000          0.282504E-02
      0.110000          0.244712E-02
      0.115000          0.211868E-02
      0.120000          0.183623E-02
      0.125000          0.159570E-02
      0.130000          0.139262E-02
      0.135000          0.122239E-02
      0.140000          0.108044E-02
      0.145000          0.962367E-03
      0.150000          0.864100E-03
      0.155000          0.781967E-03
      0.160000          0.712758E-03
      0.165000          0.653756E-03
      0.170000          0.602731E-03
      0.175000          0.557923E-03
      0.180000          0.517996E-03
      0.185000          0.481987E-03
      0.190000          0.449246E-03
      0.195000          0.419368E-03
      0.200000          0.392131E-03
      0.205000          0.367436E-03
      0.210000          0.345258E-03
      0.215000          0.325595E-03
      0.220000          0.308440E-03
      0.225000          0.293751E-03
      0.230000          0.281439E-03
      0.235000          0.271356E-03
      0.240000          0.263299E-03
      0.245000          0.257013E-03
      0.250000          0.252203E-03
      0.255000          0.248546E-03
      0.260000          0.245706E-03
      0.265000          0.243351E-03
      0.270000          0.241163E-03
      0.275000          0.238856E-03
      0.280000          0.236185E-03
      0.285000          0.232953E-03
      0.290000          0.229018E-03
      0.295000          0.224295E-03
      0.300000          0.218755E-03
      0.305000          0.212425E-03
      0.310000          0.205378E-03
      0.315000          0.197733E-03
      0.320000          0.189640E-03
      0.325000          0.181275E-03
      0.330000          0.172828E-03
      0.335000          0.164495E-03
      0.340000          0.156467E-03
      0.345000          0.148922E-03
      0.350000          0.142017E-03
      0.355000          0.135882E-03
      0.360000          0.130614E-03
      0.365000          0.126277E-03
      0.370000          0.122897E-03
      0.375000          0.120465E-03
      0.380000          0.118938E-03
      0.385000          0.118242E-03
      0.390000          0.118275E-03
      0.395000          0.118918E-03
      0.400000          0.120033E-03
      0.405000          0.121477E-03
      0.410000          0.123102E-03
      0.415000          0.124767E-03
      0.420000          0.126339E-03
      0.425000          0.127697E-03
      0.430000          0.128741E-03
      0.435000          0.129389E-03
      0.440000          0.129583E-03
      0.445000          0.129287E-03
      0.450000          0.128487E-03
      0.455000          0.127188E-03
      0.460000          0.125415E-03
      0.465000          0.123208E-03
      0.470000          0.120621E-03
      0.475000          0.117715E-03
      0.480000          0.114557E-03
      0.485000          0.111217E-03
      0.490000          0.107765E-03
      0.495000          0.104266E-03
      0.500000          0.100783E-03
