 I_abs(s)[cm^-1]/c[mg/ml]
       0.00000          0.147515E-01
      0.500000E-02      0.147021E-01
      0.100000E-01      0.145547E-01
      0.150000E-01      0.143123E-01
      0.200000E-01      0.139799E-01
      0.250000E-01      0.135641E-01
      0.300000E-01      0.130730E-01
      0.350000E-01      0.125159E-01
      0.400000E-01      0.119033E-01
      0.450000E-01      0.112460E-01
      0.500000E-01      0.105553E-01
      0.550000E-01      0.984262E-02
      0.600000E-01      0.911877E-02
      0.650000E-01      0.839421E-02
      0.700000E-01      0.767854E-02
      0.750000E-01      0.698037E-02
      0.800000E-01      0.630720E-02
      0.850000E-01      0.566529E-02
      0.900000E-01      0.505965E-02
      0.950000E-01      0.449404E-02
      0.100000          0.397099E-02
      0.105000          0.349193E-02
      0.110000          0.305723E-02
      0.115000          0.266637E-02
      0.120000          0.231807E-02
      0.125000          0.201043E-02
      0.130000          0.174106E-02
      0.135000          0.150722E-02
      0.140000          0.130597E-02
      0.145000          0.113423E-02
      0.150000          0.988928E-03
      0.155000          0.867021E-03
      0.160000          0.765603E-03
      0.165000          0.681929E-03
      0.170000          0.613446E-03
      0.175000          0.557815E-03
      0.180000          0.512919E-03
      0.185000          0.476865E-03
      0.190000          0.447978E-03
      0.195000          0.424789E-03
      0.200000          0.406027E-03
      0.205000          0.390605E-03
      0.210000          0.377602E-03
      0.215000          0.366254E-03
      0.220000          0.355938E-03
      0.225000          0.346159E-03
      0.230000          0.336538E-03
      0.235000          0.326799E-03
      0.240000          0.316760E-03
      0.245000          0.306321E-03
      0.250000          0.295448E-03
      0.255000          0.284170E-03
      0.260000          0.272562E-03
      0.265000          0.260736E-03
      0.270000          0.248829E-03
      0.275000          0.236996E-03
      0.280000          0.225394E-03
      0.285000          0.214180E-03
      0.290000          0.203499E-03
      0.295000          0.193478E-03
      0.300000          0.184220E-03
      0.305000          0.175800E-03
      0.310000          0.168267E-03
      0.315000          0.161636E-03
      0.320000          0.155895E-03
      0.325000          0.151004E-03
      0.330000          0.146898E-03
      0.335000          0.143494E-03
      0.340000          0.140692E-03
      0.345000          0.138384E-03
      0.350000          0.136456E-03
      0.355000          0.134797E-03
      0.360000          0.133301E-03
      0.365000          0.131869E-03
      0.370000          0.130418E-03
      0.375000          0.128880E-03
      0.380000          0.127203E-03
      0.385000          0.125353E-03
      0.390000          0.123312E-03
      0.395000          0.121078E-03
      0.400000          0.118665E-03
      0.405000          0.116095E-03
      0.410000          0.113401E-03
      0.415000          0.110623E-03
      0.420000          0.107803E-03
      0.425000          0.104985E-03
      0.430000          0.102209E-03
      0.435000          0.995156E-04
      0.440000          0.969371E-04
      0.445000          0.945010E-04
      0.450000          0.922279E-04
      0.455000          0.901314E-04
      0.460000          0.882181E-04
      0.465000          0.864881E-04
      0.470000          0.849355E-04
      0.475000          0.835496E-04
      0.480000          0.823153E-04
      0.485000          0.812145E-04
      0.490000          0.802270E-04
      0.495000          0.793310E-04
      0.500000          0.785045E-04
