 I_abs(s)[cm^-1]/c[mg/ml]
       0.00000          0.146081E-01
      0.500000E-02      0.145361E-01
      0.100000E-01      0.143223E-01
      0.150000E-01      0.139734E-01
      0.200000E-01      0.134998E-01
      0.250000E-01      0.129158E-01
      0.300000E-01      0.122384E-01
      0.350000E-01      0.114866E-01
      0.400000E-01      0.106808E-01
      0.450000E-01      0.984146E-02
      0.500000E-01      0.898884E-02
      0.550000E-01      0.814175E-02
      0.600000E-01      0.731707E-02
      0.650000E-01      0.652925E-02
      0.700000E-01      0.578991E-02
      0.750000E-01      0.510768E-02
      0.800000E-01      0.448816E-02
      0.850000E-01      0.393407E-02
      0.900000E-01      0.344550E-02
      0.950000E-01      0.302030E-02
      0.100000          0.265447E-02
      0.105000          0.234268E-02
      0.110000          0.207872E-02
      0.115000          0.185597E-02
      0.120000          0.166777E-02
      0.125000          0.150780E-02
      0.130000          0.137034E-02
      0.135000          0.125040E-02
      0.140000          0.114389E-02
      0.145000          0.104759E-02
      0.150000          0.959147E-03
      0.155000          0.876989E-03
      0.160000          0.800182E-03
      0.165000          0.728310E-03
      0.170000          0.661322E-03
      0.175000          0.599393E-03
      0.180000          0.542796E-03
      0.185000          0.491803E-03
      0.190000          0.446599E-03
      0.195000          0.407241E-03
      0.200000          0.373620E-03
      0.205000          0.345467E-03
      0.210000          0.322363E-03
      0.215000          0.303770E-03
      0.220000          0.289065E-03
      0.225000          0.277584E-03
      0.230000          0.268661E-03
      0.235000          0.261660E-03
      0.240000          0.256011E-03
      0.245000          0.251227E-03
      0.250000          0.246915E-03
      0.255000          0.242784E-03
      0.260000          0.238641E-03
      0.265000          0.234377E-03
      0.270000          0.229959E-03
      0.275000          0.225411E-03
      0.280000          0.220794E-03
      0.285000          0.216195E-03
      0.290000          0.211706E-03
      0.295000          0.207412E-03
      0.300000          0.203389E-03
      0.305000          0.199686E-03
      0.310000          0.196334E-03
      0.315000          0.193337E-03
      0.320000          0.190680E-03
      0.325000          0.188331E-03
      0.330000          0.186245E-03
      0.335000          0.184370E-03
      0.340000          0.182652E-03
      0.345000          0.181040E-03
      0.350000          0.179487E-03
      0.355000          0.177952E-03
      0.360000          0.176404E-03
      0.365000          0.174819E-03
      0.370000          0.173179E-03
      0.375000          0.171471E-03
      0.380000          0.169684E-03
      0.385000          0.167812E-03
      0.390000          0.165845E-03
      0.395000          0.163773E-03
      0.400000          0.161587E-03
      0.405000          0.159273E-03
      0.410000          0.156820E-03
      0.415000          0.154215E-03
      0.420000          0.151452E-03
      0.425000          0.148525E-03
      0.430000          0.145436E-03
      0.435000          0.142193E-03
      0.440000          0.138814E-03
      0.445000          0.135322E-03
      0.450000          0.131748E-03
      0.455000          0.128130E-03
      0.460000          0.124509E-03
      0.465000          0.120928E-03
      0.470000          0.117431E-03
      0.475000          0.114056E-03
      0.480000          0.110838E-03
      0.485000          0.107803E-03
      0.490000          0.104972E-03
      0.495000          0.102353E-03
      0.500000          0.999477E-04
