 I_abs(s)[cm^-1]/c[mg/ml]
       0.00000          0.147995E-01
      0.500000E-02      0.147466E-01
      0.100000E-01      0.145889E-01
      0.150000E-01      0.143302E-01
      0.200000E-01      0.139762E-01
      0.250000E-01      0.135348E-01
      0.300000E-01      0.130157E-01
      0.350000E-01      0.124297E-01
      0.400000E-01      0.117890E-01
      0.450000E-01      0.111060E-01
      0.500000E-01      0.103934E-01
      0.550000E-01      0.966383E-02
      0.600000E-01      0.892904E-02
      0.650000E-01      0.820002E-02
      0.700000E-01      0.748656E-02
      0.750000E-01      0.679709E-02
      0.800000E-01      0.613855E-02
      0.850000E-01      0.551636E-02
      0.900000E-01      0.493442E-02
      0.950000E-01      0.439519E-02
      0.100000          0.389981E-02
      0.105000          0.344828E-02
      0.110000          0.303963E-02
      0.115000          0.267212E-02
      0.120000          0.234345E-02
      0.125000          0.205093E-02
      0.130000          0.179168E-02
      0.135000          0.156274E-02
      0.140000          0.136122E-02
      0.145000          0.118439E-02
      0.150000          0.102970E-02
      0.155000          0.894848E-03
      0.160000          0.777783E-03
      0.165000          0.676676E-03
      0.170000          0.589909E-03
      0.175000          0.516038E-03
      0.180000          0.453762E-03
      0.185000          0.401881E-03
      0.190000          0.359273E-03
      0.195000          0.324869E-03
      0.200000          0.297638E-03
      0.205000          0.276582E-03
      0.210000          0.260734E-03
      0.215000          0.249172E-03
      0.220000          0.241025E-03
      0.225000          0.235487E-03
      0.230000          0.231836E-03
      0.235000          0.229442E-03
      0.240000          0.227776E-03
      0.245000          0.226415E-03
      0.250000          0.225046E-03
      0.255000          0.223451E-03
      0.260000          0.221506E-03
      0.265000          0.219164E-03
      0.270000          0.216440E-03
      0.275000          0.213392E-03
      0.280000          0.210106E-03
      0.285000          0.206681E-03
      0.290000          0.203211E-03
      0.295000          0.199779E-03
      0.300000          0.196447E-03
      0.305000          0.193252E-03
      0.310000          0.190204E-03
      0.315000          0.187291E-03
      0.320000          0.184482E-03
      0.325000          0.181728E-03
      0.330000          0.178978E-03
      0.335000          0.176174E-03
      0.340000          0.173266E-03
      0.345000          0.170212E-03
      0.350000          0.166984E-03
      0.355000          0.163567E-03
      0.360000          0.159961E-03
      0.365000          0.156181E-03
      0.370000          0.152252E-03
      0.375000          0.148208E-03
      0.380000          0.144089E-03
      0.385000          0.139933E-03
      0.390000          0.135780E-03
      0.395000          0.131664E-03
      0.400000          0.127612E-03
      0.405000          0.123645E-03
      0.410000          0.119775E-03
      0.415000          0.116010E-03
      0.420000          0.112349E-03
      0.425000          0.108792E-03
      0.430000          0.105334E-03
      0.435000          0.101973E-03
      0.440000          0.987082E-04
      0.445000          0.955447E-04
      0.450000          0.924913E-04
      0.455000          0.895621E-04
      0.460000          0.867765E-04
      0.465000          0.841575E-04
      0.470000          0.817304E-04
      0.475000          0.795210E-04
      0.480000          0.775536E-04
      0.485000          0.758484E-04
      0.490000          0.744201E-04
      0.495000          0.732758E-04
      0.500000          0.724137E-04
