 I_abs(s)[cm^-1]/c[mg/ml]
       0.00000          0.145922E-01
      0.500000E-02      0.145389E-01
      0.100000E-01      0.143801E-01
      0.150000E-01      0.141196E-01
      0.200000E-01      0.137635E-01
      0.250000E-01      0.133199E-01
      0.300000E-01      0.127987E-01
      0.350000E-01      0.122113E-01
      0.400000E-01      0.115701E-01
      0.450000E-01      0.108878E-01
      0.500000E-01      0.101777E-01
      0.550000E-01      0.945244E-02
      0.600000E-01      0.872411E-02
      0.650000E-01      0.800385E-02
      0.700000E-01      0.730151E-02
      0.750000E-01      0.662553E-02
      0.800000E-01      0.598275E-02
      0.850000E-01      0.537844E-02
      0.900000E-01      0.481628E-02
      0.950000E-01      0.429846E-02
      0.100000          0.382580E-02
      0.105000          0.339796E-02
      0.110000          0.301359E-02
      0.115000          0.267058E-02
      0.120000          0.236623E-02
      0.125000          0.209751E-02
      0.130000          0.186114E-02
      0.135000          0.165385E-02
      0.140000          0.147242E-02
      0.145000          0.131382E-02
      0.150000          0.117525E-02
      0.155000          0.105419E-02
      0.160000          0.948387E-03
      0.165000          0.855870E-03
      0.170000          0.774922E-03
      0.175000          0.704053E-03
      0.180000          0.641962E-03
      0.185000          0.587509E-03
      0.190000          0.539685E-03
      0.195000          0.497591E-03
      0.200000          0.460416E-03
      0.205000          0.427429E-03
      0.210000          0.397976E-03
      0.215000          0.371474E-03
      0.220000          0.347414E-03
      0.225000          0.325365E-03
      0.230000          0.304978E-03
      0.235000          0.285980E-03
      0.240000          0.268177E-03
      0.245000          0.251446E-03
      0.250000          0.235728E-03
      0.255000          0.221013E-03
      0.260000          0.207332E-03
      0.265000          0.194737E-03
      0.270000          0.183289E-03
      0.275000          0.173045E-03
      0.280000          0.164045E-03
      0.285000          0.156302E-03
      0.290000          0.149802E-03
      0.295000          0.144492E-03
      0.300000          0.140290E-03
      0.305000          0.137083E-03
      0.310000          0.134737E-03
      0.315000          0.133099E-03
      0.320000          0.132012E-03
      0.325000          0.131319E-03
      0.330000          0.130873E-03
      0.335000          0.130542E-03
      0.340000          0.130215E-03
      0.345000          0.129806E-03
      0.350000          0.129253E-03
      0.355000          0.128520E-03
      0.360000          0.127592E-03
      0.365000          0.126475E-03
      0.370000          0.125185E-03
      0.375000          0.123753E-03
      0.380000          0.122211E-03
      0.385000          0.120594E-03
      0.390000          0.118933E-03
      0.395000          0.117256E-03
      0.400000          0.115582E-03
      0.405000          0.113923E-03
      0.410000          0.112285E-03
      0.415000          0.110668E-03
      0.420000          0.109067E-03
      0.425000          0.107477E-03
      0.430000          0.105891E-03
      0.435000          0.104306E-03
      0.440000          0.102720E-03
      0.445000          0.101136E-03
      0.450000          0.995647E-04
      0.455000          0.980176E-04
      0.460000          0.965122E-04
      0.465000          0.950678E-04
      0.470000          0.937051E-04
      0.475000          0.924439E-04
      0.480000          0.913014E-04
      0.485000          0.902908E-04
      0.490000          0.894194E-04
      0.495000          0.886885E-04
      0.500000          0.880922E-04
