 I_abs(s)[cm^-1]/c[mg/ml]
       0.00000          0.148796E-01
      0.500000E-02      0.148302E-01
      0.100000E-01      0.146828E-01
      0.150000E-01      0.144404E-01
      0.200000E-01      0.141075E-01
      0.250000E-01      0.136903E-01
      0.300000E-01      0.131966E-01
      0.350000E-01      0.126353E-01
      0.400000E-01      0.120164E-01
      0.450000E-01      0.113505E-01
      0.500000E-01      0.106487E-01
      0.550000E-01      0.992223E-02
      0.600000E-01      0.918213E-02
      0.650000E-01      0.843905E-02
      0.700000E-01      0.770298E-02
      0.750000E-01      0.698305E-02
      0.800000E-01      0.628736E-02
      0.850000E-01      0.562287E-02
      0.900000E-01      0.499531E-02
      0.950000E-01      0.440912E-02
      0.100000          0.386749E-02
      0.105000          0.337239E-02
      0.110000          0.292460E-02
      0.115000          0.252390E-02
      0.120000          0.216912E-02
      0.125000          0.185832E-02
      0.130000          0.158893E-02
      0.135000          0.135789E-02
      0.140000          0.116182E-02
      0.145000          0.997152E-03
      0.150000          0.860245E-03
      0.155000          0.747516E-03
      0.160000          0.655518E-03
      0.165000          0.581025E-03
      0.170000          0.521077E-03
      0.175000          0.473022E-03
      0.180000          0.434532E-03
      0.185000          0.403607E-03
      0.190000          0.378564E-03
      0.195000          0.358020E-03
      0.200000          0.340860E-03
      0.205000          0.326209E-03
      0.210000          0.313396E-03
      0.215000          0.301916E-03
      0.220000          0.291401E-03
      0.225000          0.281586E-03
      0.230000          0.272283E-03
      0.235000          0.263362E-03
      0.240000          0.254725E-03
      0.245000          0.246301E-03
      0.250000          0.238033E-03
      0.255000          0.229874E-03
      0.260000          0.221781E-03
      0.265000          0.213719E-03
      0.270000          0.205659E-03
      0.275000          0.197583E-03
      0.280000          0.189480E-03
      0.285000          0.181356E-03
      0.290000          0.173230E-03
      0.295000          0.165135E-03
      0.300000          0.157117E-03
      0.305000          0.149239E-03
      0.310000          0.141569E-03
      0.315000          0.134185E-03
      0.320000          0.127170E-03
      0.325000          0.120604E-03
      0.330000          0.114567E-03
      0.335000          0.109127E-03
      0.340000          0.104346E-03
      0.345000          0.100270E-03
      0.350000          0.969293E-04
      0.355000          0.943392E-04
      0.360000          0.924964E-04
      0.365000          0.913807E-04
      0.370000          0.909551E-04
      0.375000          0.911680E-04
      0.380000          0.919545E-04
      0.385000          0.932388E-04
      0.390000          0.949371E-04
      0.395000          0.969602E-04
      0.400000          0.992166E-04
      0.405000          0.101615E-03
      0.410000          0.104066E-03
      0.415000          0.106487E-03
      0.420000          0.108801E-03
      0.425000          0.110942E-03
      0.430000          0.112853E-03
      0.435000          0.114487E-03
      0.440000          0.115810E-03
      0.445000          0.116798E-03
      0.450000          0.117440E-03
      0.455000          0.117734E-03
      0.460000          0.117687E-03
      0.465000          0.117315E-03
      0.470000          0.116641E-03
      0.475000          0.115692E-03
      0.480000          0.114499E-03
      0.485000          0.113096E-03
      0.490000          0.111517E-03
      0.495000          0.109797E-03
      0.500000          0.107968E-03
