 I_abs(s)[cm^-1]/c[mg/ml]
       0.00000          0.146638E-01
      0.500000E-02      0.146107E-01
      0.100000E-01      0.144525E-01
      0.150000E-01      0.141926E-01
      0.200000E-01      0.138369E-01
      0.250000E-01      0.133929E-01
      0.300000E-01      0.128701E-01
      0.350000E-01      0.122792E-01
      0.400000E-01      0.116321E-01
      0.450000E-01      0.109412E-01
      0.500000E-01      0.102192E-01
      0.550000E-01      0.947874E-02
      0.600000E-01      0.873197E-02
      0.650000E-01      0.799022E-02
      0.700000E-01      0.726375E-02
      0.750000E-01      0.656158E-02
      0.800000E-01      0.589135E-02
      0.850000E-01      0.525915E-02
      0.900000E-01      0.466963E-02
      0.950000E-01      0.412590E-02
      0.100000          0.362972E-02
      0.105000          0.318156E-02
      0.110000          0.278078E-02
      0.115000          0.242579E-02
      0.120000          0.211426E-02
      0.125000          0.184325E-02
      0.130000          0.160946E-02
      0.135000          0.140932E-02
      0.140000          0.123919E-02
      0.145000          0.109548E-02
      0.150000          0.974697E-03
      0.155000          0.873593E-03
      0.160000          0.789169E-03
      0.165000          0.718727E-03
      0.170000          0.659881E-03
      0.175000          0.610558E-03
      0.180000          0.568984E-03
      0.185000          0.533664E-03
      0.190000          0.503358E-03
      0.195000          0.477047E-03
      0.200000          0.453906E-03
      0.205000          0.433274E-03
      0.210000          0.414624E-03
      0.215000          0.397542E-03
      0.220000          0.381699E-03
      0.225000          0.366839E-03
      0.230000          0.352760E-03
      0.235000          0.339302E-03
      0.240000          0.326339E-03
      0.245000          0.313771E-03
      0.250000          0.301517E-03
      0.255000          0.289518E-03
      0.260000          0.277725E-03
      0.265000          0.266109E-03
      0.270000          0.254649E-03
      0.275000          0.243340E-03
      0.280000          0.232189E-03
      0.285000          0.221217E-03
      0.290000          0.210453E-03
      0.295000          0.199939E-03
      0.300000          0.189725E-03
      0.305000          0.179868E-03
      0.310000          0.170428E-03
      0.315000          0.161468E-03
      0.320000          0.153048E-03
      0.325000          0.145223E-03
      0.330000          0.138041E-03
      0.335000          0.131540E-03
      0.340000          0.125742E-03
      0.345000          0.120660E-03
      0.350000          0.116287E-03
      0.355000          0.112605E-03
      0.360000          0.109579E-03
      0.365000          0.107162E-03
      0.370000          0.105295E-03
      0.375000          0.103914E-03
      0.380000          0.102945E-03
      0.385000          0.102313E-03
      0.390000          0.101943E-03
      0.395000          0.101763E-03
      0.400000          0.101705E-03
      0.405000          0.101708E-03
      0.410000          0.101718E-03
      0.415000          0.101691E-03
      0.420000          0.101590E-03
      0.425000          0.101389E-03
      0.430000          0.101070E-03
      0.435000          0.100620E-03
      0.440000          0.100036E-03
      0.445000          0.993167E-04
      0.450000          0.984689E-04
      0.455000          0.975007E-04
      0.460000          0.964236E-04
      0.465000          0.952507E-04
      0.470000          0.939968E-04
      0.475000          0.926773E-04
      0.480000          0.913082E-04
      0.485000          0.899056E-04
      0.490000          0.884858E-04
      0.495000          0.870645E-04
      0.500000          0.856570E-04
