 I_abs(s)[cm^-1]/c[mg/ml]
       0.00000          0.147436E-01
      0.500000E-02      0.146961E-01
      0.100000E-01      0.145546E-01
      0.150000E-01      0.143218E-01
      0.200000E-01      0.140022E-01
      0.250000E-01      0.136021E-01
      0.300000E-01      0.131289E-01
      0.350000E-01      0.125914E-01
      0.400000E-01      0.119991E-01
      0.450000E-01      0.113625E-01
      0.500000E-01      0.106920E-01
      0.550000E-01      0.999844E-02
      0.600000E-01      0.929221E-02
      0.650000E-01      0.858331E-02
      0.700000E-01      0.788099E-02
      0.750000E-01      0.719367E-02
      0.800000E-01      0.652870E-02
      0.850000E-01      0.589233E-02
      0.900000E-01      0.528961E-02
      0.950000E-01      0.472442E-02
      0.100000          0.419945E-02
      0.105000          0.371630E-02
      0.110000          0.327557E-02
      0.115000          0.287695E-02
      0.120000          0.251936E-02
      0.125000          0.220110E-02
      0.130000          0.191995E-02
      0.135000          0.167335E-02
      0.140000          0.145851E-02
      0.145000          0.127251E-02
      0.150000          0.111240E-02
      0.155000          0.975310E-03
      0.160000          0.858473E-03
      0.165000          0.759303E-03
      0.170000          0.675416E-03
      0.175000          0.604646E-03
      0.180000          0.545056E-03
      0.185000          0.494931E-03
      0.190000          0.452770E-03
      0.195000          0.417268E-03
      0.200000          0.387301E-03
      0.205000          0.361907E-03
      0.210000          0.340264E-03
      0.215000          0.321675E-03
      0.220000          0.305550E-03
      0.225000          0.291395E-03
      0.230000          0.278797E-03
      0.235000          0.267414E-03
      0.240000          0.256971E-03
      0.245000          0.247247E-03
      0.250000          0.238072E-03
      0.255000          0.229320E-03
      0.260000          0.220903E-03
      0.265000          0.212768E-03
      0.270000          0.204886E-03
      0.275000          0.197253E-03
      0.280000          0.189878E-03
      0.285000          0.182784E-03
      0.290000          0.175997E-03
      0.295000          0.169547E-03
      0.300000          0.163459E-03
      0.305000          0.157755E-03
      0.310000          0.152449E-03
      0.315000          0.147548E-03
      0.320000          0.143047E-03
      0.325000          0.138936E-03
      0.330000          0.135197E-03
      0.335000          0.131804E-03
      0.340000          0.128728E-03
      0.345000          0.125939E-03
      0.350000          0.123403E-03
      0.355000          0.121088E-03
      0.360000          0.118966E-03
      0.365000          0.117008E-03
      0.370000          0.115192E-03
      0.375000          0.113497E-03
      0.380000          0.111907E-03
      0.385000          0.110410E-03
      0.390000          0.108993E-03
      0.395000          0.107651E-03
      0.400000          0.106374E-03
      0.405000          0.105158E-03
      0.410000          0.103997E-03
      0.415000          0.102886E-03
      0.420000          0.101817E-03
      0.425000          0.100785E-03
      0.430000          0.997823E-04
      0.435000          0.988031E-04
      0.440000          0.978402E-04
      0.445000          0.968878E-04
      0.450000          0.959407E-04
      0.455000          0.949951E-04
      0.460000          0.940487E-04
      0.465000          0.931008E-04
      0.470000          0.921526E-04
      0.475000          0.912068E-04
      0.480000          0.902675E-04
      0.485000          0.893401E-04
      0.490000          0.884306E-04
      0.495000          0.875452E-04
      0.500000          0.866899E-04
