 I_abs(s)[cm^-1]/c[mg/ml]
       0.00000          0.144812E-01
      0.500000E-02      0.144257E-01
      0.100000E-01      0.142602E-01
      0.150000E-01      0.139887E-01
      0.200000E-01      0.136173E-01
      0.250000E-01      0.131544E-01
      0.300000E-01      0.126102E-01
      0.350000E-01      0.119965E-01
      0.400000E-01      0.113260E-01
      0.450000E-01      0.106122E-01
      0.500000E-01      0.986879E-02
      0.550000E-01      0.910938E-02
      0.600000E-01      0.834687E-02
      0.650000E-01      0.759331E-02
      0.700000E-01      0.685950E-02
      0.750000E-01      0.615484E-02
      0.800000E-01      0.548712E-02
      0.850000E-01      0.486248E-02
      0.900000E-01      0.428538E-02
      0.950000E-01      0.375864E-02
      0.100000          0.328357E-02
      0.105000          0.286007E-02
      0.110000          0.248687E-02
      0.115000          0.216169E-02
      0.120000          0.188148E-02
      0.125000          0.164260E-02
      0.130000          0.144104E-02
      0.135000          0.127260E-02
      0.140000          0.113309E-02
      0.145000          0.101838E-02
      0.150000          0.924589E-03
      0.155000          0.848142E-03
      0.160000          0.785802E-03
      0.165000          0.734721E-03
      0.170000          0.692445E-03
      0.175000          0.656900E-03
      0.180000          0.626379E-03
      0.185000          0.599504E-03
      0.190000          0.575195E-03
      0.195000          0.552626E-03
      0.200000          0.531191E-03
      0.205000          0.510460E-03
      0.210000          0.490149E-03
      0.215000          0.470086E-03
      0.220000          0.450182E-03
      0.225000          0.430414E-03
      0.230000          0.410799E-03
      0.235000          0.391387E-03
      0.240000          0.372239E-03
      0.245000          0.353430E-03
      0.250000          0.335030E-03
      0.255000          0.317112E-03
      0.260000          0.299737E-03
      0.265000          0.282964E-03
      0.270000          0.266838E-03
      0.275000          0.251401E-03
      0.280000          0.236682E-03
      0.285000          0.222706E-03
      0.290000          0.209492E-03
      0.295000          0.197053E-03
      0.300000          0.185398E-03
      0.305000          0.174534E-03
      0.310000          0.164463E-03
      0.315000          0.155187E-03
      0.320000          0.146701E-03
      0.325000          0.138999E-03
      0.330000          0.132071E-03
      0.335000          0.125899E-03
      0.340000          0.120462E-03
      0.345000          0.115731E-03
      0.350000          0.111669E-03
      0.355000          0.108235E-03
      0.360000          0.105377E-03
      0.365000          0.103040E-03
      0.370000          0.101164E-03
      0.375000          0.996836E-04
      0.380000          0.985335E-04
      0.385000          0.976483E-04
      0.390000          0.969649E-04
      0.395000          0.964249E-04
      0.400000          0.959755E-04
      0.405000          0.955717E-04
      0.410000          0.951770E-04
      0.415000          0.947638E-04
      0.420000          0.943136E-04
      0.425000          0.938167E-04
      0.430000          0.932708E-04
      0.435000          0.926805E-04
      0.440000          0.920552E-04
      0.445000          0.914077E-04
      0.450000          0.907527E-04
      0.455000          0.901047E-04
      0.460000          0.894772E-04
      0.465000          0.888813E-04
      0.470000          0.883247E-04
      0.475000          0.878117E-04
      0.480000          0.873428E-04
      0.485000          0.869150E-04
      0.490000          0.865225E-04
      0.495000          0.861573E-04
      0.500000          0.858101E-04
