 I_abs(s)[cm^-1]/c[mg/ml]
       0.00000          0.147595E-01
      0.500000E-02      0.147078E-01
      0.100000E-01      0.145538E-01
      0.150000E-01      0.143007E-01
      0.200000E-01      0.139538E-01
      0.250000E-01      0.135203E-01
      0.300000E-01      0.130089E-01
      0.350000E-01      0.124298E-01
      0.400000E-01      0.117941E-01
      0.450000E-01      0.111135E-01
      0.500000E-01      0.104002E-01
      0.550000E-01      0.966612E-02
      0.600000E-01      0.892298E-02
      0.650000E-01      0.818178E-02
      0.700000E-01      0.745257E-02
      0.750000E-01      0.674434E-02
      0.800000E-01      0.606477E-02
      0.850000E-01      0.542020E-02
      0.900000E-01      0.481556E-02
      0.950000E-01      0.425443E-02
      0.100000          0.373903E-02
      0.105000          0.327039E-02
      0.110000          0.284843E-02
      0.115000          0.247212E-02
      0.120000          0.213966E-02
      0.125000          0.184862E-02
      0.130000          0.159612E-02
      0.135000          0.137897E-02
      0.140000          0.119382E-02
      0.145000          0.103728E-02
      0.150000          0.905992E-03
      0.155000          0.796751E-03
      0.160000          0.706535E-03
      0.165000          0.632553E-03
      0.170000          0.572268E-03
      0.175000          0.523409E-03
      0.180000          0.483969E-03
      0.185000          0.452190E-03
      0.190000          0.426556E-03
      0.195000          0.405768E-03
      0.200000          0.388726E-03
      0.205000          0.374508E-03
      0.210000          0.362349E-03
      0.215000          0.351626E-03
      0.220000          0.341840E-03
      0.225000          0.332599E-03
      0.230000          0.323609E-03
      0.235000          0.314658E-03
      0.240000          0.305605E-03
      0.245000          0.296375E-03
      0.250000          0.286940E-03
      0.255000          0.277318E-03
      0.260000          0.267558E-03
      0.265000          0.257734E-03
      0.270000          0.247934E-03
      0.275000          0.238254E-03
      0.280000          0.228794E-03
      0.285000          0.219647E-03
      0.290000          0.210895E-03
      0.295000          0.202611E-03
      0.300000          0.194850E-03
      0.305000          0.187651E-03
      0.310000          0.181038E-03
      0.315000          0.175015E-03
      0.320000          0.169576E-03
      0.325000          0.164699E-03
      0.330000          0.160352E-03
      0.335000          0.156493E-03
      0.340000          0.153077E-03
      0.345000          0.150050E-03
      0.350000          0.147359E-03
      0.355000          0.144948E-03
      0.360000          0.142763E-03
      0.365000          0.140751E-03
      0.370000          0.138864E-03
      0.375000          0.137055E-03
      0.380000          0.135284E-03
      0.385000          0.133516E-03
      0.390000          0.131720E-03
      0.395000          0.129874E-03
      0.400000          0.127962E-03
      0.405000          0.125972E-03
      0.410000          0.123904E-03
      0.415000          0.121759E-03
      0.420000          0.119546E-03
      0.425000          0.117282E-03
      0.430000          0.114983E-03
      0.435000          0.112672E-03
      0.440000          0.110373E-03
      0.445000          0.108110E-03
      0.450000          0.105906E-03
      0.455000          0.103783E-03
      0.460000          0.101758E-03
      0.465000          0.998452E-04
      0.470000          0.980529E-04
      0.475000          0.963843E-04
      0.480000          0.948368E-04
      0.485000          0.934032E-04
      0.490000          0.920711E-04
      0.495000          0.908249E-04
      0.500000          0.896463E-04
