 I_abs(s)[cm^-1]/c[mg/ml]
       0.00000          0.147515E-01
      0.500000E-02      0.146980E-01
      0.100000E-01      0.145385E-01
      0.150000E-01      0.142764E-01
      0.200000E-01      0.139172E-01
      0.250000E-01      0.134682E-01
      0.300000E-01      0.129385E-01
      0.350000E-01      0.123385E-01
      0.400000E-01      0.116799E-01
      0.450000E-01      0.109750E-01
      0.500000E-01      0.102365E-01
      0.550000E-01      0.947705E-02
      0.600000E-01      0.870909E-02
      0.650000E-01      0.794439E-02
      0.700000E-01      0.719379E-02
      0.750000E-01      0.646700E-02
      0.800000E-01      0.577239E-02
      0.850000E-01      0.511691E-02
      0.900000E-01      0.450597E-02
      0.950000E-01      0.394349E-02
      0.100000          0.343187E-02
      0.105000          0.297213E-02
      0.110000          0.256401E-02
      0.115000          0.220613E-02
      0.120000          0.189616E-02
      0.125000          0.163100E-02
      0.130000          0.140699E-02
      0.135000          0.122009E-02
      0.140000          0.106606E-02
      0.145000          0.940591E-03
      0.150000          0.839482E-03
      0.155000          0.758735E-03
      0.160000          0.694646E-03
      0.165000          0.643871E-03
      0.170000          0.603466E-03
      0.175000          0.570904E-03
      0.180000          0.544075E-03
      0.185000          0.521268E-03
      0.190000          0.501139E-03
      0.195000          0.482676E-03
      0.200000          0.465153E-03
      0.205000          0.448084E-03
      0.210000          0.431176E-03
      0.215000          0.414286E-03
      0.220000          0.397383E-03
      0.225000          0.380510E-03
      0.230000          0.363759E-03
      0.235000          0.347246E-03
      0.240000          0.331096E-03
      0.245000          0.315426E-03
      0.250000          0.300343E-03
      0.255000          0.285936E-03
      0.260000          0.272274E-03
      0.265000          0.259410E-03
      0.270000          0.247377E-03
      0.275000          0.236194E-03
      0.280000          0.225867E-03
      0.285000          0.216389E-03
      0.290000          0.207746E-03
      0.295000          0.199914E-03
      0.300000          0.192862E-03
      0.305000          0.186551E-03
      0.310000          0.180937E-03
      0.315000          0.175970E-03
      0.320000          0.171593E-03
      0.325000          0.167746E-03
      0.330000          0.164364E-03
      0.335000          0.161379E-03
      0.340000          0.158722E-03
      0.345000          0.156327E-03
      0.350000          0.154128E-03
      0.355000          0.152064E-03
      0.360000          0.150078E-03
      0.365000          0.148125E-03
      0.370000          0.146164E-03
      0.375000          0.144166E-03
      0.380000          0.142112E-03
      0.385000          0.139993E-03
      0.390000          0.137807E-03
      0.395000          0.135565E-03
      0.400000          0.133281E-03
      0.405000          0.130976E-03
      0.410000          0.128677E-03
      0.415000          0.126411E-03
      0.420000          0.124206E-03
      0.425000          0.122087E-03
      0.430000          0.120077E-03
      0.435000          0.118196E-03
      0.440000          0.116457E-03
      0.445000          0.114866E-03
      0.450000          0.113424E-03
      0.455000          0.112126E-03
      0.460000          0.110958E-03
      0.465000          0.109905E-03
      0.470000          0.108944E-03
      0.475000          0.108050E-03
      0.480000          0.107197E-03
      0.485000          0.106356E-03
      0.490000          0.105500E-03
      0.495000          0.104603E-03
      0.500000          0.103642E-03
