 I_abs(s)[cm^-1]/c[mg/ml]
       0.00000          0.150002E-01
      0.500000E-02      0.149469E-01
      0.100000E-01      0.147880E-01
      0.150000E-01      0.145268E-01
      0.200000E-01      0.141687E-01
      0.250000E-01      0.137208E-01
      0.300000E-01      0.131923E-01
      0.350000E-01      0.125932E-01
      0.400000E-01      0.119350E-01
      0.450000E-01      0.112297E-01
      0.500000E-01      0.104899E-01
      0.550000E-01      0.972799E-02
      0.600000E-01      0.895614E-02
      0.650000E-01      0.818590E-02
      0.700000E-01      0.742794E-02
      0.750000E-01      0.669181E-02
      0.800000E-01      0.598578E-02
      0.850000E-01      0.531671E-02
      0.900000E-01      0.469001E-02
      0.950000E-01      0.410962E-02
      0.100000          0.357804E-02
      0.105000          0.309646E-02
      0.110000          0.266483E-02
      0.115000          0.228201E-02
      0.120000          0.194600E-02
      0.125000          0.165405E-02
      0.130000          0.140290E-02
      0.135000          0.118890E-02
      0.140000          0.100823E-02
      0.145000          0.857007E-03
      0.150000          0.731440E-03
      0.155000          0.627919E-03
      0.160000          0.543094E-03
      0.165000          0.473937E-03
      0.170000          0.417767E-03
      0.175000          0.372265E-03
      0.180000          0.335469E-03
      0.185000          0.305748E-03
      0.190000          0.281777E-03
      0.195000          0.262496E-03
      0.200000          0.247072E-03
      0.205000          0.234851E-03
      0.210000          0.225323E-03
      0.215000          0.218084E-03
      0.220000          0.212802E-03
      0.225000          0.209194E-03
      0.230000          0.207006E-03
      0.235000          0.205997E-03
      0.240000          0.205933E-03
      0.245000          0.206584E-03
      0.250000          0.207719E-03
      0.255000          0.209117E-03
      0.260000          0.210563E-03
      0.265000          0.211862E-03
      0.270000          0.212836E-03
      0.275000          0.213338E-03
      0.280000          0.213247E-03
      0.285000          0.212480E-03
      0.290000          0.210985E-03
      0.295000          0.208744E-03
      0.300000          0.205774E-03
      0.305000          0.202119E-03
      0.310000          0.197848E-03
      0.315000          0.193052E-03
      0.320000          0.187835E-03
      0.325000          0.182312E-03
      0.330000          0.176602E-03
      0.335000          0.170824E-03
      0.340000          0.165089E-03
      0.345000          0.159501E-03
      0.350000          0.154151E-03
      0.355000          0.149115E-03
      0.360000          0.144452E-03
      0.365000          0.140204E-03
      0.370000          0.136396E-03
      0.375000          0.133037E-03
      0.380000          0.130118E-03
      0.385000          0.127619E-03
      0.390000          0.125507E-03
      0.395000          0.123743E-03
      0.400000          0.122277E-03
      0.405000          0.121060E-03
      0.410000          0.120039E-03
      0.415000          0.119163E-03
      0.420000          0.118385E-03
      0.425000          0.117661E-03
      0.430000          0.116956E-03
      0.435000          0.116238E-03
      0.440000          0.115485E-03
      0.445000          0.114681E-03
      0.450000          0.113819E-03
      0.455000          0.112893E-03
      0.460000          0.111907E-03
      0.465000          0.110866E-03
      0.470000          0.109778E-03
      0.475000          0.108652E-03
      0.480000          0.107498E-03
      0.485000          0.106325E-03
      0.490000          0.105141E-03
      0.495000          0.103951E-03
      0.500000          0.102757E-03
