 I_abs(s)[cm^-1]/c[mg/ml]
       0.00000          0.142919E-01
      0.500000E-02      0.142158E-01
      0.100000E-01      0.139899E-01
      0.150000E-01      0.136211E-01
      0.200000E-01      0.131208E-01
      0.250000E-01      0.125039E-01
      0.300000E-01      0.117886E-01
      0.350000E-01      0.109953E-01
      0.400000E-01      0.101456E-01
      0.450000E-01      0.926190E-02
      0.500000E-01      0.836578E-02
      0.550000E-01      0.747772E-02
      0.600000E-01      0.661616E-02
      0.650000E-01      0.579695E-02
      0.700000E-01      0.503295E-02
      0.750000E-01      0.433380E-02
      0.800000E-01      0.370585E-02
      0.850000E-01      0.315227E-02
      0.900000E-01      0.267330E-02
      0.950000E-01      0.226660E-02
      0.100000          0.192774E-02
      0.105000          0.165065E-02
      0.110000          0.142816E-02
      0.115000          0.125251E-02
      0.120000          0.111581E-02
      0.125000          0.101041E-02
      0.130000          0.929254E-03
      0.135000          0.866091E-03
      0.140000          0.815629E-03
      0.145000          0.773598E-03
      0.150000          0.736741E-03
      0.155000          0.702742E-03
      0.160000          0.670122E-03
      0.165000          0.638089E-03
      0.170000          0.606385E-03
      0.175000          0.575132E-03
      0.180000          0.544687E-03
      0.185000          0.515514E-03
      0.190000          0.488089E-03
      0.195000          0.462816E-03
      0.200000          0.439989E-03
      0.205000          0.419763E-03
      0.210000          0.402150E-03
      0.215000          0.387033E-03
      0.220000          0.374191E-03
      0.225000          0.363322E-03
      0.230000          0.354079E-03
      0.235000          0.346098E-03
      0.240000          0.339020E-03
      0.245000          0.332514E-03
      0.250000          0.326291E-03
      0.255000          0.320110E-03
      0.260000          0.313784E-03
      0.265000          0.307176E-03
      0.270000          0.300200E-03
      0.275000          0.292812E-03
      0.280000          0.285004E-03
      0.285000          0.276799E-03
      0.290000          0.268245E-03
      0.295000          0.259409E-03
      0.300000          0.250370E-03
      0.305000          0.241218E-03
      0.310000          0.232048E-03
      0.315000          0.222954E-03
      0.320000          0.214029E-03
      0.325000          0.205360E-03
      0.330000          0.197024E-03
      0.335000          0.189086E-03
      0.340000          0.181595E-03
      0.345000          0.174586E-03
      0.350000          0.168078E-03
      0.355000          0.162071E-03
      0.360000          0.156552E-03
      0.365000          0.151495E-03
      0.370000          0.146862E-03
      0.375000          0.142613E-03
      0.380000          0.138699E-03
      0.385000          0.135074E-03
      0.390000          0.131695E-03
      0.395000          0.128524E-03
      0.400000          0.125528E-03
      0.405000          0.122686E-03
      0.410000          0.119979E-03
      0.415000          0.117398E-03
      0.420000          0.114940E-03
      0.425000          0.112604E-03
      0.430000          0.110390E-03
      0.435000          0.108301E-03
      0.440000          0.106337E-03
      0.445000          0.104494E-03
      0.450000          0.102767E-03
      0.455000          0.101146E-03
      0.460000          0.996184E-04
      0.465000          0.981701E-04
      0.470000          0.967850E-04
      0.475000          0.954474E-04
      0.480000          0.941430E-04
      0.485000          0.928601E-04
      0.490000          0.915906E-04
      0.495000          0.903304E-04
      0.500000          0.890796E-04
