 I_abs(s)[cm^-1]/c[mg/ml]
       0.00000          0.149519E-01
      0.500000E-02      0.148934E-01
      0.100000E-01      0.147191E-01
      0.150000E-01      0.144334E-01
      0.200000E-01      0.140431E-01
      0.250000E-01      0.135572E-01
      0.300000E-01      0.129870E-01
      0.350000E-01      0.123451E-01
      0.400000E-01      0.116451E-01
      0.450000E-01      0.109013E-01
      0.500000E-01      0.101279E-01
      0.550000E-01      0.933880E-02
      0.600000E-01      0.854716E-02
      0.650000E-01      0.776493E-02
      0.700000E-01      0.700274E-02
      0.750000E-01      0.626968E-02
      0.800000E-01      0.557323E-02
      0.850000E-01      0.491922E-02
      0.900000E-01      0.431191E-02
      0.950000E-01      0.375407E-02
      0.100000          0.324710E-02
      0.105000          0.279125E-02
      0.110000          0.238571E-02
      0.115000          0.202884E-02
      0.120000          0.171833E-02
      0.125000          0.145135E-02
      0.130000          0.122465E-02
      0.135000          0.103475E-02
      0.140000          0.878014E-03
      0.145000          0.750743E-03
      0.150000          0.649261E-03
      0.155000          0.569986E-03
      0.160000          0.509494E-03
      0.165000          0.464567E-03
      0.170000          0.432245E-03
      0.175000          0.409853E-03
      0.180000          0.395034E-03
      0.185000          0.385758E-03
      0.190000          0.380329E-03
      0.195000          0.377375E-03
      0.200000          0.375828E-03
      0.205000          0.374896E-03
      0.210000          0.374029E-03
      0.215000          0.372869E-03
      0.220000          0.371216E-03
      0.225000          0.368975E-03
      0.230000          0.366122E-03
      0.235000          0.362668E-03
      0.240000          0.358630E-03
      0.245000          0.354019E-03
      0.250000          0.348823E-03
      0.255000          0.343011E-03
      0.260000          0.336536E-03
      0.265000          0.329344E-03
      0.270000          0.321387E-03
      0.275000          0.312636E-03
      0.280000          0.303088E-03
      0.285000          0.292783E-03
      0.290000          0.281797E-03
      0.295000          0.270251E-03
      0.300000          0.258302E-03
      0.305000          0.246137E-03
      0.310000          0.233959E-03
      0.315000          0.221978E-03
      0.320000          0.210397E-03
      0.325000          0.199401E-03
      0.330000          0.189144E-03
      0.335000          0.179746E-03
      0.340000          0.171286E-03
      0.345000          0.163804E-03
      0.350000          0.157298E-03
      0.355000          0.151732E-03
      0.360000          0.147041E-03
      0.365000          0.143137E-03
      0.370000          0.139916E-03
      0.375000          0.137270E-03
      0.380000          0.135084E-03
      0.385000          0.133250E-03
      0.390000          0.131668E-03
      0.395000          0.130245E-03
      0.400000          0.128903E-03
      0.405000          0.127575E-03
      0.410000          0.126205E-03
      0.415000          0.124752E-03
      0.420000          0.123183E-03
      0.425000          0.121476E-03
      0.430000          0.119619E-03
      0.435000          0.117608E-03
      0.440000          0.115447E-03
      0.445000          0.113148E-03
      0.450000          0.110730E-03
      0.455000          0.108218E-03
      0.460000          0.105642E-03
      0.465000          0.103037E-03
      0.470000          0.100441E-03
      0.475000          0.978921E-04
      0.480000          0.954282E-04
      0.485000          0.930849E-04
      0.490000          0.908932E-04
      0.495000          0.888786E-04
      0.500000          0.870596E-04
