 I_abs(s)[cm^-1]/c[mg/ml]
       0.00000          0.143943E-01
      0.500000E-02      0.143461E-01
      0.100000E-01      0.142024E-01
      0.150000E-01      0.139659E-01
      0.200000E-01      0.136413E-01
      0.250000E-01      0.132347E-01
      0.300000E-01      0.127538E-01
      0.350000E-01      0.122074E-01
      0.400000E-01      0.116054E-01
      0.450000E-01      0.109582E-01
      0.500000E-01      0.102769E-01
      0.550000E-01      0.957247E-02
      0.600000E-01      0.885583E-02
      0.650000E-01      0.813745E-02
      0.700000E-01      0.742715E-02
      0.750000E-01      0.673386E-02
      0.800000E-01      0.606549E-02
      0.850000E-01      0.542881E-02
      0.900000E-01      0.482934E-02
      0.950000E-01      0.427130E-02
      0.100000          0.375769E-02
      0.105000          0.329025E-02
      0.110000          0.286957E-02
      0.115000          0.249522E-02
      0.120000          0.216581E-02
      0.125000          0.187923E-02
      0.130000          0.163269E-02
      0.135000          0.142298E-02
      0.140000          0.124655E-02
      0.145000          0.109967E-02
      0.150000          0.978587E-03
      0.155000          0.879595E-03
      0.160000          0.799170E-03
      0.165000          0.734022E-03
      0.170000          0.681165E-03
      0.175000          0.637947E-03
      0.180000          0.602074E-03
      0.185000          0.571612E-03
      0.190000          0.544978E-03
      0.195000          0.520920E-03
      0.200000          0.498485E-03
      0.205000          0.476990E-03
      0.210000          0.455978E-03
      0.215000          0.435180E-03
      0.220000          0.414482E-03
      0.225000          0.393880E-03
      0.230000          0.373455E-03
      0.235000          0.353339E-03
      0.240000          0.333696E-03
      0.245000          0.314696E-03
      0.250000          0.296506E-03
      0.255000          0.279277E-03
      0.260000          0.263133E-03
      0.265000          0.248172E-03
      0.270000          0.234463E-03
      0.275000          0.222042E-03
      0.280000          0.210918E-03
      0.285000          0.201075E-03
      0.290000          0.192472E-03
      0.295000          0.185047E-03
      0.300000          0.178724E-03
      0.305000          0.173410E-03
      0.310000          0.169002E-03
      0.315000          0.165389E-03
      0.320000          0.162456E-03
      0.325000          0.160081E-03
      0.330000          0.158145E-03
      0.335000          0.156529E-03
      0.340000          0.155117E-03
      0.345000          0.153801E-03
      0.350000          0.152481E-03
      0.355000          0.151064E-03
      0.360000          0.149471E-03
      0.365000          0.147636E-03
      0.370000          0.145507E-03
      0.375000          0.143048E-03
      0.380000          0.140236E-03
      0.385000          0.137066E-03
      0.390000          0.133546E-03
      0.395000          0.129701E-03
      0.400000          0.125565E-03
      0.405000          0.121186E-03
      0.410000          0.116619E-03
      0.415000          0.111928E-03
      0.420000          0.107180E-03
      0.425000          0.102444E-03
      0.430000          0.977890E-04
      0.435000          0.932823E-04
      0.440000          0.889853E-04
      0.445000          0.849535E-04
      0.450000          0.812343E-04
      0.455000          0.778664E-04
      0.460000          0.748781E-04
      0.465000          0.722882E-04
      0.470000          0.701050E-04
      0.475000          0.683270E-04
      0.480000          0.669440E-04
      0.485000          0.659373E-04
      0.490000          0.652816E-04
      0.495000          0.649459E-04
      0.500000          0.648948E-04
