 I_abs(s)[cm^-1]/c[mg/ml]
       0.00000          0.145605E-01
      0.500000E-02      0.145077E-01
      0.100000E-01      0.143508E-01
      0.150000E-01      0.140933E-01
      0.200000E-01      0.137414E-01
      0.250000E-01      0.133029E-01
      0.300000E-01      0.127878E-01
      0.350000E-01      0.122073E-01
      0.400000E-01      0.115735E-01
      0.450000E-01      0.108993E-01
      0.500000E-01      0.101973E-01
      0.550000E-01      0.948026E-02
      0.600000E-01      0.876001E-02
      0.650000E-01      0.804745E-02
      0.700000E-01      0.735227E-02
      0.750000E-01      0.668273E-02
      0.800000E-01      0.604553E-02
      0.850000E-01      0.544584E-02
      0.900000E-01      0.488726E-02
      0.950000E-01      0.437193E-02
      0.100000          0.390067E-02
      0.105000          0.347314E-02
      0.110000          0.308803E-02
      0.115000          0.274328E-02
      0.120000          0.243624E-02
      0.125000          0.216393E-02
      0.130000          0.192314E-02
      0.135000          0.171063E-02
      0.140000          0.152324E-02
      0.145000          0.135799E-02
      0.150000          0.121213E-02
      0.155000          0.108320E-02
      0.160000          0.969043E-03
      0.165000          0.867810E-03
      0.170000          0.777927E-03
      0.175000          0.698080E-03
      0.180000          0.627178E-03
      0.185000          0.564319E-03
      0.190000          0.508745E-03
      0.195000          0.459812E-03
      0.200000          0.416956E-03
      0.205000          0.379666E-03
      0.210000          0.347460E-03
      0.215000          0.319876E-03
      0.220000          0.296453E-03
      0.225000          0.276733E-03
      0.230000          0.260260E-03
      0.235000          0.246578E-03
      0.240000          0.235242E-03
      0.245000          0.225825E-03
      0.250000          0.217923E-03
      0.255000          0.211170E-03
      0.260000          0.205239E-03
      0.265000          0.199854E-03
      0.270000          0.194791E-03
      0.275000          0.189883E-03
      0.280000          0.185016E-03
      0.285000          0.180131E-03
      0.290000          0.175214E-03
      0.295000          0.170291E-03
      0.300000          0.165419E-03
      0.305000          0.160675E-03
      0.310000          0.156150E-03
      0.315000          0.151931E-03
      0.320000          0.148099E-03
      0.325000          0.144720E-03
      0.330000          0.141836E-03
      0.335000          0.139466E-03
      0.340000          0.137599E-03
      0.345000          0.136202E-03
      0.350000          0.135215E-03
      0.355000          0.134562E-03
      0.360000          0.134151E-03
      0.365000          0.133882E-03
      0.370000          0.133654E-03
      0.375000          0.133370E-03
      0.380000          0.132943E-03
      0.385000          0.132298E-03
      0.390000          0.131377E-03
      0.395000          0.130140E-03
      0.400000          0.128566E-03
      0.405000          0.126650E-03
      0.410000          0.124405E-03
      0.415000          0.121857E-03
      0.420000          0.119043E-03
      0.425000          0.116006E-03
      0.430000          0.112796E-03
      0.435000          0.109464E-03
      0.440000          0.106061E-03
      0.445000          0.102634E-03
      0.450000          0.992277E-04
      0.455000          0.958816E-04
      0.460000          0.926295E-04
      0.465000          0.894999E-04
      0.470000          0.865161E-04
      0.475000          0.836962E-04
      0.480000          0.810541E-04
      0.485000          0.785995E-04
      0.490000          0.763388E-04
      0.495000          0.742757E-04
      0.500000          0.724110E-04
