 I_abs(s)[cm^-1]/c[mg/ml]
       0.00000          0.148315E-01
      0.500000E-02      0.147821E-01
      0.100000E-01      0.146347E-01
      0.150000E-01      0.143922E-01
      0.200000E-01      0.140596E-01
      0.250000E-01      0.136433E-01
      0.300000E-01      0.131513E-01
      0.350000E-01      0.125927E-01
      0.400000E-01      0.119780E-01
      0.450000E-01      0.113178E-01
      0.500000E-01      0.106235E-01
      0.550000E-01      0.990625E-02
      0.600000E-01      0.917713E-02
      0.650000E-01      0.844662E-02
      0.700000E-01      0.772446E-02
      0.750000E-01      0.701944E-02
      0.800000E-01      0.633923E-02
      0.850000E-01      0.569031E-02
      0.900000E-01      0.507789E-02
      0.950000E-01      0.450592E-02
      0.100000          0.397710E-02
      0.105000          0.349296E-02
      0.110000          0.305395E-02
      0.115000          0.265957E-02
      0.120000          0.230852E-02
      0.125000          0.199883E-02
      0.130000          0.172799E-02
      0.135000          0.149313E-02
      0.140000          0.129115E-02
      0.145000          0.111881E-02
      0.150000          0.972875E-03
      0.155000          0.850168E-03
      0.160000          0.747662E-03
      0.165000          0.662526E-03
      0.170000          0.592158E-03
      0.175000          0.534206E-03
      0.180000          0.486577E-03
      0.185000          0.447435E-03
      0.190000          0.415189E-03
      0.195000          0.388478E-03
      0.200000          0.366153E-03
      0.205000          0.347255E-03
      0.210000          0.330993E-03
      0.215000          0.316726E-03
      0.220000          0.303940E-03
      0.225000          0.292232E-03
      0.230000          0.281294E-03
      0.235000          0.270898E-03
      0.240000          0.260885E-03
      0.245000          0.251150E-03
      0.250000          0.241635E-03
      0.255000          0.232318E-03
      0.260000          0.223205E-03
      0.265000          0.214321E-03
      0.270000          0.205704E-03
      0.275000          0.197398E-03
      0.280000          0.189449E-03
      0.285000          0.181897E-03
      0.290000          0.174774E-03
      0.295000          0.168104E-03
      0.300000          0.161898E-03
      0.305000          0.156154E-03
      0.310000          0.150858E-03
      0.315000          0.145989E-03
      0.320000          0.141512E-03
      0.325000          0.137392E-03
      0.330000          0.133586E-03
      0.335000          0.130053E-03
      0.340000          0.126752E-03
      0.345000          0.123647E-03
      0.350000          0.120705E-03
      0.355000          0.117901E-03
      0.360000          0.115218E-03
      0.365000          0.112642E-03
      0.370000          0.110169E-03
      0.375000          0.107798E-03
      0.380000          0.105531E-03
      0.385000          0.103374E-03
      0.390000          0.101336E-03
      0.395000          0.994218E-04
      0.400000          0.976385E-04
      0.405000          0.959900E-04
      0.410000          0.944782E-04
      0.415000          0.931022E-04
      0.420000          0.918587E-04
      0.425000          0.907424E-04
      0.430000          0.897460E-04
      0.435000          0.888614E-04
      0.440000          0.880799E-04
      0.445000          0.873931E-04
      0.450000          0.867933E-04
      0.455000          0.862740E-04
      0.460000          0.858299E-04
      0.465000          0.854572E-04
      0.470000          0.851535E-04
      0.475000          0.849173E-04
      0.480000          0.847478E-04
      0.485000          0.846443E-04
      0.490000          0.846057E-04
      0.495000          0.846302E-04
      0.500000          0.847144E-04
