 I_abs(s)[cm^-1]/c[mg/ml]
       0.00000          0.145288E-01
      0.500000E-02      0.144673E-01
      0.100000E-01      0.142848E-01
      0.150000E-01      0.139864E-01
      0.200000E-01      0.135805E-01
      0.250000E-01      0.130782E-01
      0.300000E-01      0.124929E-01
      0.350000E-01      0.118393E-01
      0.400000E-01      0.111332E-01
      0.450000E-01      0.103906E-01
      0.500000E-01      0.962685E-02
      0.550000E-01      0.885656E-02
      0.600000E-01      0.809286E-02
      0.650000E-01      0.734720E-02
      0.700000E-01      0.662915E-02
      0.750000E-01      0.594633E-02
      0.800000E-01      0.530448E-02
      0.850000E-01      0.470755E-02
      0.900000E-01      0.415788E-02
      0.950000E-01      0.365645E-02
      0.100000          0.320306E-02
      0.105000          0.279658E-02
      0.110000          0.243516E-02
      0.115000          0.211641E-02
      0.120000          0.183753E-02
      0.125000          0.159548E-02
      0.130000          0.138706E-02
      0.135000          0.120899E-02
      0.140000          0.105801E-02
      0.145000          0.930945E-03
      0.150000          0.824724E-03
      0.155000          0.736459E-03
      0.160000          0.663473E-03
      0.165000          0.603333E-03
      0.170000          0.553870E-03
      0.175000          0.513187E-03
      0.180000          0.479659E-03
      0.185000          0.451915E-03
      0.190000          0.428824E-03
      0.195000          0.409459E-03
      0.200000          0.393068E-03
      0.205000          0.379045E-03
      0.210000          0.366892E-03
      0.215000          0.356202E-03
      0.220000          0.346632E-03
      0.225000          0.337894E-03
      0.230000          0.329744E-03
      0.235000          0.321976E-03
      0.240000          0.314425E-03
      0.245000          0.306964E-03
      0.250000          0.299503E-03
      0.255000          0.291985E-03
      0.260000          0.284390E-03
      0.265000          0.276719E-03
      0.270000          0.268996E-03
      0.275000          0.261256E-03
      0.280000          0.253541E-03
      0.285000          0.245890E-03
      0.290000          0.238339E-03
      0.295000          0.230920E-03
      0.300000          0.223655E-03
      0.305000          0.216566E-03
      0.310000          0.209671E-03
      0.315000          0.202989E-03
      0.320000          0.196544E-03
      0.325000          0.190364E-03
      0.330000          0.184483E-03
      0.335000          0.178937E-03
      0.340000          0.173765E-03
      0.345000          0.169000E-03
      0.350000          0.164668E-03
      0.355000          0.160787E-03
      0.360000          0.157355E-03
      0.365000          0.154358E-03
      0.370000          0.151763E-03
      0.375000          0.149520E-03
      0.380000          0.147569E-03
      0.385000          0.145837E-03
      0.390000          0.144249E-03
      0.395000          0.142727E-03
      0.400000          0.141199E-03
      0.405000          0.139600E-03
      0.410000          0.137877E-03
      0.415000          0.135988E-03
      0.420000          0.133905E-03
      0.425000          0.131615E-03
      0.430000          0.129114E-03
      0.435000          0.126411E-03
      0.440000          0.123523E-03
      0.445000          0.120473E-03
      0.450000          0.117289E-03
      0.455000          0.114004E-03
      0.460000          0.110650E-03
      0.465000          0.107263E-03
      0.470000          0.103879E-03
      0.475000          0.100534E-03
      0.480000          0.972632E-04
      0.485000          0.941028E-04
      0.490000          0.910861E-04
      0.495000          0.882450E-04
      0.500000          0.856084E-04
