 I_abs(s)[cm^-1]/c[mg/ml]
       0.00000          0.145129E-01
      0.500000E-02      0.144511E-01
      0.100000E-01      0.142676E-01
      0.150000E-01      0.139676E-01
      0.200000E-01      0.135596E-01
      0.250000E-01      0.130549E-01
      0.300000E-01      0.124668E-01
      0.350000E-01      0.118105E-01
      0.400000E-01      0.111018E-01
      0.450000E-01      0.103569E-01
      0.500000E-01      0.959156E-02
      0.550000E-01      0.882041E-02
      0.600000E-01      0.805683E-02
      0.650000E-01      0.731241E-02
      0.700000E-01      0.659686E-02
      0.750000E-01      0.591788E-02
      0.800000E-01      0.528122E-02
      0.850000E-01      0.469082E-02
      0.900000E-01      0.414894E-02
      0.950000E-01      0.365640E-02
      0.100000          0.321281E-02
      0.105000          0.281683E-02
      0.110000          0.246630E-02
      0.115000          0.215855E-02
      0.120000          0.189046E-02
      0.125000          0.165867E-02
      0.130000          0.145970E-02
      0.135000          0.129002E-02
      0.140000          0.114614E-02
      0.145000          0.102470E-02
      0.150000          0.922552E-03
      0.155000          0.836739E-03
      0.160000          0.764601E-03
      0.165000          0.703772E-03
      0.170000          0.652201E-03
      0.175000          0.608149E-03
      0.180000          0.570180E-03
      0.185000          0.537136E-03
      0.190000          0.508104E-03
      0.195000          0.482378E-03
      0.200000          0.459418E-03
      0.205000          0.438809E-03
      0.210000          0.420231E-03
      0.215000          0.403423E-03
      0.220000          0.388163E-03
      0.225000          0.374255E-03
      0.230000          0.361517E-03
      0.235000          0.349782E-03
      0.240000          0.338891E-03
      0.245000          0.328703E-03
      0.250000          0.319090E-03
      0.255000          0.309940E-03
      0.260000          0.301158E-03
      0.265000          0.292662E-03
      0.270000          0.284383E-03
      0.275000          0.276260E-03
      0.280000          0.268242E-03
      0.285000          0.260286E-03
      0.290000          0.252357E-03
      0.295000          0.244432E-03
      0.300000          0.236503E-03
      0.305000          0.228581E-03
      0.310000          0.220694E-03
      0.315000          0.212896E-03
      0.320000          0.205254E-03
      0.325000          0.197854E-03
      0.330000          0.190788E-03
      0.335000          0.184150E-03
      0.340000          0.178021E-03
      0.345000          0.172468E-03
      0.350000          0.167529E-03
      0.355000          0.163213E-03
      0.360000          0.159498E-03
      0.365000          0.156327E-03
      0.370000          0.153621E-03
      0.375000          0.151279E-03
      0.380000          0.149191E-03
      0.385000          0.147245E-03
      0.390000          0.145339E-03
      0.395000          0.143386E-03
      0.400000          0.141322E-03
      0.405000          0.139107E-03
      0.410000          0.136724E-03
      0.415000          0.134178E-03
      0.420000          0.131493E-03
      0.425000          0.128703E-03
      0.430000          0.125849E-03
      0.435000          0.122973E-03
      0.440000          0.120114E-03
      0.445000          0.117304E-03
      0.450000          0.114569E-03
      0.455000          0.111927E-03
      0.460000          0.109391E-03
      0.465000          0.106970E-03
      0.470000          0.104669E-03
      0.475000          0.102493E-03
      0.480000          0.100448E-03
      0.485000          0.985372E-04
      0.490000          0.967636E-04
      0.495000          0.951275E-04
      0.500000          0.936251E-04
