 I_abs(s)[cm^-1]/c[mg/ml]
       0.00000          0.148476E-01
      0.500000E-02      0.147818E-01
      0.100000E-01      0.145861E-01
      0.150000E-01      0.142659E-01
      0.200000E-01      0.138293E-01
      0.250000E-01      0.132878E-01
      0.300000E-01      0.126548E-01
      0.350000E-01      0.119460E-01
      0.400000E-01      0.111780E-01
      0.450000E-01      0.103683E-01
      0.500000E-01      0.953419E-02
      0.550000E-01      0.869236E-02
      0.600000E-01      0.785845E-02
      0.650000E-01      0.704647E-02
      0.700000E-01      0.626851E-02
      0.750000E-01      0.553449E-02
      0.800000E-01      0.485203E-02
      0.850000E-01      0.422647E-02
      0.900000E-01      0.366088E-02
      0.950000E-01      0.315632E-02
      0.100000          0.271199E-02
      0.105000          0.232560E-02
      0.110000          0.199360E-02
      0.115000          0.171157E-02
      0.120000          0.147448E-02
      0.125000          0.127703E-02
      0.130000          0.111385E-02
      0.135000          0.979771E-03
      0.140000          0.869939E-03
      0.145000          0.779965E-03
      0.150000          0.705982E-03
      0.155000          0.644680E-03
      0.160000          0.593304E-03
      0.165000          0.549623E-03
      0.170000          0.511880E-03
      0.175000          0.478732E-03
      0.180000          0.449180E-03
      0.185000          0.422503E-03
      0.190000          0.398195E-03
      0.195000          0.375910E-03
      0.200000          0.355414E-03
      0.205000          0.336547E-03
      0.210000          0.319196E-03
      0.215000          0.303273E-03
      0.220000          0.288705E-03
      0.225000          0.275424E-03
      0.230000          0.263365E-03
      0.235000          0.252461E-03
      0.240000          0.242649E-03
      0.245000          0.233867E-03
      0.250000          0.226054E-03
      0.255000          0.219153E-03
      0.260000          0.213110E-03
      0.265000          0.207871E-03
      0.270000          0.203386E-03
      0.275000          0.199603E-03
      0.280000          0.196469E-03
      0.285000          0.193932E-03
      0.290000          0.191935E-03
      0.295000          0.190418E-03
      0.300000          0.189321E-03
      0.305000          0.188580E-03
      0.310000          0.188127E-03
      0.315000          0.187896E-03
      0.320000          0.187818E-03
      0.325000          0.187826E-03
      0.330000          0.187852E-03
      0.335000          0.187832E-03
      0.340000          0.187707E-03
      0.345000          0.187421E-03
      0.350000          0.186924E-03
      0.355000          0.186175E-03
      0.360000          0.185140E-03
      0.365000          0.183793E-03
      0.370000          0.182121E-03
      0.375000          0.180116E-03
      0.380000          0.177782E-03
      0.385000          0.175130E-03
      0.390000          0.172178E-03
      0.395000          0.168952E-03
      0.400000          0.165478E-03
      0.405000          0.161788E-03
      0.410000          0.157912E-03
      0.415000          0.153882E-03
      0.420000          0.149726E-03
      0.425000          0.145470E-03
      0.430000          0.141139E-03
      0.435000          0.136754E-03
      0.440000          0.132336E-03
      0.445000          0.127907E-03
      0.450000          0.123488E-03
      0.455000          0.119106E-03
      0.460000          0.114791E-03
      0.465000          0.110577E-03
      0.470000          0.106504E-03
      0.475000          0.102620E-03
      0.480000          0.989715E-04
      0.485000          0.956117E-04
      0.490000          0.925915E-04
      0.495000          0.899590E-04
      0.500000          0.877560E-04
