 I_abs(s)[cm^-1]/c[mg/ml]
       0.00000          0.146718E-01
      0.500000E-02      0.146195E-01
      0.100000E-01      0.144638E-01
      0.150000E-01      0.142082E-01
      0.200000E-01      0.138582E-01
      0.250000E-01      0.134214E-01
      0.300000E-01      0.129071E-01
      0.350000E-01      0.123258E-01
      0.400000E-01      0.116893E-01
      0.450000E-01      0.110097E-01
      0.500000E-01      0.102996E-01
      0.550000E-01      0.957121E-02
      0.600000E-01      0.883643E-02
      0.650000E-01      0.810629E-02
      0.700000E-01      0.739073E-02
      0.750000E-01      0.669847E-02
      0.800000E-01      0.603680E-02
      0.850000E-01      0.541154E-02
      0.900000E-01      0.482703E-02
      0.950000E-01      0.428617E-02
      0.100000          0.379051E-02
      0.105000          0.334041E-02
      0.110000          0.293515E-02
      0.115000          0.257319E-02
      0.120000          0.225227E-02
      0.125000          0.196967E-02
      0.130000          0.172234E-02
      0.135000          0.150708E-02
      0.140000          0.132065E-02
      0.145000          0.115992E-02
      0.150000          0.102189E-02
      0.155000          0.903801E-03
      0.160000          0.803142E-03
      0.165000          0.717654E-03
      0.170000          0.645335E-03
      0.175000          0.584415E-03
      0.180000          0.533331E-03
      0.185000          0.490700E-03
      0.190000          0.455286E-03
      0.195000          0.425978E-03
      0.200000          0.401762E-03
      0.205000          0.381711E-03
      0.210000          0.364975E-03
      0.215000          0.350776E-03
      0.220000          0.338411E-03
      0.225000          0.327257E-03
      0.230000          0.316777E-03
      0.235000          0.306528E-03
      0.240000          0.296166E-03
      0.245000          0.285450E-03
      0.250000          0.274239E-03
      0.255000          0.262489E-03
      0.260000          0.250245E-03
      0.265000          0.237627E-03
      0.270000          0.224816E-03
      0.275000          0.212036E-03
      0.280000          0.199534E-03
      0.285000          0.187563E-03
      0.290000          0.176364E-03
      0.295000          0.166151E-03
      0.300000          0.157097E-03
      0.305000          0.149328E-03
      0.310000          0.142914E-03
      0.315000          0.137870E-03
      0.320000          0.134155E-03
      0.325000          0.131681E-03
      0.330000          0.130316E-03
      0.335000          0.129896E-03
      0.340000          0.130235E-03
      0.345000          0.131135E-03
      0.350000          0.132395E-03
      0.355000          0.133822E-03
      0.360000          0.135240E-03
      0.365000          0.136495E-03
      0.370000          0.137458E-03
      0.375000          0.138030E-03
      0.380000          0.138142E-03
      0.385000          0.137755E-03
      0.390000          0.136854E-03
      0.395000          0.135452E-03
      0.400000          0.133579E-03
      0.405000          0.131279E-03
      0.410000          0.128611E-03
      0.415000          0.125638E-03
      0.420000          0.122426E-03
      0.425000          0.119045E-03
      0.430000          0.115556E-03
      0.435000          0.112022E-03
      0.440000          0.108497E-03
      0.445000          0.105030E-03
      0.450000          0.101662E-03
      0.455000          0.984298E-04
      0.460000          0.953644E-04
      0.465000          0.924911E-04
      0.470000          0.898308E-04
      0.475000          0.874002E-04
      0.480000          0.852125E-04
      0.485000          0.832772E-04
      0.490000          0.816005E-04
      0.495000          0.801846E-04
      0.500000          0.790282E-04
