 I_abs(s)[cm^-1]/c[mg/ml]
       0.00000          0.145208E-01
      0.500000E-02      0.144699E-01
      0.100000E-01      0.143184E-01
      0.150000E-01      0.140696E-01
      0.200000E-01      0.137292E-01
      0.250000E-01      0.133046E-01
      0.300000E-01      0.128050E-01
      0.350000E-01      0.122408E-01
      0.400000E-01      0.116235E-01
      0.450000E-01      0.109652E-01
      0.500000E-01      0.102780E-01
      0.550000E-01      0.957402E-02
      0.600000E-01      0.886474E-02
      0.650000E-01      0.816084E-02
      0.700000E-01      0.747187E-02
      0.750000E-01      0.680613E-02
      0.800000E-01      0.617048E-02
      0.850000E-01      0.557031E-02
      0.900000E-01      0.500955E-02
      0.950000E-01      0.449067E-02
      0.100000          0.401484E-02
      0.105000          0.358207E-02
      0.110000          0.319133E-02
      0.115000          0.284080E-02
      0.120000          0.252802E-02
      0.125000          0.225010E-02
      0.130000          0.200390E-02
      0.135000          0.178616E-02
      0.140000          0.159369E-02
      0.145000          0.142343E-02
      0.150000          0.127253E-02
      0.155000          0.113846E-02
      0.160000          0.101896E-02
      0.165000          0.912127E-03
      0.170000          0.816343E-03
      0.175000          0.730282E-03
      0.180000          0.652872E-03
      0.185000          0.583252E-03
      0.190000          0.520734E-03
      0.195000          0.464762E-03
      0.200000          0.414878E-03
      0.205000          0.370684E-03
      0.210000          0.331826E-03
      0.215000          0.297964E-03
      0.220000          0.268765E-03
      0.225000          0.243890E-03
      0.230000          0.222993E-03
      0.235000          0.205717E-03
      0.240000          0.191698E-03
      0.245000          0.180568E-03
      0.250000          0.171959E-03
      0.255000          0.165513E-03
      0.260000          0.160879E-03
      0.265000          0.157725E-03
      0.270000          0.155739E-03
      0.275000          0.154635E-03
      0.280000          0.154154E-03
      0.285000          0.154065E-03
      0.290000          0.154171E-03
      0.295000          0.154308E-03
      0.300000          0.154342E-03
      0.305000          0.154173E-03
      0.310000          0.153733E-03
      0.315000          0.152983E-03
      0.320000          0.151908E-03
      0.325000          0.150519E-03
      0.330000          0.148846E-03
      0.335000          0.146933E-03
      0.340000          0.144835E-03
      0.345000          0.142612E-03
      0.350000          0.140326E-03
      0.355000          0.138037E-03
      0.360000          0.135794E-03
      0.365000          0.133641E-03
      0.370000          0.131606E-03
      0.375000          0.129706E-03
      0.380000          0.127943E-03
      0.385000          0.126307E-03
      0.390000          0.124776E-03
      0.395000          0.123321E-03
      0.400000          0.121905E-03
      0.405000          0.120487E-03
      0.410000          0.119027E-03
      0.415000          0.117489E-03
      0.420000          0.115840E-03
      0.425000          0.114056E-03
      0.430000          0.112123E-03
      0.435000          0.110035E-03
      0.440000          0.107798E-03
      0.445000          0.105426E-03
      0.450000          0.102941E-03
      0.455000          0.100373E-03
      0.460000          0.977558E-04
      0.465000          0.951256E-04
      0.470000          0.925191E-04
      0.475000          0.899711E-04
      0.480000          0.875129E-04
      0.485000          0.851704E-04
      0.490000          0.829640E-04
      0.495000          0.809070E-04
      0.500000          0.790064E-04
