 I_abs(s)[cm^-1]/c[mg/ml]
       0.00000          0.148957E-01
      0.500000E-02      0.148440E-01
      0.100000E-01      0.146901E-01
      0.150000E-01      0.144370E-01
      0.200000E-01      0.140896E-01
      0.250000E-01      0.136546E-01
      0.300000E-01      0.131403E-01
      0.350000E-01      0.125562E-01
      0.400000E-01      0.119131E-01
      0.450000E-01      0.112221E-01
      0.500000E-01      0.104951E-01
      0.550000E-01      0.974383E-02
      0.600000E-01      0.897993E-02
      0.650000E-01      0.821453E-02
      0.700000E-01      0.745800E-02
      0.750000E-01      0.671979E-02
      0.800000E-01      0.600822E-02
      0.850000E-01      0.533037E-02
      0.900000E-01      0.469203E-02
      0.950000E-01      0.409766E-02
      0.100000          0.355040E-02
      0.105000          0.305215E-02
      0.110000          0.260361E-02
      0.115000          0.220446E-02
      0.120000          0.185345E-02
      0.125000          0.154857E-02
      0.130000          0.128718E-02
      0.135000          0.106616E-02
      0.140000          0.882077E-03
      0.145000          0.731306E-03
      0.150000          0.610138E-03
      0.155000          0.514892E-03
      0.160000          0.441998E-03
      0.165000          0.388061E-03
      0.170000          0.349914E-03
      0.175000          0.324648E-03
      0.180000          0.309636E-03
      0.185000          0.302540E-03
      0.190000          0.301307E-03
      0.195000          0.304165E-03
      0.200000          0.309609E-03
      0.205000          0.316379E-03
      0.210000          0.323448E-03
      0.215000          0.329996E-03
      0.220000          0.335394E-03
      0.225000          0.339184E-03
      0.230000          0.341057E-03
      0.235000          0.340839E-03
      0.240000          0.338472E-03
      0.245000          0.333996E-03
      0.250000          0.327536E-03
      0.255000          0.319283E-03
      0.260000          0.309480E-03
      0.265000          0.298408E-03
      0.270000          0.286369E-03
      0.275000          0.273673E-03
      0.280000          0.260626E-03
      0.285000          0.247521E-03
      0.290000          0.234623E-03
      0.295000          0.222165E-03
      0.300000          0.210340E-03
      0.305000          0.199301E-03
      0.310000          0.189153E-03
      0.315000          0.179963E-03
      0.320000          0.171752E-03
      0.325000          0.164509E-03
      0.330000          0.158189E-03
      0.335000          0.152723E-03
      0.340000          0.148026E-03
      0.345000          0.144001E-03
      0.350000          0.140544E-03
      0.355000          0.137557E-03
      0.360000          0.134945E-03
      0.365000          0.132624E-03
      0.370000          0.130524E-03
      0.375000          0.128588E-03
      0.380000          0.126772E-03
      0.385000          0.125050E-03
      0.390000          0.123402E-03
      0.395000          0.121822E-03
      0.400000          0.120309E-03
      0.405000          0.118867E-03
      0.410000          0.117499E-03
      0.415000          0.116212E-03
      0.420000          0.115005E-03
      0.425000          0.113876E-03
      0.430000          0.112817E-03
      0.435000          0.111815E-03
      0.440000          0.110852E-03
      0.445000          0.109906E-03
      0.450000          0.108955E-03
      0.455000          0.107973E-03
      0.460000          0.106937E-03
      0.465000          0.105826E-03
      0.470000          0.104622E-03
      0.475000          0.103315E-03
      0.480000          0.101899E-03
      0.485000          0.100374E-03
      0.490000          0.987503E-04
      0.495000          0.970407E-04
      0.500000          0.952656E-04
