 I_abs(s)[cm^-1]/c[mg/ml]
       0.00000          0.148476E-01
      0.500000E-02      0.148008E-01
      0.100000E-01      0.146615E-01
      0.150000E-01      0.144322E-01
      0.200000E-01      0.141172E-01
      0.250000E-01      0.137225E-01
      0.300000E-01      0.132553E-01
      0.350000E-01      0.127238E-01
      0.400000E-01      0.121375E-01
      0.450000E-01      0.115061E-01
      0.500000E-01      0.108399E-01
      0.550000E-01      0.101493E-01
      0.600000E-01      0.944440E-02
      0.650000E-01      0.873500E-02
      0.700000E-01      0.803021E-02
      0.750000E-01      0.733835E-02
      0.800000E-01      0.666679E-02
      0.850000E-01      0.602188E-02
      0.900000E-01      0.540883E-02
      0.950000E-01      0.483176E-02
      0.100000          0.429367E-02
      0.105000          0.379650E-02
      0.110000          0.334122E-02
      0.115000          0.292792E-02
      0.120000          0.255588E-02
      0.125000          0.222379E-02
      0.130000          0.192976E-02
      0.135000          0.167152E-02
      0.140000          0.144650E-02
      0.145000          0.125197E-02
      0.150000          0.108508E-02
      0.155000          0.942990E-03
      0.160000          0.822919E-03
      0.165000          0.722195E-03
      0.170000          0.638296E-03
      0.175000          0.568880E-03
      0.180000          0.511799E-03
      0.185000          0.465108E-03
      0.190000          0.427063E-03
      0.195000          0.396123E-03
      0.200000          0.370935E-03
      0.205000          0.350327E-03
      0.210000          0.333294E-03
      0.215000          0.318987E-03
      0.220000          0.306697E-03
      0.225000          0.295846E-03
      0.230000          0.285970E-03
      0.235000          0.276708E-03
      0.240000          0.267792E-03
      0.245000          0.259032E-03
      0.250000          0.250307E-03
      0.255000          0.241550E-03
      0.260000          0.232745E-03
      0.265000          0.223907E-03
      0.270000          0.215079E-03
      0.275000          0.206320E-03
      0.280000          0.197699E-03
      0.285000          0.189286E-03
      0.290000          0.181148E-03
      0.295000          0.173345E-03
      0.300000          0.165924E-03
      0.305000          0.158922E-03
      0.310000          0.152362E-03
      0.315000          0.146253E-03
      0.320000          0.140594E-03
      0.325000          0.135375E-03
      0.330000          0.130577E-03
      0.335000          0.126177E-03
      0.340000          0.122148E-03
      0.345000          0.118462E-03
      0.350000          0.115093E-03
      0.355000          0.112015E-03
      0.360000          0.109205E-03
      0.365000          0.106641E-03
      0.370000          0.104306E-03
      0.375000          0.102184E-03
      0.380000          0.100260E-03
      0.385000          0.985186E-04
      0.390000          0.969472E-04
      0.395000          0.955308E-04
      0.400000          0.942540E-04
      0.405000          0.931004E-04
      0.410000          0.920522E-04
      0.415000          0.910911E-04
      0.420000          0.901983E-04
      0.425000          0.893552E-04
      0.430000          0.885440E-04
      0.435000          0.877484E-04
      0.440000          0.869544E-04
      0.445000          0.861506E-04
      0.450000          0.853288E-04
      0.455000          0.844841E-04
      0.460000          0.836151E-04
      0.465000          0.827239E-04
      0.470000          0.818156E-04
      0.475000          0.808978E-04
      0.480000          0.799804E-04
      0.485000          0.790750E-04
      0.490000          0.781938E-04
      0.495000          0.773493E-04
      0.500000          0.765539E-04
