 I_abs(s)[cm^-1]/c[mg/ml]
       0.00000          0.149278E-01
      0.500000E-02      0.148800E-01
      0.100000E-01      0.147376E-01
      0.150000E-01      0.145032E-01
      0.200000E-01      0.141813E-01
      0.250000E-01      0.137779E-01
      0.300000E-01      0.133002E-01
      0.350000E-01      0.127570E-01
      0.400000E-01      0.121576E-01
      0.450000E-01      0.115122E-01
      0.500000E-01      0.108313E-01
      0.550000E-01      0.101255E-01
      0.600000E-01      0.940522E-02
      0.650000E-01      0.868055E-02
      0.700000E-01      0.796082E-02
      0.750000E-01      0.725461E-02
      0.800000E-01      0.656948E-02
      0.850000E-01      0.591193E-02
      0.900000E-01      0.528733E-02
      0.950000E-01      0.469985E-02
      0.100000          0.415252E-02
      0.105000          0.364727E-02
      0.110000          0.318501E-02
      0.115000          0.276572E-02
      0.120000          0.238858E-02
      0.125000          0.205210E-02
      0.130000          0.175426E-02
      0.135000          0.149265E-02
      0.140000          0.126457E-02
      0.145000          0.106718E-02
      0.150000          0.897574E-03
      0.155000          0.752888E-03
      0.160000          0.630360E-03
      0.165000          0.527385E-03
      0.170000          0.441551E-03
      0.175000          0.370657E-03
      0.180000          0.312726E-03
      0.185000          0.265998E-03
      0.190000          0.228921E-03
      0.195000          0.200130E-03
      0.200000          0.178434E-03
      0.205000          0.162784E-03
      0.210000          0.152260E-03
      0.215000          0.146044E-03
      0.220000          0.143405E-03
      0.225000          0.143686E-03
      0.230000          0.146291E-03
      0.235000          0.150674E-03
      0.240000          0.156343E-03
      0.245000          0.162848E-03
      0.250000          0.169784E-03
      0.255000          0.176796E-03
      0.260000          0.183572E-03
      0.265000          0.189851E-03
      0.270000          0.195419E-03
      0.275000          0.200113E-03
      0.280000          0.203818E-03
      0.285000          0.206462E-03
      0.290000          0.208020E-03
      0.295000          0.208501E-03
      0.300000          0.207950E-03
      0.305000          0.206439E-03
      0.310000          0.204061E-03
      0.315000          0.200927E-03
      0.320000          0.197156E-03
      0.325000          0.192874E-03
      0.330000          0.188204E-03
      0.335000          0.183267E-03
      0.340000          0.178177E-03
      0.345000          0.173037E-03
      0.350000          0.167937E-03
      0.355000          0.162954E-03
      0.360000          0.158152E-03
      0.365000          0.153582E-03
      0.370000          0.149279E-03
      0.375000          0.145268E-03
      0.380000          0.141560E-03
      0.385000          0.138159E-03
      0.390000          0.135059E-03
      0.395000          0.132246E-03
      0.400000          0.129702E-03
      0.405000          0.127404E-03
      0.410000          0.125325E-03
      0.415000          0.123440E-03
      0.420000          0.121719E-03
      0.425000          0.120136E-03
      0.430000          0.118663E-03
      0.435000          0.117276E-03
      0.440000          0.115952E-03
      0.445000          0.114670E-03
      0.450000          0.113412E-03
      0.455000          0.112163E-03
      0.460000          0.110909E-03
      0.465000          0.109639E-03
      0.470000          0.108345E-03
      0.475000          0.107019E-03
      0.480000          0.105656E-03
      0.485000          0.104253E-03
      0.490000          0.102806E-03
      0.495000          0.101316E-03
      0.500000          0.997818E-04
