 I_abs(s)[cm^-1]/c[mg/ml]
       0.00000          0.151698E-01
      0.500000E-02      0.151175E-01
      0.100000E-01      0.149616E-01
      0.150000E-01      0.147053E-01
      0.200000E-01      0.143538E-01
      0.250000E-01      0.139141E-01
      0.300000E-01      0.133948E-01
      0.350000E-01      0.128059E-01
      0.400000E-01      0.121582E-01
      0.450000E-01      0.114635E-01
      0.500000E-01      0.107338E-01
      0.550000E-01      0.998107E-02
      0.600000E-01      0.921701E-02
      0.650000E-01      0.845275E-02
      0.700000E-01      0.769856E-02
      0.750000E-01      0.696364E-02
      0.800000E-01      0.625598E-02
      0.850000E-01      0.558227E-02
      0.900000E-01      0.494781E-02
      0.950000E-01      0.435656E-02
      0.100000          0.381114E-02
      0.105000          0.331295E-02
      0.110000          0.286225E-02
      0.115000          0.245835E-02
      0.120000          0.209972E-02
      0.125000          0.178416E-02
      0.130000          0.150901E-02
      0.135000          0.127122E-02
      0.140000          0.106757E-02
      0.145000          0.894751E-03
      0.150000          0.749470E-03
      0.155000          0.628555E-03
      0.160000          0.528999E-03
      0.165000          0.448010E-03
      0.170000          0.383033E-03
      0.175000          0.331760E-03
      0.180000          0.292126E-03
      0.185000          0.262295E-03
      0.190000          0.240647E-03
      0.195000          0.225753E-03
      0.200000          0.216354E-03
      0.205000          0.211339E-03
      0.210000          0.209727E-03
      0.215000          0.210653E-03
      0.220000          0.213356E-03
      0.225000          0.217167E-03
      0.230000          0.221510E-03
      0.235000          0.225890E-03
      0.240000          0.229901E-03
      0.245000          0.233215E-03
      0.250000          0.235585E-03
      0.255000          0.236844E-03
      0.260000          0.236895E-03
      0.265000          0.235711E-03
      0.270000          0.233326E-03
      0.275000          0.229825E-03
      0.280000          0.225335E-03
      0.285000          0.220017E-03
      0.290000          0.214051E-03
      0.295000          0.207629E-03
      0.300000          0.200943E-03
      0.305000          0.194178E-03
      0.310000          0.187502E-03
      0.315000          0.181065E-03
      0.320000          0.174989E-03
      0.325000          0.169371E-03
      0.330000          0.164278E-03
      0.335000          0.159751E-03
      0.340000          0.155805E-03
      0.345000          0.152432E-03
      0.350000          0.149604E-03
      0.355000          0.147277E-03
      0.360000          0.145396E-03
      0.365000          0.143895E-03
      0.370000          0.142707E-03
      0.375000          0.141758E-03
      0.380000          0.140978E-03
      0.385000          0.140300E-03
      0.390000          0.139661E-03
      0.395000          0.139004E-03
      0.400000          0.138281E-03
      0.405000          0.137451E-03
      0.410000          0.136480E-03
      0.415000          0.135345E-03
      0.420000          0.134030E-03
      0.425000          0.132530E-03
      0.430000          0.130843E-03
      0.435000          0.128980E-03
      0.440000          0.126953E-03
      0.445000          0.124785E-03
      0.450000          0.122499E-03
      0.455000          0.120124E-03
      0.460000          0.117690E-03
      0.465000          0.115230E-03
      0.470000          0.112774E-03
      0.475000          0.110352E-03
      0.480000          0.107992E-03
      0.485000          0.105717E-03
      0.490000          0.103546E-03
      0.495000          0.101493E-03
      0.500000          0.995684E-04
