 I_abs(s)[cm^-1]/c[mg/ml]
       0.00000          0.148395E-01
      0.500000E-02      0.147825E-01
      0.100000E-01      0.146128E-01
      0.150000E-01      0.143342E-01
      0.200000E-01      0.139530E-01
      0.250000E-01      0.134779E-01
      0.300000E-01      0.129191E-01
      0.350000E-01      0.122888E-01
      0.400000E-01      0.116000E-01
      0.450000E-01      0.108664E-01
      0.500000E-01      0.101023E-01
      0.550000E-01      0.932140E-02
      0.600000E-01      0.853709E-02
      0.650000E-01      0.776172E-02
      0.700000E-01      0.700644E-02
      0.750000E-01      0.628089E-02
      0.800000E-01      0.559310E-02
      0.850000E-01      0.494932E-02
      0.900000E-01      0.435409E-02
      0.950000E-01      0.381021E-02
      0.100000          0.331889E-02
      0.105000          0.287991E-02
      0.110000          0.249178E-02
      0.115000          0.215199E-02
      0.120000          0.185724E-02
      0.125000          0.160364E-02
      0.130000          0.138700E-02
      0.135000          0.120298E-02
      0.140000          0.104727E-02
      0.145000          0.915789E-03
      0.150000          0.804740E-03
      0.155000          0.710728E-03
      0.160000          0.630794E-03
      0.165000          0.562436E-03
      0.170000          0.503599E-03
      0.175000          0.452643E-03
      0.180000          0.408302E-03
      0.185000          0.369626E-03
      0.190000          0.335919E-03
      0.195000          0.306683E-03
      0.200000          0.281553E-03
      0.205000          0.260254E-03
      0.210000          0.242553E-03
      0.215000          0.228227E-03
      0.220000          0.217042E-03
      0.225000          0.208737E-03
      0.230000          0.203019E-03
      0.235000          0.199563E-03
      0.240000          0.198023E-03
      0.245000          0.198034E-03
      0.250000          0.199233E-03
      0.255000          0.201264E-03
      0.260000          0.203792E-03
      0.265000          0.206514E-03
      0.270000          0.209163E-03
      0.275000          0.211517E-03
      0.280000          0.213398E-03
      0.285000          0.214674E-03
      0.290000          0.215257E-03
      0.295000          0.215096E-03
      0.300000          0.214178E-03
      0.305000          0.212518E-03
      0.310000          0.210158E-03
      0.315000          0.207154E-03
      0.320000          0.203581E-03
      0.325000          0.199520E-03
      0.330000          0.195058E-03
      0.335000          0.190284E-03
      0.340000          0.185287E-03
      0.345000          0.180151E-03
      0.350000          0.174956E-03
      0.355000          0.169774E-03
      0.360000          0.164669E-03
      0.365000          0.159696E-03
      0.370000          0.154900E-03
      0.375000          0.150316E-03
      0.380000          0.145966E-03
      0.385000          0.141864E-03
      0.390000          0.138013E-03
      0.395000          0.134405E-03
      0.400000          0.131027E-03
      0.405000          0.127855E-03
      0.410000          0.124864E-03
      0.415000          0.122025E-03
      0.420000          0.119306E-03
      0.425000          0.116678E-03
      0.430000          0.114115E-03
      0.435000          0.111594E-03
      0.440000          0.109100E-03
      0.445000          0.106621E-03
      0.450000          0.104157E-03
      0.455000          0.101710E-03
      0.460000          0.992909E-04
      0.465000          0.969166E-04
      0.470000          0.946071E-04
      0.475000          0.923857E-04
      0.480000          0.902765E-04
      0.485000          0.883032E-04
      0.490000          0.864873E-04
      0.495000          0.848467E-04
      0.500000          0.833945E-04
