 I_abs(s)[cm^-1]/c[mg/ml]
       0.00000          0.148155E-01
      0.500000E-02      0.147602E-01
      0.100000E-01      0.145955E-01
      0.150000E-01      0.143251E-01
      0.200000E-01      0.139551E-01
      0.250000E-01      0.134937E-01
      0.300000E-01      0.129509E-01
      0.350000E-01      0.123381E-01
      0.400000E-01      0.116679E-01
      0.450000E-01      0.109534E-01
      0.500000E-01      0.102083E-01
      0.550000E-01      0.944560E-02
      0.600000E-01      0.867817E-02
      0.650000E-01      0.791781E-02
      0.700000E-01      0.717519E-02
      0.750000E-01      0.645957E-02
      0.800000E-01      0.577871E-02
      0.850000E-01      0.513874E-02
      0.900000E-01      0.454417E-02
      0.950000E-01      0.399794E-02
      0.100000          0.350150E-02
      0.105000          0.305500E-02
      0.110000          0.265743E-02
      0.115000          0.230679E-02
      0.120000          0.200039E-02
      0.125000          0.173495E-02
      0.130000          0.150686E-02
      0.135000          0.131232E-02
      0.140000          0.114752E-02
      0.145000          0.100874E-02
      0.150000          0.892451E-03
      0.155000          0.795415E-03
      0.160000          0.714690E-03
      0.165000          0.647671E-03
      0.170000          0.592088E-03
      0.175000          0.545992E-03
      0.180000          0.507732E-03
      0.185000          0.475920E-03
      0.190000          0.449399E-03
      0.195000          0.427206E-03
      0.200000          0.408540E-03
      0.205000          0.392728E-03
      0.210000          0.379203E-03
      0.215000          0.367485E-03
      0.220000          0.357157E-03
      0.225000          0.347863E-03
      0.230000          0.339292E-03
      0.235000          0.331180E-03
      0.240000          0.323300E-03
      0.245000          0.315466E-03
      0.250000          0.307528E-03
      0.255000          0.299375E-03
      0.260000          0.290929E-03
      0.265000          0.282147E-03
      0.270000          0.273016E-03
      0.275000          0.263552E-03
      0.280000          0.253795E-03
      0.285000          0.243809E-03
      0.290000          0.233671E-03
      0.295000          0.223471E-03
      0.300000          0.213310E-03
      0.305000          0.203288E-03
      0.310000          0.193510E-03
      0.315000          0.184071E-03
      0.320000          0.175062E-03
      0.325000          0.166563E-03
      0.330000          0.158640E-03
      0.335000          0.151343E-03
      0.340000          0.144707E-03
      0.345000          0.138749E-03
      0.350000          0.133469E-03
      0.355000          0.128852E-03
      0.360000          0.124865E-03
      0.365000          0.121465E-03
      0.370000          0.118596E-03
      0.375000          0.116195E-03
      0.380000          0.114195E-03
      0.385000          0.112525E-03
      0.390000          0.111115E-03
      0.395000          0.109899E-03
      0.400000          0.108817E-03
      0.405000          0.107815E-03
      0.410000          0.106849E-03
      0.415000          0.105884E-03
      0.420000          0.104893E-03
      0.425000          0.103858E-03
      0.430000          0.102771E-03
      0.435000          0.101631E-03
      0.440000          0.100440E-03
      0.445000          0.992061E-04
      0.450000          0.979414E-04
      0.455000          0.966583E-04
      0.460000          0.953699E-04
      0.465000          0.940892E-04
      0.470000          0.928280E-04
      0.475000          0.915967E-04
      0.480000          0.904038E-04
      0.485000          0.892563E-04
      0.490000          0.881592E-04
      0.495000          0.871160E-04
      0.500000          0.861289E-04
