 I_abs(s)[cm^-1]/c[mg/ml]
       0.00000          0.144654E-01
      0.500000E-02      0.144147E-01
      0.100000E-01      0.142637E-01
      0.150000E-01      0.140154E-01
      0.200000E-01      0.136749E-01
      0.250000E-01      0.132490E-01
      0.300000E-01      0.127460E-01
      0.350000E-01      0.121757E-01
      0.400000E-01      0.115488E-01
      0.450000E-01      0.108767E-01
      0.500000E-01      0.101712E-01
      0.550000E-01      0.944413E-02
      0.600000E-01      0.870710E-02
      0.650000E-01      0.797113E-02
      0.700000E-01      0.724644E-02
      0.750000E-01      0.654222E-02
      0.800000E-01      0.586648E-02
      0.850000E-01      0.522590E-02
      0.900000E-01      0.462580E-02
      0.950000E-01      0.407010E-02
      0.100000          0.356134E-02
      0.105000          0.310081E-02
      0.110000          0.268855E-02
      0.115000          0.232361E-02
      0.120000          0.200411E-02
      0.125000          0.172745E-02
      0.130000          0.149048E-02
      0.135000          0.128965E-02
      0.140000          0.112120E-02
      0.145000          0.981270E-03
      0.150000          0.866063E-03
      0.155000          0.771925E-03
      0.160000          0.695441E-03
      0.165000          0.633492E-03
      0.170000          0.583297E-03
      0.175000          0.542430E-03
      0.180000          0.508826E-03
      0.185000          0.480764E-03
      0.190000          0.456848E-03
      0.195000          0.435971E-03
      0.200000          0.417284E-03
      0.205000          0.400152E-03
      0.210000          0.384121E-03
      0.215000          0.368876E-03
      0.220000          0.354213E-03
      0.225000          0.340009E-03
      0.230000          0.326197E-03
      0.235000          0.312752E-03
      0.240000          0.299673E-03
      0.245000          0.286974E-03
      0.250000          0.274679E-03
      0.255000          0.262816E-03
      0.260000          0.251417E-03
      0.265000          0.240515E-03
      0.270000          0.230145E-03
      0.275000          0.220344E-03
      0.280000          0.211147E-03
      0.285000          0.202591E-03
      0.290000          0.194709E-03
      0.295000          0.187531E-03
      0.300000          0.181081E-03
      0.305000          0.175375E-03
      0.310000          0.170420E-03
      0.315000          0.166209E-03
      0.320000          0.162726E-03
      0.325000          0.159940E-03
      0.330000          0.157808E-03
      0.335000          0.156275E-03
      0.340000          0.155275E-03
      0.345000          0.154735E-03
      0.350000          0.154574E-03
      0.355000          0.154709E-03
      0.360000          0.155053E-03
      0.365000          0.155522E-03
      0.370000          0.156036E-03
      0.375000          0.156516E-03
      0.380000          0.156894E-03
      0.385000          0.157107E-03
      0.390000          0.157101E-03
      0.395000          0.156833E-03
      0.400000          0.156266E-03
      0.405000          0.155373E-03
      0.410000          0.154138E-03
      0.415000          0.152552E-03
      0.420000          0.150614E-03
      0.425000          0.148331E-03
      0.430000          0.145716E-03
      0.435000          0.142792E-03
      0.440000          0.139584E-03
      0.445000          0.136125E-03
      0.450000          0.132453E-03
      0.455000          0.128610E-03
      0.460000          0.124640E-03
      0.465000          0.120590E-03
      0.470000          0.116510E-03
      0.475000          0.112448E-03
      0.480000          0.108453E-03
      0.485000          0.104570E-03
      0.490000          0.100841E-03
      0.495000          0.973053E-04
      0.500000          0.939938E-04
