 I_abs(s)[cm^-1]/c[mg/ml]
       0.00000          0.142605E-01
      0.500000E-02      0.141878E-01
      0.100000E-01      0.139720E-01
      0.150000E-01      0.136204E-01
      0.200000E-01      0.131445E-01
      0.250000E-01      0.125596E-01
      0.300000E-01      0.118840E-01
      0.350000E-01      0.111381E-01
      0.400000E-01      0.103430E-01
      0.450000E-01      0.952029E-02
      0.500000E-01      0.869039E-02
      0.550000E-01      0.787207E-02
      0.600000E-01      0.708170E-02
      0.650000E-01      0.633274E-02
      0.700000E-01      0.563551E-02
      0.750000E-01      0.499707E-02
      0.800000E-01      0.442133E-02
      0.850000E-01      0.390932E-02
      0.900000E-01      0.345959E-02
      0.950000E-01      0.306868E-02
      0.100000          0.273165E-02
      0.105000          0.244261E-02
      0.110000          0.219521E-02
      0.115000          0.198307E-02
      0.120000          0.180013E-02
      0.125000          0.164096E-02
      0.130000          0.150085E-02
      0.135000          0.137595E-02
      0.140000          0.126324E-02
      0.145000          0.116051E-02
      0.150000          0.106619E-02
      0.155000          0.979263E-03
      0.160000          0.899133E-03
      0.165000          0.825456E-03
      0.170000          0.758038E-03
      0.175000          0.696735E-03
      0.180000          0.641380E-03
      0.185000          0.591742E-03
      0.190000          0.547498E-03
      0.195000          0.508244E-03
      0.200000          0.473500E-03
      0.205000          0.442741E-03
      0.210000          0.415425E-03
      0.215000          0.391019E-03
      0.220000          0.369029E-03
      0.225000          0.349014E-03
      0.230000          0.330605E-03
      0.235000          0.313507E-03
      0.240000          0.297499E-03
      0.245000          0.282428E-03
      0.250000          0.268198E-03
      0.255000          0.254762E-03
      0.260000          0.242102E-03
      0.265000          0.230221E-03
      0.270000          0.219128E-03
      0.275000          0.208831E-03
      0.280000          0.199328E-03
      0.285000          0.190603E-03
      0.290000          0.182620E-03
      0.295000          0.175333E-03
      0.300000          0.168676E-03
      0.305000          0.162577E-03
      0.310000          0.156959E-03
      0.315000          0.151744E-03
      0.320000          0.146862E-03
      0.325000          0.142252E-03
      0.330000          0.137868E-03
      0.335000          0.133681E-03
      0.340000          0.129679E-03
      0.345000          0.125863E-03
      0.350000          0.122252E-03
      0.355000          0.118871E-03
      0.360000          0.115752E-03
      0.365000          0.112927E-03
      0.370000          0.110426E-03
      0.375000          0.108269E-03
      0.380000          0.106464E-03
      0.385000          0.105010E-03
      0.390000          0.103890E-03
      0.395000          0.103074E-03
      0.400000          0.102525E-03
      0.405000          0.102195E-03
      0.410000          0.102032E-03
      0.415000          0.101984E-03
      0.420000          0.102000E-03
      0.425000          0.102035E-03
      0.430000          0.102050E-03
      0.435000          0.102012E-03
      0.440000          0.101900E-03
      0.445000          0.101697E-03
      0.450000          0.101394E-03
      0.455000          0.100988E-03
      0.460000          0.100479E-03
      0.465000          0.998679E-04
      0.470000          0.991579E-04
      0.475000          0.983520E-04
      0.480000          0.974531E-04
      0.485000          0.964637E-04
      0.490000          0.953866E-04
      0.495000          0.942257E-04
      0.500000          0.929863E-04
