 I_abs(s)[cm^-1]/c[mg/ml]
       0.00000          0.147436E-01
      0.500000E-02      0.146886E-01
      0.100000E-01      0.145250E-01
      0.150000E-01      0.142567E-01
      0.200000E-01      0.138902E-01
      0.250000E-01      0.134339E-01
      0.300000E-01      0.128983E-01
      0.350000E-01      0.122952E-01
      0.400000E-01      0.116373E-01
      0.450000E-01      0.109381E-01
      0.500000E-01      0.102108E-01
      0.550000E-01      0.946843E-02
      0.600000E-01      0.872318E-02
      0.650000E-01      0.798616E-02
      0.700000E-01      0.726716E-02
      0.750000E-01      0.657447E-02
      0.800000E-01      0.591478E-02
      0.850000E-01      0.529324E-02
      0.900000E-01      0.471342E-02
      0.950000E-01      0.417749E-02
      0.100000          0.368637E-02
      0.105000          0.323988E-02
      0.110000          0.283695E-02
      0.115000          0.247582E-02
      0.120000          0.215424E-02
      0.125000          0.186962E-02
      0.130000          0.161918E-02
      0.135000          0.140007E-02
      0.140000          0.120946E-02
      0.145000          0.104463E-02
      0.150000          0.902981E-03
      0.155000          0.782075E-03
      0.160000          0.679653E-03
      0.165000          0.593625E-03
      0.170000          0.522071E-03
      0.175000          0.463225E-03
      0.180000          0.415471E-03
      0.185000          0.377331E-03
      0.190000          0.347454E-03
      0.195000          0.324615E-03
      0.200000          0.307703E-03
      0.205000          0.295723E-03
      0.210000          0.287785E-03
      0.215000          0.283100E-03
      0.220000          0.280979E-03
      0.225000          0.280818E-03
      0.230000          0.282093E-03
      0.235000          0.284352E-03
      0.240000          0.287205E-03
      0.245000          0.290314E-03
      0.250000          0.293387E-03
      0.255000          0.296171E-03
      0.260000          0.298448E-03
      0.265000          0.300027E-03
      0.270000          0.300750E-03
      0.275000          0.300487E-03
      0.280000          0.299139E-03
      0.285000          0.296637E-03
      0.290000          0.292947E-03
      0.295000          0.288068E-03
      0.300000          0.282034E-03
      0.305000          0.274910E-03
      0.310000          0.266794E-03
      0.315000          0.257811E-03
      0.320000          0.248106E-03
      0.325000          0.237844E-03
      0.330000          0.227197E-03
      0.335000          0.216341E-03
      0.340000          0.205449E-03
      0.345000          0.194685E-03
      0.350000          0.184197E-03
      0.355000          0.174114E-03
      0.360000          0.164543E-03
      0.365000          0.155569E-03
      0.370000          0.147248E-03
      0.375000          0.139614E-03
      0.380000          0.132680E-03
      0.385000          0.126437E-03
      0.390000          0.120859E-03
      0.395000          0.115906E-03
      0.400000          0.111528E-03
      0.405000          0.107670E-03
      0.410000          0.104272E-03
      0.415000          0.101276E-03
      0.420000          0.986226E-04
      0.425000          0.962605E-04
      0.430000          0.941426E-04
      0.435000          0.922289E-04
      0.440000          0.904863E-04
      0.445000          0.888892E-04
      0.450000          0.874185E-04
      0.455000          0.860610E-04
      0.460000          0.848085E-04
      0.465000          0.836568E-04
      0.470000          0.826043E-04
      0.475000          0.816512E-04
      0.480000          0.807981E-04
      0.485000          0.800453E-04
      0.490000          0.793920E-04
      0.495000          0.788355E-04
      0.500000          0.783710E-04
