 I_abs(s)[cm^-1]/c[mg/ml]
       0.00000          0.149358E-01
      0.500000E-02      0.148846E-01
      0.100000E-01      0.147321E-01
      0.150000E-01      0.144813E-01
      0.200000E-01      0.141376E-01
      0.250000E-01      0.137077E-01
      0.300000E-01      0.132003E-01
      0.350000E-01      0.126251E-01
      0.400000E-01      0.119931E-01
      0.450000E-01      0.113155E-01
      0.500000E-01      0.106041E-01
      0.550000E-01      0.987066E-02
      0.600000E-01      0.912644E-02
      0.650000E-01      0.838216E-02
      0.700000E-01      0.764766E-02
      0.750000E-01      0.693173E-02
      0.800000E-01      0.624199E-02
      0.850000E-01      0.558477E-02
      0.900000E-01      0.496511E-02
      0.950000E-01      0.438677E-02
      0.100000          0.385230E-02
      0.105000          0.336309E-02
      0.110000          0.291952E-02
      0.115000          0.252107E-02
      0.120000          0.216650E-02
      0.125000          0.185393E-02
      0.130000          0.158102E-02
      0.135000          0.134509E-02
      0.140000          0.114323E-02
      0.145000          0.972405E-03
      0.150000          0.829547E-03
      0.155000          0.711606E-03
      0.160000          0.615620E-03
      0.165000          0.538751E-03
      0.170000          0.478317E-03
      0.175000          0.431814E-03
      0.180000          0.396927E-03
      0.185000          0.371542E-03
      0.190000          0.353747E-03
      0.195000          0.341835E-03
      0.200000          0.334302E-03
      0.205000          0.329845E-03
      0.210000          0.327351E-03
      0.215000          0.325899E-03
      0.220000          0.324741E-03
      0.225000          0.323299E-03
      0.230000          0.321145E-03
      0.235000          0.317989E-03
      0.240000          0.313666E-03
      0.245000          0.308112E-03
      0.250000          0.301350E-03
      0.255000          0.293470E-03
      0.260000          0.284613E-03
      0.265000          0.274952E-03
      0.270000          0.264682E-03
      0.275000          0.254000E-03
      0.280000          0.243100E-03
      0.285000          0.232164E-03
      0.290000          0.221355E-03
      0.295000          0.210811E-03
      0.300000          0.200649E-03
      0.305000          0.190959E-03
      0.310000          0.181810E-03
      0.315000          0.173246E-03
      0.320000          0.165295E-03
      0.325000          0.157967E-03
      0.330000          0.151261E-03
      0.335000          0.145161E-03
      0.340000          0.139646E-03
      0.345000          0.134687E-03
      0.350000          0.130248E-03
      0.355000          0.126292E-03
      0.360000          0.122779E-03
      0.365000          0.119665E-03
      0.370000          0.116909E-03
      0.375000          0.114468E-03
      0.380000          0.112299E-03
      0.385000          0.110365E-03
      0.390000          0.108627E-03
      0.395000          0.107053E-03
      0.400000          0.105614E-03
      0.405000          0.104285E-03
      0.410000          0.103046E-03
      0.415000          0.101884E-03
      0.420000          0.100789E-03
      0.425000          0.997565E-04
      0.430000          0.987851E-04
      0.435000          0.978777E-04
      0.440000          0.970392E-04
      0.445000          0.962758E-04
      0.450000          0.955942E-04
      0.455000          0.950007E-04
      0.460000          0.945001E-04
      0.465000          0.940949E-04
      0.470000          0.937854E-04
      0.475000          0.935687E-04
      0.480000          0.934387E-04
      0.485000          0.933864E-04
      0.490000          0.933998E-04
      0.495000          0.934647E-04
      0.500000          0.935649E-04
