 I_abs(s)[cm^-1]/c[mg/ml]
       0.00000          0.137360E-01
      0.500000E-02      0.136489E-01
      0.100000E-01      0.133911E-01
      0.150000E-01      0.129734E-01
      0.200000E-01      0.124130E-01
      0.250000E-01      0.117323E-01
      0.300000E-01      0.109574E-01
      0.350000E-01      0.101170E-01
      0.400000E-01      0.924016E-02
      0.450000E-01      0.835489E-02
      0.500000E-01      0.748677E-02
      0.550000E-01      0.665770E-02
      0.600000E-01      0.588508E-02
      0.650000E-01      0.518138E-02
      0.700000E-01      0.455406E-02
      0.750000E-01      0.400580E-02
      0.800000E-01      0.353513E-02
      0.850000E-01      0.313714E-02
      0.900000E-01      0.280440E-02
      0.950000E-01      0.252793E-02
      0.100000          0.229804E-02
      0.105000          0.210517E-02
      0.110000          0.194050E-02
      0.115000          0.179644E-02
      0.120000          0.166684E-02
      0.125000          0.154712E-02
      0.130000          0.143423E-02
      0.135000          0.132639E-02
      0.140000          0.122291E-02
      0.145000          0.112386E-02
      0.150000          0.102979E-02
      0.155000          0.941454E-03
      0.160000          0.859605E-03
      0.165000          0.784837E-03
      0.170000          0.717490E-03
      0.175000          0.657613E-03
      0.180000          0.604971E-03
      0.185000          0.559097E-03
      0.190000          0.519348E-03
      0.195000          0.484981E-03
      0.200000          0.455223E-03
      0.205000          0.429327E-03
      0.210000          0.406616E-03
      0.215000          0.386512E-03
      0.220000          0.368544E-03
      0.225000          0.352346E-03
      0.230000          0.337647E-03
      0.235000          0.324251E-03
      0.240000          0.312018E-03
      0.245000          0.300845E-03
      0.250000          0.290648E-03
      0.255000          0.281349E-03
      0.260000          0.272869E-03
      0.265000          0.265120E-03
      0.270000          0.258010E-03
      0.275000          0.251438E-03
      0.280000          0.245304E-03
      0.285000          0.239508E-03
      0.290000          0.233960E-03
      0.295000          0.228580E-03
      0.300000          0.223304E-03
      0.305000          0.218087E-03
      0.310000          0.212902E-03
      0.315000          0.207741E-03
      0.320000          0.202614E-03
      0.325000          0.197543E-03
      0.330000          0.192565E-03
      0.335000          0.187719E-03
      0.340000          0.183052E-03
      0.345000          0.178603E-03
      0.350000          0.174411E-03
      0.355000          0.170503E-03
      0.360000          0.166895E-03
      0.365000          0.163593E-03
      0.370000          0.160591E-03
      0.375000          0.157870E-03
      0.380000          0.155404E-03
      0.385000          0.153159E-03
      0.390000          0.151098E-03
      0.395000          0.149182E-03
      0.400000          0.147372E-03
      0.405000          0.145635E-03
      0.410000          0.143939E-03
      0.415000          0.142260E-03
      0.420000          0.140581E-03
      0.425000          0.138892E-03
      0.430000          0.137187E-03
      0.435000          0.135469E-03
      0.440000          0.133743E-03
      0.445000          0.132021E-03
      0.450000          0.130316E-03
      0.455000          0.128643E-03
      0.460000          0.127017E-03
      0.465000          0.125454E-03
      0.470000          0.123966E-03
      0.475000          0.122563E-03
      0.480000          0.121249E-03
      0.485000          0.120026E-03
      0.490000          0.118886E-03
      0.495000          0.117820E-03
      0.500000          0.116808E-03
