 I_abs(s)[cm^-1]/c[mg/ml]
       0.00000          0.140388E-01
      0.500000E-02      0.139697E-01
      0.100000E-01      0.137646E-01
      0.150000E-01      0.134301E-01
      0.200000E-01      0.129767E-01
      0.250000E-01      0.124181E-01
      0.300000E-01      0.117711E-01
      0.350000E-01      0.110544E-01
      0.400000E-01      0.102877E-01
      0.450000E-01      0.949082E-02
      0.500000E-01      0.868314E-02
      0.550000E-01      0.788253E-02
      0.600000E-01      0.710485E-02
      0.650000E-01      0.636343E-02
      0.700000E-01      0.566879E-02
      0.750000E-01      0.502849E-02
      0.800000E-01      0.444718E-02
      0.850000E-01      0.392676E-02
      0.900000E-01      0.346672E-02
      0.950000E-01      0.306452E-02
      0.100000          0.271608E-02
      0.105000          0.241622E-02
      0.110000          0.215914E-02
      0.115000          0.193886E-02
      0.120000          0.174955E-02
      0.125000          0.158584E-02
      0.130000          0.144301E-02
      0.135000          0.131707E-02
      0.140000          0.120484E-02
      0.145000          0.110390E-02
      0.150000          0.101248E-02
      0.155000          0.929394E-03
      0.160000          0.853864E-03
      0.165000          0.785401E-03
      0.170000          0.723676E-03
      0.175000          0.668417E-03
      0.180000          0.619331E-03
      0.185000          0.576050E-03
      0.190000          0.538112E-03
      0.195000          0.504958E-03
      0.200000          0.475954E-03
      0.205000          0.450424E-03
      0.210000          0.427685E-03
      0.215000          0.407087E-03
      0.220000          0.388049E-03
      0.225000          0.370078E-03
      0.230000          0.352792E-03
      0.235000          0.335924E-03
      0.240000          0.319315E-03
      0.245000          0.302905E-03
      0.250000          0.286715E-03
      0.255000          0.270829E-03
      0.260000          0.255369E-03
      0.265000          0.240475E-03
      0.270000          0.226294E-03
      0.275000          0.212959E-03
      0.280000          0.200584E-03
      0.285000          0.189259E-03
      0.290000          0.179043E-03
      0.295000          0.169969E-03
      0.300000          0.162043E-03
      0.305000          0.155246E-03
      0.310000          0.149539E-03
      0.315000          0.144864E-03
      0.320000          0.141147E-03
      0.325000          0.138298E-03
      0.330000          0.136215E-03
      0.335000          0.134784E-03
      0.340000          0.133885E-03
      0.345000          0.133388E-03
      0.350000          0.133164E-03
      0.355000          0.133084E-03
      0.360000          0.133025E-03
      0.365000          0.132877E-03
      0.370000          0.132545E-03
      0.375000          0.131954E-03
      0.380000          0.131051E-03
      0.385000          0.129810E-03
      0.390000          0.128227E-03
      0.395000          0.126325E-03
      0.400000          0.124147E-03
      0.405000          0.121750E-03
      0.410000          0.119208E-03
      0.415000          0.116599E-03
      0.420000          0.114001E-03
      0.425000          0.111489E-03
      0.430000          0.109127E-03
      0.435000          0.106969E-03
      0.440000          0.105050E-03
      0.445000          0.103392E-03
      0.450000          0.101996E-03
      0.455000          0.100852E-03
      0.460000          0.999347E-04
      0.465000          0.992079E-04
      0.470000          0.986293E-04
      0.475000          0.981533E-04
      0.480000          0.977338E-04
      0.485000          0.973278E-04
      0.490000          0.968980E-04
      0.495000          0.964143E-04
      0.500000          0.958551E-04
