 I_abs(s)[cm^-1]/c[mg/ml]
       0.00000          0.145189E-01
      0.500000E-02      0.144528E-01
      0.100000E-01      0.142563E-01
      0.150000E-01      0.139345E-01
      0.200000E-01      0.134961E-01
      0.250000E-01      0.129523E-01
      0.300000E-01      0.123170E-01
      0.350000E-01      0.116059E-01
      0.400000E-01      0.108363E-01
      0.450000E-01      0.100258E-01
      0.500000E-01      0.919227E-02
      0.550000E-01      0.835302E-02
      0.600000E-01      0.752420E-02
      0.650000E-01      0.672035E-02
      0.700000E-01      0.595404E-02
      0.750000E-01      0.523556E-02
      0.800000E-01      0.457276E-02
      0.850000E-01      0.397101E-02
      0.900000E-01      0.343325E-02
      0.950000E-01      0.296012E-02
      0.100000          0.255024E-02
      0.105000          0.220050E-02
      0.110000          0.190639E-02
      0.115000          0.166241E-02
      0.120000          0.146238E-02
      0.125000          0.129986E-02
      0.130000          0.116846E-02
      0.135000          0.106207E-02
      0.140000          0.975159E-03
      0.145000          0.902866E-03
      0.150000          0.841142E-03
      0.155000          0.786774E-03
      0.160000          0.737373E-03
      0.165000          0.691318E-03
      0.170000          0.647654E-03
      0.175000          0.605981E-03
      0.180000          0.566315E-03
      0.185000          0.528951E-03
      0.190000          0.494339E-03
      0.195000          0.462962E-03
      0.200000          0.435244E-03
      0.205000          0.411476E-03
      0.210000          0.391771E-03
      0.215000          0.376042E-03
      0.220000          0.363999E-03
      0.225000          0.355178E-03
      0.230000          0.348965E-03
      0.235000          0.344655E-03
      0.240000          0.341491E-03
      0.245000          0.338725E-03
      0.250000          0.335661E-03
      0.255000          0.331696E-03
      0.260000          0.326355E-03
      0.265000          0.319308E-03
      0.270000          0.310383E-03
      0.275000          0.299557E-03
      0.280000          0.286954E-03
      0.285000          0.272815E-03
      0.290000          0.257481E-03
      0.295000          0.241357E-03
      0.300000          0.224884E-03
      0.305000          0.208508E-03
      0.310000          0.192655E-03
      0.315000          0.177704E-03
      0.320000          0.163970E-03
      0.325000          0.151694E-03
      0.330000          0.141035E-03
      0.335000          0.132068E-03
      0.340000          0.124789E-03
      0.345000          0.119125E-03
      0.350000          0.114943E-03
      0.355000          0.112062E-03
      0.360000          0.110274E-03
      0.365000          0.109351E-03
      0.370000          0.109062E-03
      0.375000          0.109187E-03
      0.380000          0.109525E-03
      0.385000          0.109900E-03
      0.390000          0.110170E-03
      0.395000          0.110229E-03
      0.400000          0.110005E-03
      0.405000          0.109461E-03
      0.410000          0.108592E-03
      0.415000          0.107419E-03
      0.420000          0.105987E-03
      0.425000          0.104353E-03
      0.430000          0.102589E-03
      0.435000          0.100769E-03
      0.440000          0.989683E-04
      0.445000          0.972568E-04
      0.450000          0.956973E-04
      0.455000          0.943416E-04
      0.460000          0.932295E-04
      0.465000          0.923875E-04
      0.470000          0.918287E-04
      0.475000          0.915538E-04
      0.480000          0.915513E-04
      0.485000          0.918002E-04
      0.490000          0.922704E-04
      0.495000          0.929259E-04
      0.500000          0.937257E-04
