 I_abs(s)[cm^-1]/c[mg/ml]
       0.00000          0.147020E-01
      0.500000E-02      0.146433E-01
      0.100000E-01      0.144686E-01
      0.150000E-01      0.141817E-01
      0.200000E-01      0.137892E-01
      0.250000E-01      0.132998E-01
      0.300000E-01      0.127242E-01
      0.350000E-01      0.120747E-01
      0.400000E-01      0.113649E-01
      0.450000E-01      0.106091E-01
      0.500000E-01      0.982192E-02
      0.550000E-01      0.901789E-02
      0.600000E-01      0.821100E-02
      0.650000E-01      0.741433E-02
      0.700000E-01      0.663974E-02
      0.750000E-01      0.589757E-02
      0.800000E-01      0.519647E-02
      0.850000E-01      0.454330E-02
      0.900000E-01      0.394304E-02
      0.950000E-01      0.339885E-02
      0.100000          0.291213E-02
      0.105000          0.248271E-02
      0.110000          0.210898E-02
      0.115000          0.178816E-02
      0.120000          0.151652E-02
      0.125000          0.128966E-02
      0.130000          0.110271E-02
      0.135000          0.950628E-03
      0.140000          0.828346E-03
      0.145000          0.731005E-03
      0.150000          0.654076E-03
      0.155000          0.593478E-03
      0.160000          0.545649E-03
      0.165000          0.507581E-03
      0.170000          0.476827E-03
      0.175000          0.451474E-03
      0.180000          0.430094E-03
      0.185000          0.411686E-03
      0.190000          0.395594E-03
      0.195000          0.381432E-03
      0.200000          0.369007E-03
      0.205000          0.358242E-03
      0.210000          0.349119E-03
      0.215000          0.341622E-03
      0.220000          0.335701E-03
      0.225000          0.331248E-03
      0.230000          0.328086E-03
      0.235000          0.325967E-03
      0.240000          0.324585E-03
      0.245000          0.323588E-03
      0.250000          0.322609E-03
      0.255000          0.321279E-03
      0.260000          0.319261E-03
      0.265000          0.316265E-03
      0.270000          0.312068E-03
      0.275000          0.306527E-03
      0.280000          0.299584E-03
      0.285000          0.291267E-03
      0.290000          0.281686E-03
      0.295000          0.271022E-03
      0.300000          0.259513E-03
      0.305000          0.247439E-03
      0.310000          0.235101E-03
      0.315000          0.222807E-03
      0.320000          0.210849E-03
      0.325000          0.199493E-03
      0.330000          0.188961E-03
      0.335000          0.179429E-03
      0.340000          0.171013E-03
      0.345000          0.163775E-03
      0.350000          0.157717E-03
      0.355000          0.152792E-03
      0.360000          0.148908E-03
      0.365000          0.145937E-03
      0.370000          0.143727E-03
      0.375000          0.142108E-03
      0.380000          0.140910E-03
      0.385000          0.139965E-03
      0.390000          0.139120E-03
      0.395000          0.138243E-03
      0.400000          0.137226E-03
      0.405000          0.135991E-03
      0.410000          0.134487E-03
      0.415000          0.132695E-03
      0.420000          0.130618E-03
      0.425000          0.128286E-03
      0.430000          0.125744E-03
      0.435000          0.123051E-03
      0.440000          0.120276E-03
      0.445000          0.117488E-03
      0.450000          0.114754E-03
      0.455000          0.112135E-03
      0.460000          0.109682E-03
      0.465000          0.107433E-03
      0.470000          0.105414E-03
      0.475000          0.103634E-03
      0.480000          0.102089E-03
      0.485000          0.100763E-03
      0.490000          0.996265E-04
      0.495000          0.986438E-04
      0.500000          0.977724E-04
