 I_abs(s)[cm^-1]/c[mg/ml]
       0.00000          0.143369E-01
      0.500000E-02      0.142456E-01
      0.100000E-01      0.139755E-01
      0.150000E-01      0.135377E-01
      0.200000E-01      0.129499E-01
      0.250000E-01      0.122354E-01
      0.300000E-01      0.114215E-01
      0.350000E-01      0.105380E-01
      0.400000E-01      0.961567E-02
      0.450000E-01      0.868417E-02
      0.500000E-01      0.777079E-02
      0.550000E-01      0.689910E-02
      0.600000E-01      0.608798E-02
      0.650000E-01      0.535106E-02
      0.700000E-01      0.469652E-02
      0.750000E-01      0.412731E-02
      0.800000E-01      0.364163E-02
      0.850000E-01      0.323379E-02
      0.900000E-01      0.289513E-02
      0.950000E-01      0.261510E-02
      0.100000          0.238234E-02
      0.105000          0.218564E-02
      0.110000          0.201477E-02
      0.115000          0.186109E-02
      0.120000          0.171798E-02
      0.125000          0.158092E-02
      0.130000          0.144751E-02
      0.135000          0.131716E-02
      0.140000          0.119076E-02
      0.145000          0.107017E-02
      0.150000          0.957774E-03
      0.155000          0.855969E-03
      0.160000          0.766804E-03
      0.165000          0.691665E-03
      0.170000          0.631097E-03
      0.175000          0.584739E-03
      0.180000          0.551382E-03
      0.185000          0.529104E-03
      0.190000          0.515488E-03
      0.195000          0.507865E-03
      0.200000          0.503565E-03
      0.205000          0.500152E-03
      0.210000          0.495612E-03
      0.215000          0.488475E-03
      0.220000          0.477883E-03
      0.225000          0.463580E-03
      0.230000          0.445855E-03
      0.235000          0.425426E-03
      0.240000          0.403307E-03
      0.245000          0.380651E-03
      0.250000          0.358608E-03
      0.255000          0.338190E-03
      0.260000          0.320179E-03
      0.265000          0.305061E-03
      0.270000          0.293002E-03
      0.275000          0.283866E-03
      0.280000          0.277254E-03
      0.285000          0.272573E-03
      0.290000          0.269120E-03
      0.295000          0.266156E-03
      0.300000          0.262995E-03
      0.305000          0.259058E-03
      0.310000          0.253929E-03
      0.315000          0.247369E-03
      0.320000          0.239331E-03
      0.325000          0.229935E-03
      0.330000          0.219442E-03
      0.335000          0.208213E-03
      0.340000          0.196658E-03
      0.345000          0.185195E-03
      0.350000          0.174206E-03
      0.355000          0.164003E-03
      0.360000          0.154811E-03
      0.365000          0.146752E-03
      0.370000          0.139850E-03
      0.375000          0.134040E-03
      0.380000          0.129191E-03
      0.385000          0.125124E-03
      0.390000          0.121643E-03
      0.395000          0.118552E-03
      0.400000          0.115683E-03
      0.405000          0.112906E-03
      0.410000          0.110140E-03
      0.415000          0.107354E-03
      0.420000          0.104563E-03
      0.425000          0.101823E-03
      0.430000          0.992137E-04
      0.435000          0.968257E-04
      0.440000          0.947487E-04
      0.445000          0.930568E-04
      0.450000          0.917999E-04
      0.455000          0.909969E-04
      0.460000          0.906342E-04
      0.465000          0.906672E-04
      0.470000          0.910259E-04
      0.475000          0.916224E-04
      0.480000          0.923599E-04
      0.485000          0.931425E-04
      0.490000          0.938833E-04
      0.495000          0.945113E-04
      0.500000          0.949755E-04
