 I_abs(s)[cm^-1]/c[mg/ml]
       0.00000          0.147340E-01
      0.500000E-02      0.146809E-01
      0.100000E-01      0.145225E-01
      0.150000E-01      0.142621E-01
      0.200000E-01      0.139049E-01
      0.250000E-01      0.134581E-01
      0.300000E-01      0.129304E-01
      0.350000E-01      0.123321E-01
      0.400000E-01      0.116743E-01
      0.450000E-01      0.109690E-01
      0.500000E-01      0.102288E-01
      0.550000E-01      0.946604E-02
      0.600000E-01      0.869300E-02
      0.650000E-01      0.792138E-02
      0.700000E-01      0.716203E-02
      0.750000E-01      0.642477E-02
      0.800000E-01      0.571815E-02
      0.850000E-01      0.504936E-02
      0.900000E-01      0.442415E-02
      0.950000E-01      0.384677E-02
      0.100000          0.332005E-02
      0.105000          0.284539E-02
      0.110000          0.242295E-02
      0.115000          0.205173E-02
      0.120000          0.172973E-02
      0.125000          0.145416E-02
      0.130000          0.122161E-02
      0.135000          0.102820E-02
      0.140000          0.869785E-03
      0.145000          0.742120E-03
      0.150000          0.640979E-03
      0.155000          0.562284E-03
      0.160000          0.502209E-03
      0.165000          0.457243E-03
      0.170000          0.424246E-03
      0.175000          0.400474E-03
      0.180000          0.383587E-03
      0.185000          0.371637E-03
      0.190000          0.363049E-03
      0.195000          0.356586E-03
      0.200000          0.351308E-03
      0.205000          0.346531E-03
      0.210000          0.341780E-03
      0.215000          0.336749E-03
      0.220000          0.331259E-03
      0.225000          0.325228E-03
      0.230000          0.318637E-03
      0.235000          0.311512E-03
      0.240000          0.303904E-03
      0.245000          0.295875E-03
      0.250000          0.287497E-03
      0.255000          0.278839E-03
      0.260000          0.269975E-03
      0.265000          0.260977E-03
      0.270000          0.251918E-03
      0.275000          0.242878E-03
      0.280000          0.233937E-03
      0.285000          0.225183E-03
      0.290000          0.216703E-03
      0.295000          0.208589E-03
      0.300000          0.200930E-03
      0.305000          0.193810E-03
      0.310000          0.187305E-03
      0.315000          0.181477E-03
      0.320000          0.176371E-03
      0.325000          0.172016E-03
      0.330000          0.168417E-03
      0.335000          0.165555E-03
      0.340000          0.163391E-03
      0.345000          0.161864E-03
      0.350000          0.160894E-03
      0.355000          0.160386E-03
      0.360000          0.160231E-03
      0.365000          0.160318E-03
      0.370000          0.160529E-03
      0.375000          0.160752E-03
      0.380000          0.160883E-03
      0.385000          0.160827E-03
      0.390000          0.160508E-03
      0.395000          0.159864E-03
      0.400000          0.158855E-03
      0.405000          0.157461E-03
      0.410000          0.155679E-03
      0.415000          0.153527E-03
      0.420000          0.151038E-03
      0.425000          0.148262E-03
      0.430000          0.145254E-03
      0.435000          0.142082E-03
      0.440000          0.138814E-03
      0.445000          0.135520E-03
      0.450000          0.132265E-03
      0.455000          0.129111E-03
      0.460000          0.126109E-03
      0.465000          0.123302E-03
      0.470000          0.120719E-03
      0.475000          0.118381E-03
      0.480000          0.116294E-03
      0.485000          0.114454E-03
      0.490000          0.112846E-03
      0.495000          0.111448E-03
      0.500000          0.110229E-03
