 I_abs(s)[cm^-1]/c[mg/ml]
       0.00000          0.148061E-01
      0.500000E-02      0.147407E-01
      0.100000E-01      0.145463E-01
      0.150000E-01      0.142285E-01
      0.200000E-01      0.137962E-01
      0.250000E-01      0.132613E-01
      0.300000E-01      0.126381E-01
      0.350000E-01      0.119425E-01
      0.400000E-01      0.111919E-01
      0.450000E-01      0.104035E-01
      0.500000E-01      0.959455E-02
      0.550000E-01      0.878125E-02
      0.600000E-01      0.797831E-02
      0.650000E-01      0.719856E-02
      0.700000E-01      0.645269E-02
      0.750000E-01      0.574912E-02
      0.800000E-01      0.509398E-02
      0.850000E-01      0.449120E-02
      0.900000E-01      0.394271E-02
      0.950000E-01      0.344870E-02
      0.100000          0.300796E-02
      0.105000          0.261811E-02
      0.110000          0.227601E-02
      0.115000          0.197797E-02
      0.120000          0.172005E-02
      0.125000          0.149823E-02
      0.130000          0.130858E-02
      0.135000          0.114733E-02
      0.140000          0.101100E-02
      0.145000          0.896339E-03
      0.150000          0.800409E-03
      0.155000          0.720525E-03
      0.160000          0.654251E-03
      0.165000          0.599381E-03
      0.170000          0.553920E-03
      0.175000          0.516079E-03
      0.180000          0.484272E-03
      0.185000          0.457116E-03
      0.190000          0.433440E-03
      0.195000          0.412289E-03
      0.200000          0.392922E-03
      0.205000          0.374812E-03
      0.210000          0.357628E-03
      0.215000          0.341214E-03
      0.220000          0.325562E-03
      0.225000          0.310770E-03
      0.230000          0.297011E-03
      0.235000          0.284485E-03
      0.240000          0.273386E-03
      0.245000          0.263868E-03
      0.250000          0.256022E-03
      0.255000          0.249860E-03
      0.260000          0.245305E-03
      0.265000          0.242202E-03
      0.270000          0.240323E-03
      0.275000          0.239384E-03
      0.280000          0.239074E-03
      0.285000          0.239067E-03
      0.290000          0.239057E-03
      0.295000          0.238769E-03
      0.300000          0.237976E-03
      0.305000          0.236513E-03
      0.310000          0.234281E-03
      0.315000          0.231243E-03
      0.320000          0.227421E-03
      0.325000          0.222888E-03
      0.330000          0.217751E-03
      0.335000          0.212144E-03
      0.340000          0.206209E-03
      0.345000          0.200086E-03
      0.350000          0.193904E-03
      0.355000          0.187771E-03
      0.360000          0.181770E-03
      0.365000          0.175959E-03
      0.370000          0.170370E-03
      0.375000          0.165014E-03
      0.380000          0.159882E-03
      0.385000          0.154958E-03
      0.390000          0.150214E-03
      0.395000          0.145628E-03
      0.400000          0.141178E-03
      0.405000          0.136853E-03
      0.410000          0.132652E-03
      0.415000          0.128584E-03
      0.420000          0.124669E-03
      0.425000          0.120936E-03
      0.430000          0.117421E-03
      0.435000          0.114159E-03
      0.440000          0.111190E-03
      0.445000          0.108544E-03
      0.450000          0.106247E-03
      0.455000          0.104316E-03
      0.460000          0.102755E-03
      0.465000          0.101558E-03
      0.470000          0.100706E-03
      0.475000          0.100170E-03
      0.480000          0.999121E-04
      0.485000          0.998874E-04
      0.490000          0.100046E-03
      0.495000          0.100335E-03
      0.500000          0.100702E-03
