 I_abs(s)[cm^-1]/c[mg/ml]
       0.00000          0.141718E-01
      0.500000E-02      0.140926E-01
      0.100000E-01      0.138580E-01
      0.150000E-01      0.134757E-01
      0.200000E-01      0.129587E-01
      0.250000E-01      0.123240E-01
      0.300000E-01      0.115920E-01
      0.350000E-01      0.107854E-01
      0.400000E-01      0.992823E-02
      0.450000E-01      0.904450E-02
      0.500000E-01      0.815739E-02
      0.550000E-01      0.728818E-02
      0.600000E-01      0.645544E-02
      0.650000E-01      0.567446E-02
      0.700000E-01      0.495688E-02
      0.750000E-01      0.431048E-02
      0.800000E-01      0.373932E-02
      0.850000E-01      0.324395E-02
      0.900000E-01      0.282186E-02
      0.950000E-01      0.246805E-02
      0.100000          0.217562E-02
      0.105000          0.193645E-02
      0.110000          0.174183E-02
      0.115000          0.158306E-02
      0.120000          0.145196E-02
      0.125000          0.134121E-02
      0.130000          0.124467E-02
      0.135000          0.115750E-02
      0.140000          0.107619E-02
      0.145000          0.998503E-03
      0.150000          0.923310E-03
      0.155000          0.850393E-03
      0.160000          0.780202E-03
      0.165000          0.713605E-03
      0.170000          0.651659E-03
      0.175000          0.595406E-03
      0.180000          0.545707E-03
      0.185000          0.503135E-03
      0.190000          0.467907E-03
      0.195000          0.439872E-03
      0.200000          0.418531E-03
      0.205000          0.403100E-03
      0.210000          0.392585E-03
      0.215000          0.385867E-03
      0.220000          0.381800E-03
      0.225000          0.379285E-03
      0.230000          0.377340E-03
      0.235000          0.375151E-03
      0.240000          0.372100E-03
      0.245000          0.367776E-03
      0.250000          0.361963E-03
      0.255000          0.354626E-03
      0.260000          0.345871E-03
      0.265000          0.335912E-03
      0.270000          0.325032E-03
      0.275000          0.313540E-03
      0.280000          0.301749E-03
      0.285000          0.289940E-03
      0.290000          0.278353E-03
      0.295000          0.267170E-03
      0.300000          0.256518E-03
      0.305000          0.246468E-03
      0.310000          0.237048E-03
      0.315000          0.228244E-03
      0.320000          0.220019E-03
      0.325000          0.212320E-03
      0.330000          0.205090E-03
      0.335000          0.198271E-03
      0.340000          0.191812E-03
      0.345000          0.185672E-03
      0.350000          0.179820E-03
      0.355000          0.174230E-03
      0.360000          0.168886E-03
      0.365000          0.163775E-03
      0.370000          0.158884E-03
      0.375000          0.154202E-03
      0.380000          0.149715E-03
      0.385000          0.145409E-03
      0.390000          0.141269E-03
      0.395000          0.137280E-03
      0.400000          0.133429E-03
      0.405000          0.129708E-03
      0.410000          0.126114E-03
      0.415000          0.122650E-03
      0.420000          0.119326E-03
      0.425000          0.116161E-03
      0.430000          0.113176E-03
      0.435000          0.110398E-03
      0.440000          0.107853E-03
      0.445000          0.105566E-03
      0.450000          0.103558E-03
      0.455000          0.101842E-03
      0.460000          0.100425E-03
      0.465000          0.992991E-04
      0.470000          0.984491E-04
      0.475000          0.978482E-04
      0.480000          0.974605E-04
      0.485000          0.972429E-04
      0.490000          0.971477E-04
      0.495000          0.971252E-04
      0.500000          0.971265E-04
