 I_abs(s)[cm^-1]/c[mg/ml]
       0.00000          0.148944E-01
      0.500000E-02      0.148332E-01
      0.100000E-01      0.146513E-01
      0.150000E-01      0.143539E-01
      0.200000E-01      0.139492E-01
      0.250000E-01      0.134483E-01
      0.300000E-01      0.128642E-01
      0.350000E-01      0.122117E-01
      0.400000E-01      0.115063E-01
      0.450000E-01      0.107637E-01
      0.500000E-01      0.999912E-02
      0.550000E-01      0.922697E-02
      0.600000E-01      0.846012E-02
      0.650000E-01      0.770979E-02
      0.700000E-01      0.698533E-02
      0.750000E-01      0.629413E-02
      0.800000E-01      0.564172E-02
      0.850000E-01      0.503190E-02
      0.900000E-01      0.446689E-02
      0.950000E-01      0.394764E-02
      0.100000          0.347400E-02
      0.105000          0.304500E-02
      0.110000          0.265906E-02
      0.115000          0.231415E-02
      0.120000          0.200793E-02
      0.125000          0.173789E-02
      0.130000          0.150139E-02
      0.135000          0.129575E-02
      0.140000          0.111827E-02
      0.145000          0.966241E-03
      0.150000          0.837020E-03
      0.155000          0.728011E-03
      0.160000          0.636718E-03
      0.165000          0.560764E-03
      0.170000          0.497922E-03
      0.175000          0.446142E-03
      0.180000          0.403572E-03
      0.185000          0.368566E-03
      0.190000          0.339692E-03
      0.195000          0.315730E-03
      0.200000          0.295655E-03
      0.205000          0.278626E-03
      0.210000          0.263960E-03
      0.215000          0.251119E-03
      0.220000          0.239683E-03
      0.225000          0.229336E-03
      0.230000          0.219852E-03
      0.235000          0.211083E-03
      0.240000          0.202952E-03
      0.245000          0.195440E-03
      0.250000          0.188583E-03
      0.255000          0.182459E-03
      0.260000          0.177173E-03
      0.265000          0.172846E-03
      0.270000          0.169597E-03
      0.275000          0.167523E-03
      0.280000          0.166686E-03
      0.285000          0.167097E-03
      0.290000          0.168705E-03
      0.295000          0.171394E-03
      0.300000          0.174985E-03
      0.305000          0.179245E-03
      0.310000          0.183896E-03
      0.315000          0.188638E-03
      0.320000          0.193167E-03
      0.325000          0.197194E-03
      0.330000          0.200467E-03
      0.335000          0.202784E-03
      0.340000          0.204006E-03
      0.345000          0.204062E-03
      0.350000          0.202947E-03
      0.355000          0.200720E-03
      0.360000          0.197489E-03
      0.365000          0.193405E-03
      0.370000          0.188639E-03
      0.375000          0.183376E-03
      0.380000          0.177797E-03
      0.385000          0.172065E-03
      0.390000          0.166326E-03
      0.395000          0.160694E-03
      0.400000          0.155256E-03
      0.405000          0.150070E-03
      0.410000          0.145171E-03
      0.415000          0.140572E-03
      0.420000          0.136271E-03
      0.425000          0.132257E-03
      0.430000          0.128512E-03
      0.435000          0.125020E-03
      0.440000          0.121763E-03
      0.445000          0.118726E-03
      0.450000          0.115899E-03
      0.455000          0.113271E-03
      0.460000          0.110836E-03
      0.465000          0.108585E-03
      0.470000          0.106512E-03
      0.475000          0.104607E-03
      0.480000          0.102858E-03
      0.485000          0.101250E-03
      0.490000          0.997682E-04
      0.495000          0.983933E-04
      0.500000          0.971059E-04
