 I_abs(s)[cm^-1]/c[mg/ml]
       0.00000          0.147180E-01
      0.500000E-02      0.146557E-01
      0.100000E-01      0.144704E-01
      0.150000E-01      0.141669E-01
      0.200000E-01      0.137529E-01
      0.250000E-01      0.132388E-01
      0.300000E-01      0.126371E-01
      0.350000E-01      0.119623E-01
      0.400000E-01      0.112300E-01
      0.450000E-01      0.104564E-01
      0.500000E-01      0.965772E-02
      0.550000E-01      0.884983E-02
      0.600000E-01      0.804751E-02
      0.650000E-01      0.726417E-02
      0.700000E-01      0.651145E-02
      0.750000E-01      0.579899E-02
      0.800000E-01      0.513429E-02
      0.850000E-01      0.452264E-02
      0.900000E-01      0.396723E-02
      0.950000E-01      0.346924E-02
      0.100000          0.302806E-02
      0.105000          0.264154E-02
      0.110000          0.230634E-02
      0.115000          0.201816E-02
      0.120000          0.177214E-02
      0.125000          0.156310E-02
      0.130000          0.138582E-02
      0.135000          0.123527E-02
      0.140000          0.110681E-02
      0.145000          0.996305E-03
      0.150000          0.900195E-03
      0.155000          0.815555E-03
      0.160000          0.740081E-03
      0.165000          0.672046E-03
      0.170000          0.610237E-03
      0.175000          0.553873E-03
      0.180000          0.502507E-03
      0.185000          0.455936E-03
      0.190000          0.414105E-03
      0.195000          0.377032E-03
      0.200000          0.344739E-03
      0.205000          0.317199E-03
      0.210000          0.294306E-03
      0.215000          0.275854E-03
      0.220000          0.261534E-03
      0.225000          0.250940E-03
      0.230000          0.243591E-03
      0.235000          0.238951E-03
      0.240000          0.236455E-03
      0.245000          0.235540E-03
      0.250000          0.235667E-03
      0.255000          0.236345E-03
      0.260000          0.237147E-03
      0.265000          0.237721E-03
      0.270000          0.237798E-03
      0.275000          0.237194E-03
      0.280000          0.235799E-03
      0.285000          0.233580E-03
      0.290000          0.230560E-03
      0.295000          0.226811E-03
      0.300000          0.222440E-03
      0.305000          0.217578E-03
      0.310000          0.212361E-03
      0.315000          0.206929E-03
      0.320000          0.201409E-03
      0.325000          0.195913E-03
      0.330000          0.190535E-03
      0.335000          0.185343E-03
      0.340000          0.180387E-03
      0.345000          0.175693E-03
      0.350000          0.171269E-03
      0.355000          0.167111E-03
      0.360000          0.163202E-03
      0.365000          0.159521E-03
      0.370000          0.156041E-03
      0.375000          0.152740E-03
      0.380000          0.149597E-03
      0.385000          0.146597E-03
      0.390000          0.143731E-03
      0.395000          0.140997E-03
      0.400000          0.138398E-03
      0.405000          0.135941E-03
      0.410000          0.133637E-03
      0.415000          0.131496E-03
      0.420000          0.129527E-03
      0.425000          0.127733E-03
      0.430000          0.126115E-03
      0.435000          0.124663E-03
      0.440000          0.123363E-03
      0.445000          0.122190E-03
      0.450000          0.121113E-03
      0.455000          0.120096E-03
      0.460000          0.119096E-03
      0.465000          0.118070E-03
      0.470000          0.116972E-03
      0.475000          0.115761E-03
      0.480000          0.114399E-03
      0.485000          0.112854E-03
      0.490000          0.111103E-03
      0.495000          0.109132E-03
      0.500000          0.106939E-03
