 I_abs(s)[cm^-1]/c[mg/ml]
       0.00000          0.145507E-01
      0.500000E-02      0.144813E-01
      0.100000E-01      0.142752E-01
      0.150000E-01      0.139380E-01
      0.200000E-01      0.134792E-01
      0.250000E-01      0.129112E-01
      0.300000E-01      0.122492E-01
      0.350000E-01      0.115103E-01
      0.400000E-01      0.107129E-01
      0.450000E-01      0.987610E-02
      0.500000E-01      0.901872E-02
      0.550000E-01      0.815886E-02
      0.600000E-01      0.731314E-02
      0.650000E-01      0.649633E-02
      0.700000E-01      0.572089E-02
      0.750000E-01      0.499674E-02
      0.800000E-01      0.433119E-02
      0.850000E-01      0.372892E-02
      0.900000E-01      0.319211E-02
      0.950000E-01      0.272069E-02
      0.100000          0.231264E-02
      0.105000          0.196436E-02
      0.110000          0.167104E-02
      0.115000          0.142707E-02
      0.120000          0.122639E-02
      0.125000          0.106285E-02
      0.130000          0.930482E-03
      0.135000          0.823720E-03
      0.140000          0.737575E-03
      0.145000          0.667731E-03
      0.150000          0.610584E-03
      0.155000          0.563237E-03
      0.160000          0.523453E-03
      0.165000          0.489574E-03
      0.170000          0.460426E-03
      0.175000          0.435215E-03
      0.180000          0.413425E-03
      0.185000          0.394726E-03
      0.190000          0.378891E-03
      0.195000          0.365733E-03
      0.200000          0.355068E-03
      0.205000          0.346678E-03
      0.210000          0.340308E-03
      0.215000          0.335665E-03
      0.220000          0.332426E-03
      0.225000          0.330254E-03
      0.230000          0.328817E-03
      0.235000          0.327805E-03
      0.240000          0.326939E-03
      0.245000          0.325985E-03
      0.250000          0.324758E-03
      0.255000          0.323119E-03
      0.260000          0.320977E-03
      0.265000          0.318275E-03
      0.270000          0.314990E-03
      0.275000          0.311119E-03
      0.280000          0.306675E-03
      0.285000          0.301678E-03
      0.290000          0.296151E-03
      0.295000          0.290119E-03
      0.300000          0.283608E-03
      0.305000          0.276645E-03
      0.310000          0.269260E-03
      0.315000          0.261493E-03
      0.320000          0.253387E-03
      0.325000          0.244999E-03
      0.330000          0.236396E-03
      0.335000          0.227654E-03
      0.340000          0.218860E-03
      0.345000          0.210103E-03
      0.350000          0.201479E-03
      0.355000          0.193079E-03
      0.360000          0.184991E-03
      0.365000          0.177291E-03
      0.370000          0.170043E-03
      0.375000          0.163299E-03
      0.380000          0.157091E-03
      0.385000          0.151436E-03
      0.390000          0.146334E-03
      0.395000          0.141771E-03
      0.400000          0.137718E-03
      0.405000          0.134136E-03
      0.410000          0.130976E-03
      0.415000          0.128186E-03
      0.420000          0.125707E-03
      0.425000          0.123478E-03
      0.430000          0.121442E-03
      0.435000          0.119540E-03
      0.440000          0.117720E-03
      0.445000          0.115931E-03
      0.450000          0.114131E-03
      0.455000          0.112285E-03
      0.460000          0.110364E-03
      0.465000          0.108351E-03
      0.470000          0.106236E-03
      0.475000          0.104020E-03
      0.480000          0.101716E-03
      0.485000          0.993453E-04
      0.490000          0.969390E-04
      0.495000          0.945363E-04
      0.500000          0.921829E-04
