 I_abs(s)[cm^-1]/c[mg/ml]
       0.00000          0.147340E-01
      0.500000E-02      0.146543E-01
      0.100000E-01      0.144183E-01
      0.150000E-01      0.140348E-01
      0.200000E-01      0.135182E-01
      0.250000E-01      0.128871E-01
      0.300000E-01      0.121637E-01
      0.350000E-01      0.113719E-01
      0.400000E-01      0.105366E-01
      0.450000E-01      0.968200E-02
      0.500000E-01      0.883053E-02
      0.550000E-01      0.800179E-02
      0.600000E-01      0.721192E-02
      0.650000E-01      0.647310E-02
      0.700000E-01      0.579348E-02
      0.750000E-01      0.517733E-02
      0.800000E-01      0.462537E-02
      0.850000E-01      0.413544E-02
      0.900000E-01      0.370311E-02
      0.950000E-01      0.332249E-02
      0.100000          0.298692E-02
      0.105000          0.268960E-02
      0.110000          0.242417E-02
      0.115000          0.218508E-02
      0.120000          0.196778E-02
      0.125000          0.176889E-02
      0.130000          0.158607E-02
      0.135000          0.141792E-02
      0.140000          0.126376E-02
      0.145000          0.112337E-02
      0.150000          0.996776E-03
      0.155000          0.883993E-03
      0.160000          0.784890E-03
      0.165000          0.699065E-03
      0.170000          0.625802E-03
      0.175000          0.564079E-03
      0.180000          0.512622E-03
      0.185000          0.469989E-03
      0.190000          0.434674E-03
      0.195000          0.405205E-03
      0.200000          0.380241E-03
      0.205000          0.358629E-03
      0.210000          0.339458E-03
      0.215000          0.322064E-03
      0.220000          0.306023E-03
      0.225000          0.291114E-03
      0.230000          0.277280E-03
      0.235000          0.264567E-03
      0.240000          0.253075E-03
      0.245000          0.242910E-03
      0.250000          0.234146E-03
      0.255000          0.226800E-03
      0.260000          0.220819E-03
      0.265000          0.216079E-03
      0.270000          0.212398E-03
      0.275000          0.209545E-03
      0.280000          0.207266E-03
      0.285000          0.205301E-03
      0.290000          0.203406E-03
      0.295000          0.201366E-03
      0.300000          0.199012E-03
      0.305000          0.196223E-03
      0.310000          0.192931E-03
      0.315000          0.189124E-03
      0.320000          0.184835E-03
      0.325000          0.180139E-03
      0.330000          0.175144E-03
      0.335000          0.169979E-03
      0.340000          0.164787E-03
      0.345000          0.159714E-03
      0.350000          0.154898E-03
      0.355000          0.150461E-03
      0.360000          0.146501E-03
      0.365000          0.143086E-03
      0.370000          0.140251E-03
      0.375000          0.137994E-03
      0.380000          0.136279E-03
      0.385000          0.135035E-03
      0.390000          0.134164E-03
      0.395000          0.133548E-03
      0.400000          0.133057E-03
      0.405000          0.132558E-03
      0.410000          0.131927E-03
      0.415000          0.131058E-03
      0.420000          0.129867E-03
      0.425000          0.128303E-03
      0.430000          0.126349E-03
      0.435000          0.124023E-03
      0.440000          0.121375E-03
      0.445000          0.118482E-03
      0.450000          0.115442E-03
      0.455000          0.112364E-03
      0.460000          0.109361E-03
      0.465000          0.106537E-03
      0.470000          0.103985E-03
      0.475000          0.101773E-03
      0.480000          0.999457E-04
      0.485000          0.985194E-04
      0.490000          0.974830E-04
      0.495000          0.968009E-04
      0.500000          0.964173E-04
