 I_abs(s)[cm^-1]/c[mg/ml]
       0.00000          0.140076E-01
      0.500000E-02      0.139190E-01
      0.100000E-01      0.136567E-01
      0.150000E-01      0.132305E-01
      0.200000E-01      0.126558E-01
      0.250000E-01      0.119535E-01
      0.300000E-01      0.111481E-01
      0.350000E-01      0.102671E-01
      0.400000E-01      0.933883E-02
      0.450000E-01      0.839180E-02
      0.500000E-01      0.745290E-02
      0.550000E-01      0.654639E-02
      0.600000E-01      0.569288E-02
      0.650000E-01      0.490871E-02
      0.700000E-01      0.420549E-02
      0.750000E-01      0.359004E-02
      0.800000E-01      0.306455E-02
      0.850000E-01      0.262706E-02
      0.900000E-01      0.227203E-02
      0.950000E-01      0.199117E-02
      0.100000          0.177428E-02
      0.105000          0.161013E-02
      0.110000          0.148726E-02
      0.115000          0.139471E-02
      0.120000          0.132262E-02
      0.125000          0.126265E-02
      0.130000          0.120823E-02
      0.135000          0.115465E-02
      0.140000          0.109901E-02
      0.145000          0.104001E-02
      0.150000          0.977694E-03
      0.155000          0.913084E-03
      0.160000          0.847840E-03
      0.165000          0.783909E-03
      0.170000          0.723216E-03
      0.175000          0.667413E-03
      0.180000          0.617708E-03
      0.185000          0.574766E-03
      0.190000          0.538682E-03
      0.195000          0.509029E-03
      0.200000          0.484944E-03
      0.205000          0.465262E-03
      0.210000          0.448660E-03
      0.215000          0.433799E-03
      0.220000          0.419460E-03
      0.225000          0.404649E-03
      0.230000          0.388668E-03
      0.235000          0.371149E-03
      0.240000          0.352061E-03
      0.245000          0.331667E-03
      0.250000          0.310476E-03
      0.255000          0.289161E-03
      0.260000          0.268475E-03
      0.265000          0.249172E-03
      0.270000          0.231927E-03
      0.275000          0.217275E-03
      0.280000          0.205567E-03
      0.285000          0.196950E-03
      0.290000          0.191362E-03
      0.295000          0.188547E-03
      0.300000          0.188091E-03
      0.305000          0.189457E-03
      0.310000          0.192041E-03
      0.315000          0.195219E-03
      0.320000          0.198395E-03
      0.325000          0.201040E-03
      0.330000          0.202727E-03
      0.335000          0.203152E-03
      0.340000          0.202141E-03
      0.345000          0.199649E-03
      0.350000          0.195753E-03
      0.355000          0.190627E-03
      0.360000          0.184524E-03
      0.365000          0.177744E-03
      0.370000          0.170610E-03
      0.375000          0.163438E-03
      0.380000          0.156516E-03
      0.385000          0.150087E-03
      0.390000          0.144334E-03
      0.395000          0.139376E-03
      0.400000          0.135263E-03
      0.405000          0.131983E-03
      0.410000          0.129472E-03
      0.415000          0.127619E-03
      0.420000          0.126286E-03
      0.425000          0.125317E-03
      0.430000          0.124556E-03
      0.435000          0.123855E-03
      0.440000          0.123087E-03
      0.445000          0.122154E-03
      0.450000          0.120991E-03
      0.455000          0.119564E-03
      0.460000          0.117877E-03
      0.465000          0.115960E-03
      0.470000          0.113869E-03
      0.475000          0.111679E-03
      0.480000          0.109473E-03
      0.485000          0.107337E-03
      0.490000          0.105352E-03
      0.495000          0.103589E-03
      0.500000          0.102099E-03
