 I_abs(s)[cm^-1]/c[mg/ml]
       0.00000          0.141169E-01
      0.500000E-02      0.140241E-01
      0.100000E-01      0.137496E-01
      0.150000E-01      0.133054E-01
      0.200000E-01      0.127106E-01
      0.250000E-01      0.119901E-01
      0.300000E-01      0.111725E-01
      0.350000E-01      0.102888E-01
      0.400000E-01      0.937021E-02
      0.450000E-01      0.844626E-02
      0.500000E-01      0.754332E-02
      0.550000E-01      0.668335E-02
      0.600000E-01      0.588318E-02
      0.650000E-01      0.515419E-02
      0.700000E-01      0.450248E-02
      0.750000E-01      0.392929E-02
      0.800000E-01      0.343193E-02
      0.850000E-01      0.300463E-02
      0.900000E-01      0.263970E-02
      0.950000E-01      0.232846E-02
      0.100000          0.206216E-02
      0.105000          0.183269E-02
      0.110000          0.163304E-02
      0.115000          0.145756E-02
      0.120000          0.130198E-02
      0.125000          0.116336E-02
      0.130000          0.103977E-02
      0.135000          0.930066E-03
      0.140000          0.833533E-03
      0.145000          0.749633E-03
      0.150000          0.677790E-03
      0.155000          0.617255E-03
      0.160000          0.567051E-03
      0.165000          0.525989E-03
      0.170000          0.492737E-03
      0.175000          0.465912E-03
      0.180000          0.444184E-03
      0.185000          0.426367E-03
      0.190000          0.411479E-03
      0.195000          0.398776E-03
      0.200000          0.387745E-03
      0.205000          0.378069E-03
      0.210000          0.369577E-03
      0.215000          0.362178E-03
      0.220000          0.355803E-03
      0.225000          0.350356E-03
      0.230000          0.345683E-03
      0.235000          0.341559E-03
      0.240000          0.337699E-03
      0.245000          0.333782E-03
      0.250000          0.329483E-03
      0.255000          0.324513E-03
      0.260000          0.318652E-03
      0.265000          0.311773E-03
      0.270000          0.303859E-03
      0.275000          0.294998E-03
      0.280000          0.285376E-03
      0.285000          0.275253E-03
      0.290000          0.264931E-03
      0.295000          0.254723E-03
      0.300000          0.244924E-03
      0.305000          0.235784E-03
      0.310000          0.227486E-03
      0.315000          0.220141E-03
      0.320000          0.213781E-03
      0.325000          0.208366E-03
      0.330000          0.203797E-03
      0.335000          0.199930E-03
      0.340000          0.196596E-03
      0.345000          0.193616E-03
      0.350000          0.190820E-03
      0.355000          0.188058E-03
      0.360000          0.185210E-03
      0.365000          0.182193E-03
      0.370000          0.178962E-03
      0.375000          0.175508E-03
      0.380000          0.171855E-03
      0.385000          0.168054E-03
      0.390000          0.164173E-03
      0.395000          0.160293E-03
      0.400000          0.156495E-03
      0.405000          0.152854E-03
      0.410000          0.149433E-03
      0.415000          0.146276E-03
      0.420000          0.143406E-03
      0.425000          0.140820E-03
      0.430000          0.138493E-03
      0.435000          0.136378E-03
      0.440000          0.134412E-03
      0.445000          0.132521E-03
      0.450000          0.130626E-03
      0.455000          0.128653E-03
      0.460000          0.126538E-03
      0.465000          0.124231E-03
      0.470000          0.121707E-03
      0.475000          0.118961E-03
      0.480000          0.116016E-03
      0.485000          0.112912E-03
      0.490000          0.109710E-03
      0.495000          0.106480E-03
      0.500000          0.103299E-03
