 I_abs(s)[cm^-1]/c[mg/ml]
       0.00000          0.139375E-01
      0.500000E-02      0.138485E-01
      0.100000E-01      0.135853E-01
      0.150000E-01      0.131585E-01
      0.200000E-01      0.125849E-01
      0.250000E-01      0.118870E-01
      0.300000E-01      0.110908E-01
      0.350000E-01      0.102249E-01
      0.400000E-01      0.931882E-02
      0.450000E-01      0.840100E-02
      0.500000E-01      0.749776E-02
      0.550000E-01      0.663195E-02
      0.600000E-01      0.582212E-02
      0.650000E-01      0.508195E-02
      0.700000E-01      0.442011E-02
      0.750000E-01      0.384045E-02
      0.800000E-01      0.334246E-02
      0.850000E-01      0.292198E-02
      0.900000E-01      0.257205E-02
      0.950000E-01      0.228385E-02
      0.100000          0.204760E-02
      0.105000          0.185338E-02
      0.110000          0.169180E-02
      0.115000          0.155460E-02
      0.120000          0.143491E-02
      0.125000          0.132741E-02
      0.130000          0.122836E-02
      0.135000          0.113540E-02
      0.140000          0.104737E-02
      0.145000          0.963951E-03
      0.150000          0.885405E-03
      0.155000          0.812270E-03
      0.160000          0.745121E-03
      0.165000          0.684391E-03
      0.170000          0.630258E-03
      0.175000          0.582605E-03
      0.180000          0.541025E-03
      0.185000          0.504881E-03
      0.190000          0.473387E-03
      0.195000          0.445697E-03
      0.200000          0.420999E-03
      0.205000          0.398581E-03
      0.210000          0.377883E-03
      0.215000          0.358524E-03
      0.220000          0.340295E-03
      0.225000          0.323140E-03
      0.230000          0.307118E-03
      0.235000          0.292360E-03
      0.240000          0.279015E-03
      0.245000          0.267216E-03
      0.250000          0.257044E-03
      0.255000          0.248504E-03
      0.260000          0.241524E-03
      0.265000          0.235954E-03
      0.270000          0.231581E-03
      0.275000          0.228151E-03
      0.280000          0.225393E-03
      0.285000          0.223043E-03
      0.290000          0.220862E-03
      0.295000          0.218660E-03
      0.300000          0.216299E-03
      0.305000          0.213700E-03
      0.310000          0.210840E-03
      0.315000          0.207742E-03
      0.320000          0.204468E-03
      0.325000          0.201098E-03
      0.330000          0.197722E-03
      0.335000          0.194423E-03
      0.340000          0.191264E-03
      0.345000          0.188285E-03
      0.350000          0.185493E-03
      0.355000          0.182864E-03
      0.360000          0.180347E-03
      0.365000          0.177866E-03
      0.370000          0.175329E-03
      0.375000          0.172640E-03
      0.380000          0.169706E-03
      0.385000          0.166445E-03
      0.390000          0.162799E-03
      0.395000          0.158734E-03
      0.400000          0.154250E-03
      0.405000          0.149378E-03
      0.410000          0.144180E-03
      0.415000          0.138749E-03
      0.420000          0.133199E-03
      0.425000          0.127661E-03
      0.430000          0.122273E-03
      0.435000          0.117175E-03
      0.440000          0.112498E-03
      0.445000          0.108356E-03
      0.450000          0.104843E-03
      0.455000          0.102024E-03
      0.460000          0.999349E-04
      0.465000          0.985794E-04
      0.470000          0.979308E-04
      0.475000          0.979340E-04
      0.480000          0.985092E-04
      0.485000          0.995575E-04
      0.490000          0.100966E-03
      0.495000          0.102616E-03
      0.500000          0.104386E-03
