 I_abs(s)[cm^-1]/c[mg/ml]
       0.00000          0.141091E-01
      0.500000E-02      0.140352E-01
      0.100000E-01      0.138162E-01
      0.150000E-01      0.134595E-01
      0.200000E-01      0.129774E-01
      0.250000E-01      0.123858E-01
      0.300000E-01      0.117040E-01
      0.350000E-01      0.109529E-01
      0.400000E-01      0.101549E-01
      0.450000E-01      0.933191E-02
      0.500000E-01      0.850507E-02
      0.550000E-01      0.769337E-02
      0.600000E-01      0.691321E-02
      0.650000E-01      0.617778E-02
      0.700000E-01      0.549686E-02
      0.750000E-01      0.487675E-02
      0.800000E-01      0.432040E-02
      0.850000E-01      0.382778E-02
      0.900000E-01      0.339634E-02
      0.950000E-01      0.302160E-02
      0.100000          0.269771E-02
      0.105000          0.241808E-02
      0.110000          0.217592E-02
      0.115000          0.196472E-02
      0.120000          0.177860E-02
      0.125000          0.161256E-02
      0.130000          0.146259E-02
      0.135000          0.132573E-02
      0.140000          0.119996E-02
      0.145000          0.108408E-02
      0.150000          0.977526E-03
      0.155000          0.880146E-03
      0.160000          0.792016E-03
      0.165000          0.713263E-03
      0.170000          0.643922E-03
      0.175000          0.583845E-03
      0.180000          0.532649E-03
      0.185000          0.489719E-03
      0.190000          0.454235E-03
      0.195000          0.425228E-03
      0.200000          0.401660E-03
      0.205000          0.382491E-03
      0.210000          0.366749E-03
      0.215000          0.353588E-03
      0.220000          0.342314E-03
      0.225000          0.332406E-03
      0.230000          0.323507E-03
      0.235000          0.315399E-03
      0.240000          0.307972E-03
      0.245000          0.301183E-03
      0.250000          0.295016E-03
      0.255000          0.289447E-03
      0.260000          0.284422E-03
      0.265000          0.279840E-03
      0.270000          0.275548E-03
      0.275000          0.271354E-03
      0.280000          0.267042E-03
      0.285000          0.262390E-03
      0.290000          0.257200E-03
      0.295000          0.251314E-03
      0.300000          0.244633E-03
      0.305000          0.237128E-03
      0.310000          0.228845E-03
      0.315000          0.219896E-03
      0.320000          0.210448E-03
      0.325000          0.200710E-03
      0.330000          0.190910E-03
      0.335000          0.181276E-03
      0.340000          0.172015E-03
      0.345000          0.163302E-03
      0.350000          0.155265E-03
      0.355000          0.147986E-03
      0.360000          0.141494E-03
      0.365000          0.135777E-03
      0.370000          0.130788E-03
      0.375000          0.126456E-03
      0.380000          0.122698E-03
      0.385000          0.119430E-03
      0.390000          0.116577E-03
      0.395000          0.114080E-03
      0.400000          0.111894E-03
      0.405000          0.109995E-03
      0.410000          0.108372E-03
      0.415000          0.107023E-03
      0.420000          0.105951E-03
      0.425000          0.105155E-03
      0.430000          0.104626E-03
      0.435000          0.104345E-03
      0.440000          0.104277E-03
      0.445000          0.104374E-03
      0.450000          0.104577E-03
      0.455000          0.104819E-03
      0.460000          0.105033E-03
      0.465000          0.105153E-03
      0.470000          0.105125E-03
      0.475000          0.104907E-03
      0.480000          0.104477E-03
      0.485000          0.103831E-03
      0.490000          0.102984E-03
      0.495000          0.101968E-03
      0.500000          0.100831E-03
