 I_abs(s)[cm^-1]/c[mg/ml]
       0.00000          0.143133E-01
      0.500000E-02      0.142429E-01
      0.100000E-01      0.140342E-01
      0.150000E-01      0.136937E-01
      0.200000E-01      0.132322E-01
      0.250000E-01      0.126639E-01
      0.300000E-01      0.120058E-01
      0.350000E-01      0.112771E-01
      0.400000E-01      0.104978E-01
      0.450000E-01      0.968818E-02
      0.500000E-01      0.886798E-02
      0.550000E-01      0.805533E-02
      0.600000E-01      0.726633E-02
      0.650000E-01      0.651447E-02
      0.700000E-01      0.581036E-02
      0.750000E-01      0.516159E-02
      0.800000E-01      0.457278E-02
      0.850000E-01      0.404576E-02
      0.900000E-01      0.357994E-02
      0.950000E-01      0.317265E-02
      0.100000          0.281970E-02
      0.105000          0.251577E-02
      0.110000          0.225497E-02
      0.115000          0.203118E-02
      0.120000          0.183848E-02
      0.125000          0.167139E-02
      0.130000          0.152509E-02
      0.135000          0.139550E-02
      0.140000          0.127934E-02
      0.145000          0.117410E-02
      0.150000          0.107794E-02
      0.155000          0.989593E-03
      0.160000          0.908242E-03
      0.165000          0.833382E-03
      0.170000          0.764702E-03
      0.175000          0.701992E-03
      0.180000          0.645060E-03
      0.185000          0.593680E-03
      0.190000          0.547571E-03
      0.195000          0.506382E-03
      0.200000          0.469705E-03
      0.205000          0.437091E-03
      0.210000          0.408074E-03
      0.215000          0.382194E-03
      0.220000          0.359021E-03
      0.225000          0.338164E-03
      0.230000          0.319286E-03
      0.235000          0.302106E-03
      0.240000          0.286395E-03
      0.245000          0.271970E-03
      0.250000          0.258690E-03
      0.255000          0.246446E-03
      0.260000          0.235152E-03
      0.265000          0.224740E-03
      0.270000          0.215154E-03
      0.275000          0.206350E-03
      0.280000          0.198290E-03
      0.285000          0.190944E-03
      0.290000          0.184286E-03
      0.295000          0.178292E-03
      0.300000          0.172938E-03
      0.305000          0.168195E-03
      0.310000          0.164029E-03
      0.315000          0.160391E-03
      0.320000          0.157220E-03
      0.325000          0.154438E-03
      0.330000          0.151952E-03
      0.335000          0.149658E-03
      0.340000          0.147444E-03
      0.345000          0.145197E-03
      0.350000          0.142812E-03
      0.355000          0.140201E-03
      0.360000          0.137300E-03
      0.365000          0.134076E-03
      0.370000          0.130530E-03
      0.375000          0.126699E-03
      0.380000          0.122656E-03
      0.385000          0.118500E-03
      0.390000          0.114354E-03
      0.395000          0.110350E-03
      0.400000          0.106620E-03
      0.405000          0.103285E-03
      0.410000          0.100443E-03
      0.415000          0.981633E-04
      0.420000          0.964777E-04
      0.425000          0.953801E-04
      0.430000          0.948268E-04
      0.435000          0.947403E-04
      0.440000          0.950166E-04
      0.445000          0.955341E-04
      0.450000          0.961632E-04
      0.455000          0.967773E-04
      0.460000          0.972620E-04
      0.465000          0.975233E-04
      0.470000          0.974936E-04
      0.475000          0.971351E-04
      0.480000          0.964407E-04
      0.485000          0.954321E-04
      0.490000          0.941559E-04
      0.495000          0.926777E-04
      0.500000          0.910754E-04
