 I_abs(s)[cm^-1]/c[mg/ml]
       0.00000          0.145507E-01
      0.500000E-02      0.144808E-01
      0.100000E-01      0.142729E-01
      0.150000E-01      0.139325E-01
      0.200000E-01      0.134684E-01
      0.250000E-01      0.128924E-01
      0.300000E-01      0.122190E-01
      0.350000E-01      0.114647E-01
      0.400000E-01      0.106476E-01
      0.450000E-01      0.978628E-02
      0.500000E-01      0.889984E-02
      0.550000E-01      0.800672E-02
      0.600000E-01      0.712434E-02
      0.650000E-01      0.626858E-02
      0.700000E-01      0.545333E-02
      0.750000E-01      0.469018E-02
      0.800000E-01      0.398822E-02
      0.850000E-01      0.335397E-02
      0.900000E-01      0.279132E-02
      0.950000E-01      0.230176E-02
      0.100000          0.188447E-02
      0.105000          0.153667E-02
      0.110000          0.125396E-02
      0.115000          0.103059E-02
      0.120000          0.859937E-03
      0.125000          0.734816E-03
      0.130000          0.647835E-03
      0.135000          0.591711E-03
      0.140000          0.559530E-03
      0.145000          0.544958E-03
      0.150000          0.542393E-03
      0.155000          0.547067E-03
      0.160000          0.555084E-03
      0.165000          0.563419E-03
      0.170000          0.569872E-03
      0.175000          0.572994E-03
      0.180000          0.571983E-03
      0.185000          0.566574E-03
      0.190000          0.556920E-03
      0.195000          0.543472E-03
      0.200000          0.526878E-03
      0.205000          0.507880E-03
      0.210000          0.487240E-03
      0.215000          0.465677E-03
      0.220000          0.443825E-03
      0.225000          0.422204E-03
      0.230000          0.401207E-03
      0.235000          0.381108E-03
      0.240000          0.362061E-03
      0.245000          0.344130E-03
      0.250000          0.327296E-03
      0.255000          0.311493E-03
      0.260000          0.296617E-03
      0.265000          0.282555E-03
      0.270000          0.269195E-03
      0.275000          0.256440E-03
      0.280000          0.244216E-03
      0.285000          0.232476E-03
      0.290000          0.221199E-03
      0.295000          0.210392E-03
      0.300000          0.200081E-03
      0.305000          0.190309E-03
      0.310000          0.181130E-03
      0.315000          0.172600E-03
      0.320000          0.164775E-03
      0.325000          0.157705E-03
      0.330000          0.151429E-03
      0.335000          0.145974E-03
      0.340000          0.141350E-03
      0.345000          0.137553E-03
      0.350000          0.134561E-03
      0.355000          0.132339E-03
      0.360000          0.130834E-03
      0.365000          0.129981E-03
      0.370000          0.129703E-03
      0.375000          0.129914E-03
      0.380000          0.130519E-03
      0.385000          0.131419E-03
      0.390000          0.132514E-03
      0.395000          0.133701E-03
      0.400000          0.134883E-03
      0.405000          0.135967E-03
      0.410000          0.136867E-03
      0.415000          0.137511E-03
      0.420000          0.137836E-03
      0.425000          0.137796E-03
      0.430000          0.137359E-03
      0.435000          0.136510E-03
      0.440000          0.135250E-03
      0.445000          0.133598E-03
      0.450000          0.131587E-03
      0.455000          0.129261E-03
      0.460000          0.126680E-03
      0.465000          0.123908E-03
      0.470000          0.121018E-03
      0.475000          0.118084E-03
      0.480000          0.115179E-03
      0.485000          0.112374E-03
      0.490000          0.109733E-03
      0.495000          0.107309E-03
      0.500000          0.105146E-03
