 I_abs(s)[cm^-1]/c[mg/ml]
       0.00000          0.142110E-01
      0.500000E-02      0.141398E-01
      0.100000E-01      0.139283E-01
      0.150000E-01      0.135831E-01
      0.200000E-01      0.131144E-01
      0.250000E-01      0.125363E-01
      0.300000E-01      0.118653E-01
      0.350000E-01      0.111202E-01
      0.400000E-01      0.103209E-01
      0.450000E-01      0.948772E-02
      0.500000E-01      0.864053E-02
      0.550000E-01      0.779791E-02
      0.600000E-01      0.697662E-02
      0.650000E-01      0.619102E-02
      0.700000E-01      0.545275E-02
      0.750000E-01      0.477056E-02
      0.800000E-01      0.415024E-02
      0.850000E-01      0.359480E-02
      0.900000E-01      0.310466E-02
      0.950000E-01      0.267808E-02
      0.100000          0.231150E-02
      0.105000          0.200005E-02
      0.110000          0.173798E-02
      0.115000          0.151907E-02
      0.120000          0.133708E-02
      0.125000          0.118601E-02
      0.130000          0.106033E-02
      0.135000          0.955230E-03
      0.140000          0.866600E-03
      0.145000          0.791123E-03
      0.150000          0.726209E-03
      0.155000          0.669916E-03
      0.160000          0.620846E-03
      0.165000          0.578020E-03
      0.170000          0.540756E-03
      0.175000          0.508560E-03
      0.180000          0.481031E-03
      0.185000          0.457789E-03
      0.190000          0.438433E-03
      0.195000          0.422514E-03
      0.200000          0.409536E-03
      0.205000          0.398966E-03
      0.210000          0.390257E-03
      0.215000          0.382878E-03
      0.220000          0.376339E-03
      0.225000          0.370219E-03
      0.230000          0.364176E-03
      0.235000          0.357961E-03
      0.240000          0.351419E-03
      0.245000          0.344475E-03
      0.250000          0.337128E-03
      0.255000          0.329428E-03
      0.260000          0.321458E-03
      0.265000          0.313318E-03
      0.270000          0.305106E-03
      0.275000          0.296906E-03
      0.280000          0.288781E-03
      0.285000          0.280769E-03
      0.290000          0.272882E-03
      0.295000          0.265115E-03
      0.300000          0.257447E-03
      0.305000          0.249855E-03
      0.310000          0.242315E-03
      0.315000          0.234815E-03
      0.320000          0.227355E-03
      0.325000          0.219954E-03
      0.330000          0.212647E-03
      0.335000          0.205484E-03
      0.340000          0.198526E-03
      0.345000          0.191839E-03
      0.350000          0.185490E-03
      0.355000          0.179537E-03
      0.360000          0.174030E-03
      0.365000          0.168998E-03
      0.370000          0.164455E-03
      0.375000          0.160394E-03
      0.380000          0.156788E-03
      0.385000          0.153593E-03
      0.390000          0.150752E-03
      0.395000          0.148197E-03
      0.400000          0.145858E-03
      0.405000          0.143661E-03
      0.410000          0.141540E-03
      0.415000          0.139437E-03
      0.420000          0.137303E-03
      0.425000          0.135104E-03
      0.430000          0.132820E-03
      0.435000          0.130446E-03
      0.440000          0.127988E-03
      0.445000          0.125466E-03
      0.450000          0.122909E-03
      0.455000          0.120350E-03
      0.460000          0.117830E-03
      0.465000          0.115388E-03
      0.470000          0.113063E-03
      0.475000          0.110889E-03
      0.480000          0.108897E-03
      0.485000          0.107106E-03
      0.490000          0.105532E-03
      0.495000          0.104176E-03
      0.500000          0.103035E-03
