 I_abs(s)[cm^-1]/c[mg/ml]
       0.00000          0.148462E-01
      0.500000E-02      0.147751E-01
      0.100000E-01      0.145641E-01
      0.150000E-01      0.142189E-01
      0.200000E-01      0.137492E-01
      0.250000E-01      0.131677E-01
      0.300000E-01      0.124899E-01
      0.350000E-01      0.117334E-01
      0.400000E-01      0.109171E-01
      0.450000E-01      0.100604E-01
      0.500000E-01      0.918256E-02
      0.550000E-01      0.830214E-02
      0.600000E-01      0.743614E-02
      0.650000E-01      0.659963E-02
      0.700000E-01      0.580537E-02
      0.750000E-01      0.506355E-02
      0.800000E-01      0.438164E-02
      0.850000E-01      0.376449E-02
      0.900000E-01      0.321440E-02
      0.950000E-01      0.273137E-02
      0.100000          0.231343E-02
      0.105000          0.195699E-02
      0.110000          0.165722E-02
      0.115000          0.140847E-02
      0.120000          0.120461E-02
      0.125000          0.103937E-02
      0.130000          0.906646E-03
      0.135000          0.800708E-03
      0.140000          0.716373E-03
      0.145000          0.649105E-03
      0.150000          0.595066E-03
      0.155000          0.551115E-03
      0.160000          0.514769E-03
      0.165000          0.484133E-03
      0.170000          0.457814E-03
      0.175000          0.434830E-03
      0.180000          0.414511E-03
      0.185000          0.396415E-03
      0.190000          0.380252E-03
      0.195000          0.365820E-03
      0.200000          0.352965E-03
      0.205000          0.341545E-03
      0.210000          0.331418E-03
      0.215000          0.322431E-03
      0.220000          0.314424E-03
      0.225000          0.307236E-03
      0.230000          0.300713E-03
      0.235000          0.294716E-03
      0.240000          0.289128E-03
      0.245000          0.283856E-03
      0.250000          0.278833E-03
      0.255000          0.274019E-03
      0.260000          0.269391E-03
      0.265000          0.264937E-03
      0.270000          0.260656E-03
      0.275000          0.256544E-03
      0.280000          0.252592E-03
      0.285000          0.248780E-03
      0.290000          0.245080E-03
      0.295000          0.241450E-03
      0.300000          0.237838E-03
      0.305000          0.234187E-03
      0.310000          0.230436E-03
      0.315000          0.226528E-03
      0.320000          0.222413E-03
      0.325000          0.218052E-03
      0.330000          0.213421E-03
      0.335000          0.208513E-03
      0.340000          0.203339E-03
      0.345000          0.197929E-03
      0.350000          0.192325E-03
      0.355000          0.186587E-03
      0.360000          0.180779E-03
      0.365000          0.174977E-03
      0.370000          0.169252E-03
      0.375000          0.163678E-03
      0.380000          0.158318E-03
      0.385000          0.153229E-03
      0.390000          0.148456E-03
      0.395000          0.144028E-03
      0.400000          0.139963E-03
      0.405000          0.136264E-03
      0.410000          0.132923E-03
      0.415000          0.129919E-03
      0.420000          0.127224E-03
      0.425000          0.124803E-03
      0.430000          0.122619E-03
      0.435000          0.120633E-03
      0.440000          0.118809E-03
      0.445000          0.117114E-03
      0.450000          0.115521E-03
      0.455000          0.114010E-03
      0.460000          0.112567E-03
      0.465000          0.111187E-03
      0.470000          0.109870E-03
      0.475000          0.108620E-03
      0.480000          0.107445E-03
      0.485000          0.106353E-03
      0.490000          0.105353E-03
      0.495000          0.104450E-03
      0.500000          0.103644E-03
