 I_abs(s)[cm^-1]/c[mg/ml]
       0.00000          0.148622E-01
      0.500000E-02      0.148114E-01
      0.100000E-01      0.146600E-01
      0.150000E-01      0.144109E-01
      0.200000E-01      0.140688E-01
      0.250000E-01      0.136403E-01
      0.300000E-01      0.131333E-01
      0.350000E-01      0.125571E-01
      0.400000E-01      0.119220E-01
      0.450000E-01      0.112391E-01
      0.500000E-01      0.105199E-01
      0.550000E-01      0.977607E-02
      0.600000E-01      0.901914E-02
      0.650000E-01      0.826018E-02
      0.700000E-01      0.750964E-02
      0.750000E-01      0.677703E-02
      0.800000E-01      0.607083E-02
      0.850000E-01      0.539831E-02
      0.900000E-01      0.476541E-02
      0.950000E-01      0.417677E-02
      0.100000          0.363566E-02
      0.105000          0.314405E-02
      0.110000          0.270266E-02
      0.115000          0.231111E-02
      0.120000          0.196801E-02
      0.125000          0.167112E-02
      0.130000          0.141752E-02
      0.135000          0.120377E-02
      0.140000          0.102606E-02
      0.145000          0.880387E-03
      0.150000          0.762682E-03
      0.155000          0.668938E-03
      0.160000          0.595322E-03
      0.165000          0.538256E-03
      0.170000          0.494486E-03
      0.175000          0.461122E-03
      0.180000          0.435662E-03
      0.185000          0.415997E-03
      0.190000          0.400402E-03
      0.195000          0.387511E-03
      0.200000          0.376285E-03
      0.205000          0.365970E-03
      0.210000          0.356055E-03
      0.215000          0.346227E-03
      0.220000          0.336326E-03
      0.225000          0.326302E-03
      0.230000          0.316186E-03
      0.235000          0.306049E-03
      0.240000          0.295984E-03
      0.245000          0.286084E-03
      0.250000          0.276429E-03
      0.255000          0.267079E-03
      0.260000          0.258069E-03
      0.265000          0.249411E-03
      0.270000          0.241095E-03
      0.275000          0.233095E-03
      0.280000          0.225377E-03
      0.285000          0.217901E-03
      0.290000          0.210628E-03
      0.295000          0.203525E-03
      0.300000          0.196571E-03
      0.305000          0.189753E-03
      0.310000          0.183074E-03
      0.315000          0.176545E-03
      0.320000          0.170191E-03
      0.325000          0.164042E-03
      0.330000          0.158135E-03
      0.335000          0.152507E-03
      0.340000          0.147195E-03
      0.345000          0.142233E-03
      0.350000          0.137646E-03
      0.355000          0.133452E-03
      0.360000          0.129662E-03
      0.365000          0.126275E-03
      0.370000          0.123283E-03
      0.375000          0.120669E-03
      0.380000          0.118409E-03
      0.385000          0.116475E-03
      0.390000          0.114834E-03
      0.395000          0.113453E-03
      0.400000          0.112299E-03
      0.405000          0.111339E-03
      0.410000          0.110545E-03
      0.415000          0.109889E-03
      0.420000          0.109349E-03
      0.425000          0.108907E-03
      0.430000          0.108547E-03
      0.435000          0.108256E-03
      0.440000          0.108023E-03
      0.445000          0.107838E-03
      0.450000          0.107694E-03
      0.455000          0.107579E-03
      0.460000          0.107484E-03
      0.465000          0.107397E-03
      0.470000          0.107303E-03
      0.475000          0.107189E-03
      0.480000          0.107037E-03
      0.485000          0.106830E-03
      0.490000          0.106551E-03
      0.495000          0.106182E-03
      0.500000          0.105709E-03
