 I_abs(s)[cm^-1]/c[mg/ml]
       0.00000          0.142896E-01
      0.500000E-02      0.142116E-01
      0.100000E-01      0.139803E-01
      0.150000E-01      0.136035E-01
      0.200000E-01      0.130940E-01
      0.250000E-01      0.124684E-01
      0.300000E-01      0.117468E-01
      0.350000E-01      0.109513E-01
      0.400000E-01      0.101051E-01
      0.450000E-01      0.923166E-02
      0.500000E-01      0.835303E-02
      0.550000E-01      0.748951E-02
      0.600000E-01      0.665866E-02
      0.650000E-01      0.587485E-02
      0.700000E-01      0.514897E-02
      0.750000E-01      0.448833E-02
      0.800000E-01      0.389683E-02
      0.850000E-01      0.337527E-02
      0.900000E-01      0.292179E-02
      0.950000E-01      0.253245E-02
      0.100000          0.220178E-02
      0.105000          0.192336E-02
      0.110000          0.169038E-02
      0.115000          0.149606E-02
      0.120000          0.133402E-02
      0.125000          0.119855E-02
      0.130000          0.108473E-02
      0.135000          0.988481E-03
      0.140000          0.906534E-03
      0.145000          0.836344E-03
      0.150000          0.775952E-03
      0.155000          0.723847E-03
      0.160000          0.678825E-03
      0.165000          0.639872E-03
      0.170000          0.606075E-03
      0.175000          0.576570E-03
      0.180000          0.550515E-03
      0.185000          0.527099E-03
      0.190000          0.505567E-03
      0.195000          0.485254E-03
      0.200000          0.465626E-03
      0.205000          0.446305E-03
      0.210000          0.427087E-03
      0.215000          0.407942E-03
      0.220000          0.388997E-03
      0.225000          0.370498E-03
      0.230000          0.352770E-03
      0.235000          0.336164E-03
      0.240000          0.321006E-03
      0.245000          0.307553E-03
      0.250000          0.295961E-03
      0.255000          0.286263E-03
      0.260000          0.278367E-03
      0.265000          0.272064E-03
      0.270000          0.267054E-03
      0.275000          0.262978E-03
      0.280000          0.259455E-03
      0.285000          0.256121E-03
      0.290000          0.252660E-03
      0.295000          0.248833E-03
      0.300000          0.244493E-03
      0.305000          0.239592E-03
      0.310000          0.234171E-03
      0.315000          0.228349E-03
      0.320000          0.222301E-03
      0.325000          0.216228E-03
      0.330000          0.210335E-03
      0.335000          0.204803E-03
      0.340000          0.199772E-03
      0.345000          0.195324E-03
      0.350000          0.191481E-03
      0.355000          0.188204E-03
      0.360000          0.185400E-03
      0.365000          0.182939E-03
      0.370000          0.180667E-03
      0.375000          0.178424E-03
      0.380000          0.176059E-03
      0.385000          0.173448E-03
      0.390000          0.170501E-03
      0.395000          0.167167E-03
      0.400000          0.163436E-03
      0.405000          0.159337E-03
      0.410000          0.154929E-03
      0.415000          0.150291E-03
      0.420000          0.145516E-03
      0.425000          0.140697E-03
      0.430000          0.135921E-03
      0.435000          0.131261E-03
      0.440000          0.126773E-03
      0.445000          0.122493E-03
      0.450000          0.118439E-03
      0.455000          0.114615E-03
      0.460000          0.111013E-03
      0.465000          0.107618E-03
      0.470000          0.104416E-03
      0.475000          0.101392E-03
      0.480000          0.985389E-04
      0.485000          0.958540E-04
      0.490000          0.933412E-04
      0.495000          0.910092E-04
      0.500000          0.888693E-04
