 I_abs(s)[cm^-1]/c[mg/ml]
       0.00000          0.145030E-01
      0.500000E-02      0.144334E-01
      0.100000E-01      0.142270E-01
      0.150000E-01      0.138909E-01
      0.200000E-01      0.134363E-01
      0.250000E-01      0.128783E-01
      0.300000E-01      0.122344E-01
      0.350000E-01      0.115241E-01
      0.400000E-01      0.107673E-01
      0.450000E-01      0.998408E-02
      0.500000E-01      0.919297E-02
      0.550000E-01      0.841078E-02
      0.600000E-01      0.765182E-02
      0.650000E-01      0.692759E-02
      0.700000E-01      0.624668E-02
      0.750000E-01      0.561483E-02
      0.800000E-01      0.503511E-02
      0.850000E-01      0.450835E-02
      0.900000E-01      0.403350E-02
      0.950000E-01      0.360811E-02
      0.100000          0.322875E-02
      0.105000          0.289146E-02
      0.110000          0.259201E-02
      0.115000          0.232623E-02
      0.120000          0.209016E-02
      0.125000          0.188016E-02
      0.130000          0.169297E-02
      0.135000          0.152574E-02
      0.140000          0.137596E-02
      0.145000          0.124150E-02
      0.150000          0.112051E-02
      0.155000          0.101142E-02
      0.160000          0.912896E-03
      0.165000          0.823827E-03
      0.170000          0.743299E-03
      0.175000          0.670576E-03
      0.180000          0.605076E-03
      0.185000          0.546341E-03
      0.190000          0.494007E-03
      0.195000          0.447769E-03
      0.200000          0.407339E-03
      0.205000          0.372420E-03
      0.210000          0.342672E-03
      0.215000          0.317699E-03
      0.220000          0.297043E-03
      0.225000          0.280184E-03
      0.230000          0.266564E-03
      0.235000          0.255601E-03
      0.240000          0.246724E-03
      0.245000          0.239397E-03
      0.250000          0.233142E-03
      0.255000          0.227562E-03
      0.260000          0.222348E-03
      0.265000          0.217280E-03
      0.270000          0.212225E-03
      0.275000          0.207120E-03
      0.280000          0.201961E-03
      0.285000          0.196779E-03
      0.290000          0.191629E-03
      0.295000          0.186573E-03
      0.300000          0.181671E-03
      0.305000          0.176974E-03
      0.310000          0.172520E-03
      0.315000          0.168338E-03
      0.320000          0.164447E-03
      0.325000          0.160859E-03
      0.330000          0.157584E-03
      0.335000          0.154625E-03
      0.340000          0.151984E-03
      0.345000          0.149654E-03
      0.350000          0.147622E-03
      0.355000          0.145864E-03
      0.360000          0.144342E-03
      0.365000          0.143010E-03
      0.370000          0.141809E-03
      0.375000          0.140674E-03
      0.380000          0.139538E-03
      0.385000          0.138337E-03
      0.390000          0.137017E-03
      0.395000          0.135536E-03
      0.400000          0.133869E-03
      0.405000          0.132007E-03
      0.410000          0.129959E-03
      0.415000          0.127748E-03
      0.420000          0.125408E-03
      0.425000          0.122979E-03
      0.430000          0.120501E-03
      0.435000          0.118011E-03
      0.440000          0.115543E-03
      0.445000          0.113121E-03
      0.450000          0.110759E-03
      0.455000          0.108467E-03
      0.460000          0.106248E-03
      0.465000          0.104099E-03
      0.470000          0.102019E-03
      0.475000          0.100004E-03
      0.480000          0.980556E-04
      0.485000          0.961736E-04
      0.490000          0.943616E-04
      0.495000          0.926239E-04
      0.500000          0.909651E-04
