 I_abs(s)[cm^-1]/c[mg/ml]
       0.00000          0.139142E-01
      0.500000E-02      0.138214E-01
      0.100000E-01      0.135467E-01
      0.150000E-01      0.131008E-01
      0.200000E-01      0.125010E-01
      0.250000E-01      0.117699E-01
      0.300000E-01      0.109345E-01
      0.350000E-01      0.100243E-01
      0.400000E-01      0.906998E-02
      0.450000E-01      0.810184E-02
      0.500000E-01      0.714813E-02
      0.550000E-01      0.623395E-02
      0.600000E-01      0.538021E-02
      0.650000E-01      0.460293E-02
      0.700000E-01      0.391297E-02
      0.750000E-01      0.331603E-02
      0.800000E-01      0.281293E-02
      0.850000E-01      0.240023E-02
      0.900000E-01      0.207100E-02
      0.950000E-01      0.181569E-02
      0.100000          0.162309E-02
      0.105000          0.148123E-02
      0.110000          0.137822E-02
      0.115000          0.130293E-02
      0.120000          0.124555E-02
      0.125000          0.119794E-02
      0.130000          0.115377E-02
      0.135000          0.110861E-02
      0.140000          0.105973E-02
      0.145000          0.100596E-02
      0.150000          0.947334E-03
      0.155000          0.884796E-03
      0.160000          0.819882E-03
      0.165000          0.754409E-03
      0.170000          0.690229E-03
      0.175000          0.629028E-03
      0.180000          0.572194E-03
      0.185000          0.520735E-03
      0.190000          0.475260E-03
      0.195000          0.435991E-03
      0.200000          0.402818E-03
      0.205000          0.375359E-03
      0.210000          0.353044E-03
      0.215000          0.335185E-03
      0.220000          0.321047E-03
      0.225000          0.309904E-03
      0.230000          0.301080E-03
      0.235000          0.293980E-03
      0.240000          0.288107E-03
      0.245000          0.283065E-03
      0.250000          0.278558E-03
      0.255000          0.274381E-03
      0.260000          0.270406E-03
      0.265000          0.266567E-03
      0.270000          0.262847E-03
      0.275000          0.259258E-03
      0.280000          0.255827E-03
      0.285000          0.252588E-03
      0.290000          0.249563E-03
      0.295000          0.246760E-03
      0.300000          0.244165E-03
      0.305000          0.241739E-03
      0.310000          0.239420E-03
      0.315000          0.237125E-03
      0.320000          0.234760E-03
      0.325000          0.232221E-03
      0.330000          0.229412E-03
      0.335000          0.226249E-03
      0.340000          0.222669E-03
      0.345000          0.218636E-03
      0.350000          0.214150E-03
      0.355000          0.209239E-03
      0.360000          0.203965E-03
      0.365000          0.198413E-03
      0.370000          0.192685E-03
      0.375000          0.186892E-03
      0.380000          0.181140E-03
      0.385000          0.175525E-03
      0.390000          0.170126E-03
      0.395000          0.164995E-03
      0.400000          0.160158E-03
      0.405000          0.155617E-03
      0.410000          0.151349E-03
      0.415000          0.147315E-03
      0.420000          0.143466E-03
      0.425000          0.139750E-03
      0.430000          0.136121E-03
      0.435000          0.132542E-03
      0.440000          0.128992E-03
      0.445000          0.125468E-03
      0.450000          0.121983E-03
      0.455000          0.118566E-03
      0.460000          0.115256E-03
      0.465000          0.112098E-03
      0.470000          0.109138E-03
      0.475000          0.106416E-03
      0.480000          0.103964E-03
      0.485000          0.101800E-03
      0.490000          0.999281E-04
      0.495000          0.983378E-04
      0.500000          0.970056E-04
