 I_abs(s)[cm^-1]/c[mg/ml]
       0.00000          0.143922E-01
      0.500000E-02      0.143133E-01
      0.100000E-01      0.140793E-01
      0.150000E-01      0.136980E-01
      0.200000E-01      0.131817E-01
      0.250000E-01      0.125473E-01
      0.300000E-01      0.118145E-01
      0.350000E-01      0.110057E-01
      0.400000E-01      0.101443E-01
      0.450000E-01      0.925428E-02
      0.500000E-01      0.835850E-02
      0.550000E-01      0.747829E-02
      0.600000E-01      0.663239E-02
      0.650000E-01      0.583646E-02
      0.700000E-01      0.510263E-02
      0.750000E-01      0.443935E-02
      0.800000E-01      0.385136E-02
      0.850000E-01      0.333997E-02
      0.900000E-01      0.290339E-02
      0.950000E-01      0.253723E-02
      0.100000          0.223509E-02
      0.105000          0.198920E-02
      0.110000          0.179098E-02
      0.115000          0.163168E-02
      0.120000          0.150282E-02
      0.125000          0.139664E-02
      0.130000          0.130640E-02
      0.135000          0.122653E-02
      0.140000          0.115275E-02
      0.145000          0.108202E-02
      0.150000          0.101248E-02
      0.155000          0.943250E-03
      0.160000          0.874246E-03
      0.165000          0.805972E-03
      0.170000          0.739295E-03
      0.175000          0.675250E-03
      0.180000          0.614870E-03
      0.185000          0.559057E-03
      0.190000          0.508490E-03
      0.195000          0.463577E-03
      0.200000          0.424442E-03
      0.205000          0.390944E-03
      0.210000          0.362712E-03
      0.215000          0.339206E-03
      0.220000          0.319776E-03
      0.225000          0.303722E-03
      0.230000          0.290350E-03
      0.235000          0.279015E-03
      0.240000          0.269156E-03
      0.245000          0.260314E-03
      0.250000          0.252136E-03
      0.255000          0.244380E-03
      0.260000          0.236895E-03
      0.265000          0.229608E-03
      0.270000          0.222509E-03
      0.275000          0.215624E-03
      0.280000          0.209004E-03
      0.285000          0.202710E-03
      0.290000          0.196796E-03
      0.295000          0.191311E-03
      0.300000          0.186288E-03
      0.305000          0.181743E-03
      0.310000          0.177682E-03
      0.315000          0.174095E-03
      0.320000          0.170965E-03
      0.325000          0.168263E-03
      0.330000          0.165959E-03
      0.335000          0.164013E-03
      0.340000          0.162385E-03
      0.345000          0.161027E-03
      0.350000          0.159889E-03
      0.355000          0.158917E-03
      0.360000          0.158055E-03
      0.365000          0.157245E-03
      0.370000          0.156431E-03
      0.375000          0.155558E-03
      0.380000          0.154580E-03
      0.385000          0.153458E-03
      0.390000          0.152167E-03
      0.395000          0.150693E-03
      0.400000          0.149039E-03
      0.405000          0.147222E-03
      0.410000          0.145273E-03
      0.415000          0.143234E-03
      0.420000          0.141157E-03
      0.425000          0.139096E-03
      0.430000          0.137106E-03
      0.435000          0.135239E-03
      0.440000          0.133537E-03
      0.445000          0.132028E-03
      0.450000          0.130729E-03
      0.455000          0.129638E-03
      0.460000          0.128737E-03
      0.465000          0.127994E-03
      0.470000          0.127362E-03
      0.475000          0.126785E-03
      0.480000          0.126201E-03
      0.485000          0.125547E-03
      0.490000          0.124761E-03
      0.495000          0.123788E-03
      0.500000          0.122583E-03
