 I_abs(s)[cm^-1]/c[mg/ml]
       0.00000          0.142424E-01
      0.500000E-02      0.141777E-01
      0.100000E-01      0.139852E-01
      0.150000E-01      0.136706E-01
      0.200000E-01      0.132425E-01
      0.250000E-01      0.127129E-01
      0.300000E-01      0.120960E-01
      0.350000E-01      0.114081E-01
      0.400000E-01      0.106664E-01
      0.450000E-01      0.988888E-02
      0.500000E-01      0.909317E-02
      0.550000E-01      0.829613E-02
      0.600000E-01      0.751319E-02
      0.650000E-01      0.675791E-02
      0.700000E-01      0.604163E-02
      0.750000E-01      0.537321E-02
      0.800000E-01      0.475898E-02
      0.850000E-01      0.420275E-02
      0.900000E-01      0.370595E-02
      0.950000E-01      0.326789E-02
      0.100000          0.288607E-02
      0.105000          0.255656E-02
      0.110000          0.227437E-02
      0.115000          0.203389E-02
      0.120000          0.182921E-02
      0.125000          0.165451E-02
      0.130000          0.150429E-02
      0.135000          0.137360E-02
      0.140000          0.125821E-02
      0.145000          0.115466E-02
      0.150000          0.106027E-02
      0.155000          0.973122E-03
      0.160000          0.891982E-03
      0.165000          0.816156E-03
      0.170000          0.745388E-03
      0.175000          0.679709E-03
      0.180000          0.619315E-03
      0.185000          0.564448E-03
      0.190000          0.515304E-03
      0.195000          0.471964E-03
      0.200000          0.434353E-03
      0.205000          0.402224E-03
      0.210000          0.375166E-03
      0.215000          0.352628E-03
      0.220000          0.333956E-03
      0.225000          0.318444E-03
      0.230000          0.305376E-03
      0.235000          0.294075E-03
      0.240000          0.283938E-03
      0.245000          0.274467E-03
      0.250000          0.265286E-03
      0.255000          0.256144E-03
      0.260000          0.246916E-03
      0.265000          0.237581E-03
      0.270000          0.228208E-03
      0.275000          0.218929E-03
      0.280000          0.209910E-03
      0.285000          0.201327E-03
      0.290000          0.193341E-03
      0.295000          0.186082E-03
      0.300000          0.179632E-03
      0.305000          0.174022E-03
      0.310000          0.169227E-03
      0.315000          0.165173E-03
      0.320000          0.161742E-03
      0.325000          0.158787E-03
      0.330000          0.156144E-03
      0.335000          0.153642E-03
      0.340000          0.151123E-03
      0.345000          0.148446E-03
      0.350000          0.145499E-03
      0.355000          0.142209E-03
      0.360000          0.138536E-03
      0.365000          0.134479E-03
      0.370000          0.130073E-03
      0.375000          0.125382E-03
      0.380000          0.120493E-03
      0.385000          0.115510E-03
      0.390000          0.110542E-03
      0.395000          0.105702E-03
      0.400000          0.101094E-03
      0.405000          0.968104E-04
      0.410000          0.929258E-04
      0.415000          0.894961E-04
      0.420000          0.865558E-04
      0.425000          0.841182E-04
      0.430000          0.821769E-04
      0.435000          0.807079E-04
      0.440000          0.796728E-04
      0.445000          0.790225E-04
      0.450000          0.787010E-04
      0.455000          0.786488E-04
      0.460000          0.788068E-04
      0.465000          0.791188E-04
      0.470000          0.795344E-04
      0.475000          0.800103E-04
      0.480000          0.805116E-04
      0.485000          0.810119E-04
      0.490000          0.814932E-04
      0.495000          0.819451E-04
      0.500000          0.823632E-04
