 I_abs(s)[cm^-1]/c[mg/ml]
       0.00000          0.146861E-01
      0.500000E-02      0.146250E-01
      0.100000E-01      0.144432E-01
      0.150000E-01      0.141456E-01
      0.200000E-01      0.137397E-01
      0.250000E-01      0.132358E-01
      0.300000E-01      0.126464E-01
      0.350000E-01      0.119854E-01
      0.400000E-01      0.112681E-01
      0.450000E-01      0.105101E-01
      0.500000E-01      0.972715E-02
      0.550000E-01      0.893417E-02
      0.600000E-01      0.814522E-02
      0.650000E-01      0.737287E-02
      0.700000E-01      0.662798E-02
      0.750000E-01      0.591952E-02
      0.800000E-01      0.525448E-02
      0.850000E-01      0.463788E-02
      0.900000E-01      0.407289E-02
      0.950000E-01      0.356094E-02
      0.100000          0.310198E-02
      0.105000          0.269470E-02
      0.110000          0.233680E-02
      0.115000          0.202521E-02
      0.120000          0.175639E-02
      0.125000          0.152646E-02
      0.130000          0.133146E-02
      0.135000          0.116744E-02
      0.140000          0.103056E-02
      0.145000          0.917229E-03
      0.150000          0.824074E-03
      0.155000          0.748013E-03
      0.160000          0.686243E-03
      0.165000          0.636238E-03
      0.170000          0.595740E-03
      0.175000          0.562745E-03
      0.180000          0.535493E-03
      0.185000          0.512456E-03
      0.190000          0.492328E-03
      0.195000          0.474022E-03
      0.200000          0.456662E-03
      0.205000          0.439575E-03
      0.210000          0.422281E-03
      0.215000          0.404479E-03
      0.220000          0.386034E-03
      0.225000          0.366950E-03
      0.230000          0.347349E-03
      0.235000          0.327444E-03
      0.240000          0.307509E-03
      0.245000          0.287853E-03
      0.250000          0.268792E-03
      0.255000          0.250629E-03
      0.260000          0.233634E-03
      0.265000          0.218026E-03
      0.270000          0.203972E-03
      0.275000          0.191575E-03
      0.280000          0.180878E-03
      0.285000          0.171868E-03
      0.290000          0.164481E-03
      0.295000          0.158610E-03
      0.300000          0.154117E-03
      0.305000          0.150837E-03
      0.310000          0.148593E-03
      0.315000          0.147199E-03
      0.320000          0.146469E-03
      0.325000          0.146221E-03
      0.330000          0.146283E-03
      0.335000          0.146497E-03
      0.340000          0.146716E-03
      0.345000          0.146817E-03
      0.350000          0.146690E-03
      0.355000          0.146252E-03
      0.360000          0.145436E-03
      0.365000          0.144203E-03
      0.370000          0.142533E-03
      0.375000          0.140433E-03
      0.380000          0.137929E-03
      0.385000          0.135068E-03
      0.390000          0.131912E-03
      0.395000          0.128539E-03
      0.400000          0.125036E-03
      0.405000          0.121492E-03
      0.410000          0.117999E-03
      0.415000          0.114639E-03
      0.420000          0.111489E-03
      0.425000          0.108607E-03
      0.430000          0.106037E-03
      0.435000          0.103805E-03
      0.440000          0.101917E-03
      0.445000          0.100359E-03
      0.450000          0.991033E-04
      0.455000          0.981086E-04
      0.460000          0.973235E-04
      0.465000          0.966917E-04
      0.470000          0.961560E-04
      0.475000          0.956626E-04
      0.480000          0.951646E-04
      0.485000          0.946249E-04
      0.490000          0.940187E-04
      0.495000          0.933334E-04
      0.500000          0.925696E-04
