 I_abs(s)[cm^-1]/c[mg/ml]
       0.00000          0.147420E-01
      0.500000E-02      0.146825E-01
      0.100000E-01      0.145055E-01
      0.150000E-01      0.142156E-01
      0.200000E-01      0.138202E-01
      0.250000E-01      0.133291E-01
      0.300000E-01      0.127544E-01
      0.350000E-01      0.121097E-01
      0.400000E-01      0.114098E-01
      0.450000E-01      0.106698E-01
      0.500000E-01      0.990493E-02
      0.550000E-01      0.912999E-02
      0.600000E-01      0.835859E-02
      0.650000E-01      0.760301E-02
      0.700000E-01      0.687383E-02
      0.750000E-01      0.617971E-02
      0.800000E-01      0.552735E-02
      0.850000E-01      0.492144E-02
      0.900000E-01      0.436475E-02
      0.950000E-01      0.385833E-02
      0.100000          0.340171E-02
      0.105000          0.299316E-02
      0.110000          0.262999E-02
      0.115000          0.230883E-02
      0.120000          0.202593E-02
      0.125000          0.177736E-02
      0.130000          0.155926E-02
      0.135000          0.136801E-02
      0.140000          0.120030E-02
      0.145000          0.105324E-02
      0.150000          0.924369E-03
      0.155000          0.811640E-03
      0.160000          0.713384E-03
      0.165000          0.628241E-03
      0.170000          0.555090E-03
      0.175000          0.492967E-03
      0.180000          0.441000E-03
      0.185000          0.398343E-03
      0.190000          0.364135E-03
      0.195000          0.337470E-03
      0.200000          0.317387E-03
      0.205000          0.302877E-03
      0.210000          0.292901E-03
      0.215000          0.286421E-03
      0.220000          0.282432E-03
      0.225000          0.280000E-03
      0.230000          0.278298E-03
      0.235000          0.276626E-03
      0.240000          0.274439E-03
      0.245000          0.271349E-03
      0.250000          0.267131E-03
      0.255000          0.261708E-03
      0.260000          0.255135E-03
      0.265000          0.247573E-03
      0.270000          0.239260E-03
      0.275000          0.230482E-03
      0.280000          0.221541E-03
      0.285000          0.212728E-03
      0.290000          0.204305E-03
      0.295000          0.196480E-03
      0.300000          0.189405E-03
      0.305000          0.183166E-03
      0.310000          0.177786E-03
      0.315000          0.173234E-03
      0.320000          0.169432E-03
      0.325000          0.166266E-03
      0.330000          0.163605E-03
      0.335000          0.161308E-03
      0.340000          0.159241E-03
      0.345000          0.157282E-03
      0.350000          0.155331E-03
      0.355000          0.153310E-03
      0.360000          0.151170E-03
      0.365000          0.148885E-03
      0.370000          0.146449E-03
      0.375000          0.143874E-03
      0.380000          0.141180E-03
      0.385000          0.138396E-03
      0.390000          0.135550E-03
      0.395000          0.132667E-03
      0.400000          0.129768E-03
      0.405000          0.126866E-03
      0.410000          0.123968E-03
      0.415000          0.121077E-03
      0.420000          0.118192E-03
      0.425000          0.115310E-03
      0.430000          0.112430E-03
      0.435000          0.109556E-03
      0.440000          0.106694E-03
      0.445000          0.103858E-03
      0.450000          0.101067E-03
      0.455000          0.983432E-04
      0.460000          0.957126E-04
      0.465000          0.932019E-04
      0.470000          0.908360E-04
      0.475000          0.886359E-04
      0.480000          0.866166E-04
      0.485000          0.847856E-04
      0.490000          0.831423E-04
      0.495000          0.816777E-04
      0.500000          0.803758E-04
