 I_abs(s)[cm^-1]/c[mg/ml]
       0.00000          0.150556E-01
      0.500000E-02      0.150021E-01
      0.100000E-01      0.148430E-01
      0.150000E-01      0.145816E-01
      0.200000E-01      0.142237E-01
      0.250000E-01      0.137769E-01
      0.300000E-01      0.132505E-01
      0.350000E-01      0.126552E-01
      0.400000E-01      0.120027E-01
      0.450000E-01      0.113054E-01
      0.500000E-01      0.105757E-01
      0.550000E-01      0.982615E-02
      0.600000E-01      0.906857E-02
      0.650000E-01      0.831408E-02
      0.700000E-01      0.757276E-02
      0.750000E-01      0.685346E-02
      0.800000E-01      0.616366E-02
      0.850000E-01      0.550944E-02
      0.900000E-01      0.489547E-02
      0.950000E-01      0.432503E-02
      0.100000          0.380012E-02
      0.105000          0.332158E-02
      0.110000          0.288923E-02
      0.115000          0.250204E-02
      0.120000          0.215825E-02
      0.125000          0.185560E-02
      0.130000          0.159140E-02
      0.135000          0.136272E-02
      0.140000          0.116647E-02
      0.145000          0.999514E-03
      0.150000          0.858740E-03
      0.155000          0.741119E-03
      0.160000          0.643750E-03
      0.165000          0.563895E-03
      0.170000          0.498999E-03
      0.175000          0.446705E-03
      0.180000          0.404863E-03
      0.185000          0.371539E-03
      0.190000          0.345013E-03
      0.195000          0.323787E-03
      0.200000          0.306574E-03
      0.205000          0.292302E-03
      0.210000          0.280105E-03
      0.215000          0.269308E-03
      0.220000          0.259421E-03
      0.225000          0.250114E-03
      0.230000          0.241201E-03
      0.235000          0.232614E-03
      0.240000          0.224378E-03
      0.245000          0.216582E-03
      0.250000          0.209355E-03
      0.255000          0.202842E-03
      0.260000          0.197178E-03
      0.265000          0.192473E-03
      0.270000          0.188796E-03
      0.275000          0.186168E-03
      0.280000          0.184559E-03
      0.285000          0.183886E-03
      0.290000          0.184020E-03
      0.295000          0.184796E-03
      0.300000          0.186023E-03
      0.305000          0.187497E-03
      0.310000          0.189013E-03
      0.315000          0.190378E-03
      0.320000          0.191421E-03
      0.325000          0.192001E-03
      0.330000          0.192011E-03
      0.335000          0.191383E-03
      0.340000          0.190086E-03
      0.345000          0.188122E-03
      0.350000          0.185524E-03
      0.355000          0.182347E-03
      0.360000          0.178665E-03
      0.365000          0.174559E-03
      0.370000          0.170113E-03
      0.375000          0.165410E-03
      0.380000          0.160524E-03
      0.385000          0.155520E-03
      0.390000          0.150453E-03
      0.395000          0.145363E-03
      0.400000          0.140285E-03
      0.405000          0.135242E-03
      0.410000          0.130254E-03
      0.415000          0.125337E-03
      0.420000          0.120508E-03
      0.425000          0.115787E-03
      0.430000          0.111195E-03
      0.435000          0.106758E-03
      0.440000          0.102508E-03
      0.445000          0.984776E-04
      0.450000          0.947006E-04
      0.455000          0.912106E-04
      0.460000          0.880373E-04
      0.465000          0.852049E-04
      0.470000          0.827300E-04
      0.475000          0.806197E-04
      0.480000          0.788710E-04
      0.485000          0.774704E-04
      0.490000          0.763945E-04
      0.495000          0.756111E-04
      0.500000          0.750808E-04
