 I_abs(s)[cm^-1]/c[mg/ml]
       0.00000          0.147980E-01
      0.500000E-02      0.147395E-01
      0.100000E-01      0.145654E-01
      0.150000E-01      0.142807E-01
      0.200000E-01      0.138932E-01
      0.250000E-01      0.134133E-01
      0.300000E-01      0.128536E-01
      0.350000E-01      0.122277E-01
      0.400000E-01      0.115505E-01
      0.450000E-01      0.108367E-01
      0.500000E-01      0.101008E-01
      0.550000E-01      0.935638E-02
      0.600000E-01      0.861552E-02
      0.650000E-01      0.788886E-02
      0.700000E-01      0.718526E-02
      0.750000E-01      0.651178E-02
      0.800000E-01      0.587374E-02
      0.850000E-01      0.527488E-02
      0.900000E-01      0.471750E-02
      0.950000E-01      0.420269E-02
      0.100000          0.373057E-02
      0.105000          0.330048E-02
      0.110000          0.291117E-02
      0.115000          0.256093E-02
      0.120000          0.224775E-02
      0.125000          0.196938E-02
      0.130000          0.172340E-02
      0.135000          0.150728E-02
      0.140000          0.131840E-02
      0.145000          0.115413E-02
      0.150000          0.101183E-02
      0.155000          0.888940E-03
      0.160000          0.782969E-03
      0.165000          0.691602E-03
      0.170000          0.612717E-03
      0.175000          0.544427E-03
      0.180000          0.485109E-03
      0.185000          0.433410E-03
      0.190000          0.388240E-03
      0.195000          0.348758E-03
      0.200000          0.314328E-03
      0.205000          0.284482E-03
      0.210000          0.258874E-03
      0.215000          0.237228E-03
      0.220000          0.219300E-03
      0.225000          0.204845E-03
      0.230000          0.193595E-03
      0.235000          0.185248E-03
      0.240000          0.179468E-03
      0.245000          0.175891E-03
      0.250000          0.174143E-03
      0.255000          0.173854E-03
      0.260000          0.174674E-03
      0.265000          0.176287E-03
      0.270000          0.178417E-03
      0.275000          0.180836E-03
      0.280000          0.183358E-03
      0.285000          0.185836E-03
      0.290000          0.188151E-03
      0.295000          0.190204E-03
      0.300000          0.191911E-03
      0.305000          0.193188E-03
      0.310000          0.193957E-03
      0.315000          0.194140E-03
      0.320000          0.193666E-03
      0.325000          0.192474E-03
      0.330000          0.190521E-03
      0.335000          0.187786E-03
      0.340000          0.184278E-03
      0.345000          0.180041E-03
      0.350000          0.175149E-03
      0.355000          0.169704E-03
      0.360000          0.163837E-03
      0.365000          0.157692E-03
      0.370000          0.151421E-03
      0.375000          0.145173E-03
      0.380000          0.139086E-03
      0.385000          0.133279E-03
      0.390000          0.127845E-03
      0.395000          0.122849E-03
      0.400000          0.118327E-03
      0.405000          0.114289E-03
      0.410000          0.110719E-03
      0.415000          0.107584E-03
      0.420000          0.104838E-03
      0.425000          0.102426E-03
      0.430000          0.100293E-03
      0.435000          0.983865E-04
      0.440000          0.966598E-04
      0.445000          0.950756E-04
      0.450000          0.936057E-04
      0.455000          0.922318E-04
      0.460000          0.909442E-04
      0.465000          0.897402E-04
      0.470000          0.886223E-04
      0.475000          0.875958E-04
      0.480000          0.866672E-04
      0.485000          0.858423E-04
      0.490000          0.851250E-04
      0.495000          0.845161E-04
      0.500000          0.840133E-04
