 I_abs(s)[cm^-1]/c[mg/ml]
       0.00000          0.142739E-01
      0.500000E-02      0.142047E-01
      0.100000E-01      0.139993E-01
      0.150000E-01      0.136633E-01
      0.200000E-01      0.132065E-01
      0.250000E-01      0.126415E-01
      0.300000E-01      0.119838E-01
      0.350000E-01      0.112507E-01
      0.400000E-01      0.104608E-01
      0.450000E-01      0.963349E-02
      0.500000E-01      0.878762E-02
      0.550000E-01      0.794129E-02
      0.600000E-01      0.711109E-02
      0.650000E-01      0.631157E-02
      0.700000E-01      0.555496E-02
      0.750000E-01      0.485086E-02
      0.800000E-01      0.420621E-02
      0.850000E-01      0.362529E-02
      0.900000E-01      0.310991E-02
      0.950000E-01      0.265963E-02
      0.100000          0.227211E-02
      0.105000          0.194349E-02
      0.110000          0.166875E-02
      0.115000          0.144215E-02
      0.120000          0.125756E-02
      0.125000          0.110880E-02
      0.130000          0.989914E-03
      0.135000          0.895368E-03
      0.140000          0.820212E-03
      0.145000          0.760155E-03
      0.150000          0.711605E-03
      0.155000          0.671645E-03
      0.160000          0.637991E-03
      0.165000          0.608911E-03
      0.170000          0.583140E-03
      0.175000          0.559785E-03
      0.180000          0.538232E-03
      0.185000          0.518073E-03
      0.190000          0.499032E-03
      0.195000          0.480920E-03
      0.200000          0.463592E-03
      0.205000          0.446930E-03
      0.210000          0.430828E-03
      0.215000          0.415193E-03
      0.220000          0.399940E-03
      0.225000          0.385004E-03
      0.230000          0.370342E-03
      0.235000          0.355934E-03
      0.240000          0.341785E-03
      0.245000          0.327923E-03
      0.250000          0.314394E-03
      0.255000          0.301253E-03
      0.260000          0.288561E-03
      0.265000          0.276374E-03
      0.270000          0.264736E-03
      0.275000          0.253678E-03
      0.280000          0.243213E-03
      0.285000          0.233337E-03
      0.290000          0.224031E-03
      0.295000          0.215264E-03
      0.300000          0.206999E-03
      0.305000          0.199196E-03
      0.310000          0.191819E-03
      0.315000          0.184838E-03
      0.320000          0.178232E-03
      0.325000          0.171990E-03
      0.330000          0.166111E-03
      0.335000          0.160602E-03
      0.340000          0.155473E-03
      0.345000          0.150737E-03
      0.350000          0.146405E-03
      0.355000          0.142482E-03
      0.360000          0.138967E-03
      0.365000          0.135846E-03
      0.370000          0.133100E-03
      0.375000          0.130696E-03
      0.380000          0.128596E-03
      0.385000          0.126758E-03
      0.390000          0.125133E-03
      0.395000          0.123678E-03
      0.400000          0.122348E-03
      0.405000          0.121109E-03
      0.410000          0.119930E-03
      0.415000          0.118791E-03
      0.420000          0.117680E-03
      0.425000          0.116592E-03
      0.430000          0.115529E-03
      0.435000          0.114498E-03
      0.440000          0.113507E-03
      0.445000          0.112565E-03
      0.450000          0.111679E-03
      0.455000          0.110851E-03
      0.460000          0.110077E-03
      0.465000          0.109349E-03
      0.470000          0.108651E-03
      0.475000          0.107963E-03
      0.480000          0.107259E-03
      0.485000          0.106512E-03
      0.490000          0.105691E-03
      0.495000          0.104770E-03
      0.500000          0.103724E-03
