 I_abs(s)[cm^-1]/c[mg/ml]
       0.00000          0.140388E-01
      0.500000E-02      0.139480E-01
      0.100000E-01      0.136796E-01
      0.150000E-01      0.132454E-01
      0.200000E-01      0.126642E-01
      0.250000E-01      0.119604E-01
      0.300000E-01      0.111626E-01
      0.350000E-01      0.103013E-01
      0.400000E-01      0.940742E-02
      0.450000E-01      0.851037E-02
      0.500000E-01      0.763631E-02
      0.550000E-01      0.680706E-02
      0.600000E-01      0.603925E-02
      0.650000E-01      0.534395E-02
      0.700000E-01      0.472678E-02
      0.750000E-01      0.418833E-02
      0.800000E-01      0.372503E-02
      0.850000E-01      0.333007E-02
      0.900000E-01      0.299453E-02
      0.950000E-01      0.270847E-02
      0.100000          0.246191E-02
      0.105000          0.224565E-02
      0.110000          0.205185E-02
      0.115000          0.187436E-02
      0.120000          0.170887E-02
      0.125000          0.155278E-02
      0.130000          0.140496E-02
      0.135000          0.126540E-02
      0.140000          0.113481E-02
      0.145000          0.101423E-02
      0.150000          0.904695E-03
      0.155000          0.806964E-03
      0.160000          0.721361E-03
      0.165000          0.647711E-03
      0.170000          0.585347E-03
      0.175000          0.533202E-03
      0.180000          0.489928E-03
      0.185000          0.454042E-03
      0.190000          0.424065E-03
      0.195000          0.398638E-03
      0.200000          0.376611E-03
      0.205000          0.357079E-03
      0.210000          0.339403E-03
      0.215000          0.323180E-03
      0.220000          0.308205E-03
      0.225000          0.294411E-03
      0.230000          0.281817E-03
      0.235000          0.270473E-03
      0.240000          0.260421E-03
      0.245000          0.251669E-03
      0.250000          0.244182E-03
      0.255000          0.237880E-03
      0.260000          0.232647E-03
      0.265000          0.228347E-03
      0.270000          0.224839E-03
      0.275000          0.221990E-03
      0.280000          0.219684E-03
      0.285000          0.217825E-03
      0.290000          0.216338E-03
      0.295000          0.215167E-03
      0.300000          0.214265E-03
      0.305000          0.213588E-03
      0.310000          0.213095E-03
      0.315000          0.212736E-03
      0.320000          0.212456E-03
      0.325000          0.212192E-03
      0.330000          0.211879E-03
      0.335000          0.211448E-03
      0.340000          0.210834E-03
      0.345000          0.209977E-03
      0.350000          0.208823E-03
      0.355000          0.207330E-03
      0.360000          0.205464E-03
      0.365000          0.203201E-03
      0.370000          0.200528E-03
      0.375000          0.197442E-03
      0.380000          0.193949E-03
      0.385000          0.190068E-03
      0.390000          0.185828E-03
      0.395000          0.181268E-03
      0.400000          0.176439E-03
      0.405000          0.171402E-03
      0.410000          0.166222E-03
      0.415000          0.160973E-03
      0.420000          0.155725E-03
      0.425000          0.150546E-03
      0.430000          0.145494E-03
      0.435000          0.140617E-03
      0.440000          0.135946E-03
      0.445000          0.131502E-03
      0.450000          0.127287E-03
      0.455000          0.123297E-03
      0.460000          0.119517E-03
      0.465000          0.115933E-03
      0.470000          0.112532E-03
      0.475000          0.109308E-03
      0.480000          0.106263E-03
      0.485000          0.103410E-03
      0.490000          0.100771E-03
      0.495000          0.983697E-04
      0.500000          0.962351E-04
