 I_abs(s)[cm^-1]/c[mg/ml]
       0.00000          0.146781E-01
      0.500000E-02      0.146213E-01
      0.100000E-01      0.144524E-01
      0.150000E-01      0.141758E-01
      0.200000E-01      0.137988E-01
      0.250000E-01      0.133307E-01
      0.300000E-01      0.127833E-01
      0.350000E-01      0.121696E-01
      0.400000E-01      0.115035E-01
      0.450000E-01      0.107995E-01
      0.500000E-01      0.100718E-01
      0.550000E-01      0.933395E-02
      0.600000E-01      0.859856E-02
      0.650000E-01      0.787667E-02
      0.700000E-01      0.717772E-02
      0.750000E-01      0.650929E-02
      0.800000E-01      0.587714E-02
      0.850000E-01      0.528521E-02
      0.900000E-01      0.473578E-02
      0.950000E-01      0.422966E-02
      0.100000          0.376642E-02
      0.105000          0.334468E-02
      0.110000          0.296237E-02
      0.115000          0.261698E-02
      0.120000          0.230579E-02
      0.125000          0.202605E-02
      0.130000          0.177514E-02
      0.135000          0.155064E-02
      0.140000          0.135040E-02
      0.145000          0.117254E-02
      0.150000          0.101544E-02
      0.155000          0.877678E-03
      0.160000          0.757965E-03
      0.165000          0.655107E-03
      0.170000          0.567928E-03
      0.175000          0.495226E-03
      0.180000          0.435741E-03
      0.185000          0.388141E-03
      0.190000          0.351022E-03
      0.195000          0.322928E-03
      0.200000          0.302379E-03
      0.205000          0.287915E-03
      0.210000          0.278137E-03
      0.215000          0.271746E-03
      0.220000          0.267585E-03
      0.225000          0.264667E-03
      0.230000          0.262191E-03
      0.235000          0.259552E-03
      0.240000          0.256337E-03
      0.245000          0.252308E-03
      0.250000          0.247383E-03
      0.255000          0.241605E-03
      0.260000          0.235108E-03
      0.265000          0.228091E-03
      0.270000          0.220778E-03
      0.275000          0.213400E-03
      0.280000          0.206167E-03
      0.285000          0.199255E-03
      0.290000          0.192795E-03
      0.295000          0.186870E-03
      0.300000          0.181519E-03
      0.305000          0.176735E-03
      0.310000          0.172482E-03
      0.315000          0.168698E-03
      0.320000          0.165307E-03
      0.325000          0.162231E-03
      0.330000          0.159391E-03
      0.335000          0.156718E-03
      0.340000          0.154155E-03
      0.345000          0.151657E-03
      0.350000          0.149194E-03
      0.355000          0.146746E-03
      0.360000          0.144302E-03
      0.365000          0.141857E-03
      0.370000          0.139410E-03
      0.375000          0.136963E-03
      0.380000          0.134514E-03
      0.385000          0.132063E-03
      0.390000          0.129609E-03
      0.395000          0.127149E-03
      0.400000          0.124680E-03
      0.405000          0.122201E-03
      0.410000          0.119714E-03
      0.415000          0.117222E-03
      0.420000          0.114731E-03
      0.425000          0.112250E-03
      0.430000          0.109791E-03
      0.435000          0.107367E-03
      0.440000          0.104988E-03
      0.445000          0.102667E-03
      0.450000          0.100411E-03
      0.455000          0.982250E-04
      0.460000          0.961114E-04
      0.465000          0.940682E-04
      0.470000          0.920909E-04
      0.475000          0.901732E-04
      0.480000          0.883088E-04
      0.485000          0.864927E-04
      0.490000          0.847224E-04
      0.495000          0.829991E-04
      0.500000          0.813290E-04
