 I_abs(s)[cm^-1]/c[mg/ml]
       0.00000          0.149749E-01
      0.500000E-02      0.149138E-01
      0.100000E-01      0.147321E-01
      0.150000E-01      0.144341E-01
      0.200000E-01      0.140272E-01
      0.250000E-01      0.135211E-01
      0.300000E-01      0.129275E-01
      0.350000E-01      0.122599E-01
      0.400000E-01      0.115330E-01
      0.450000E-01      0.107619E-01
      0.500000E-01      0.996212E-02
      0.550000E-01      0.914846E-02
      0.600000E-01      0.833507E-02
      0.650000E-01      0.753483E-02
      0.700000E-01      0.675908E-02
      0.750000E-01      0.601745E-02
      0.800000E-01      0.531767E-02
      0.850000E-01      0.466561E-02
      0.900000E-01      0.406524E-02
      0.950000E-01      0.351882E-02
      0.100000          0.302703E-02
      0.105000          0.258917E-02
      0.110000          0.220342E-02
      0.115000          0.186707E-02
      0.120000          0.157675E-02
      0.125000          0.132868E-02
      0.130000          0.111882E-02
      0.135000          0.943090E-03
      0.140000          0.797477E-03
      0.145000          0.678140E-03
      0.150000          0.581485E-03
      0.155000          0.504203E-03
      0.160000          0.443294E-03
      0.165000          0.396066E-03
      0.170000          0.360128E-03
      0.175000          0.333367E-03
      0.180000          0.313933E-03
      0.185000          0.300212E-03
      0.190000          0.290810E-03
      0.195000          0.284533E-03
      0.200000          0.280375E-03
      0.205000          0.277506E-03
      0.210000          0.275257E-03
      0.215000          0.273119E-03
      0.220000          0.270722E-03
      0.225000          0.267830E-03
      0.230000          0.264321E-03
      0.235000          0.260175E-03
      0.240000          0.255452E-03
      0.245000          0.250270E-03
      0.250000          0.244789E-03
      0.255000          0.239190E-03
      0.260000          0.233652E-03
      0.265000          0.228344E-03
      0.270000          0.223406E-03
      0.275000          0.218945E-03
      0.280000          0.215029E-03
      0.285000          0.211685E-03
      0.290000          0.208905E-03
      0.295000          0.206647E-03
      0.300000          0.204846E-03
      0.305000          0.203421E-03
      0.310000          0.202282E-03
      0.315000          0.201338E-03
      0.320000          0.200505E-03
      0.325000          0.199710E-03
      0.330000          0.198891E-03
      0.335000          0.198004E-03
      0.340000          0.197018E-03
      0.345000          0.195915E-03
      0.350000          0.194686E-03
      0.355000          0.193331E-03
      0.360000          0.191854E-03
      0.365000          0.190258E-03
      0.370000          0.188546E-03
      0.375000          0.186718E-03
      0.380000          0.184769E-03
      0.385000          0.182692E-03
      0.390000          0.180474E-03
      0.395000          0.178104E-03
      0.400000          0.175567E-03
      0.405000          0.172852E-03
      0.410000          0.169948E-03
      0.415000          0.166852E-03
      0.420000          0.163565E-03
      0.425000          0.160092E-03
      0.430000          0.156448E-03
      0.435000          0.152652E-03
      0.440000          0.148730E-03
      0.445000          0.144710E-03
      0.450000          0.140627E-03
      0.455000          0.136513E-03
      0.460000          0.132406E-03
      0.465000          0.128340E-03
      0.470000          0.124348E-03
      0.475000          0.120461E-03
      0.480000          0.116705E-03
      0.485000          0.113102E-03
      0.490000          0.109670E-03
      0.495000          0.106424E-03
      0.500000          0.103371E-03
