 I_abs(s)[cm^-1]/c[mg/ml]
       0.00000          0.145189E-01
      0.500000E-02      0.144652E-01
      0.100000E-01      0.143052E-01
      0.150000E-01      0.140424E-01
      0.200000E-01      0.136827E-01
      0.250000E-01      0.132339E-01
      0.300000E-01      0.127055E-01
      0.350000E-01      0.121086E-01
      0.400000E-01      0.114551E-01
      0.450000E-01      0.107580E-01
      0.500000E-01      0.100302E-01
      0.550000E-01      0.928473E-02
      0.600000E-01      0.853398E-02
      0.650000E-01      0.778963E-02
      0.700000E-01      0.706227E-02
      0.750000E-01      0.636115E-02
      0.800000E-01      0.569406E-02
      0.850000E-01      0.506722E-02
      0.900000E-01      0.448524E-02
      0.950000E-01      0.395115E-02
      0.100000          0.346649E-02
      0.105000          0.303144E-02
      0.110000          0.264496E-02
      0.115000          0.230501E-02
      0.120000          0.200876E-02
      0.125000          0.175276E-02
      0.130000          0.153319E-02
      0.135000          0.134600E-02
      0.140000          0.118716E-02
      0.145000          0.105271E-02
      0.150000          0.938945E-03
      0.155000          0.842485E-03
      0.160000          0.760321E-03
      0.165000          0.689855E-03
      0.170000          0.628903E-03
      0.175000          0.575684E-03
      0.180000          0.528783E-03
      0.185000          0.487115E-03
      0.190000          0.449870E-03
      0.195000          0.416463E-03
      0.200000          0.386482E-03
      0.205000          0.359638E-03
      0.210000          0.335726E-03
      0.215000          0.314582E-03
      0.220000          0.296065E-03
      0.225000          0.280028E-03
      0.230000          0.266310E-03
      0.235000          0.254728E-03
      0.240000          0.245079E-03
      0.245000          0.237139E-03
      0.250000          0.230672E-03
      0.255000          0.225436E-03
      0.260000          0.221195E-03
      0.265000          0.217718E-03
      0.270000          0.214796E-03
      0.275000          0.212239E-03
      0.280000          0.209885E-03
      0.285000          0.207600E-03
      0.290000          0.205277E-03
      0.295000          0.202836E-03
      0.300000          0.200225E-03
      0.305000          0.197410E-03
      0.310000          0.194380E-03
      0.315000          0.191138E-03
      0.320000          0.187699E-03
      0.325000          0.184088E-03
      0.330000          0.180335E-03
      0.335000          0.176475E-03
      0.340000          0.172543E-03
      0.345000          0.168574E-03
      0.350000          0.164602E-03
      0.355000          0.160659E-03
      0.360000          0.156771E-03
      0.365000          0.152963E-03
      0.370000          0.149255E-03
      0.375000          0.145663E-03
      0.380000          0.142201E-03
      0.385000          0.138877E-03
      0.390000          0.135697E-03
      0.395000          0.132664E-03
      0.400000          0.129780E-03
      0.405000          0.127042E-03
      0.410000          0.124449E-03
      0.415000          0.121996E-03
      0.420000          0.119680E-03
      0.425000          0.117495E-03
      0.430000          0.115436E-03
      0.435000          0.113498E-03
      0.440000          0.111675E-03
      0.445000          0.109960E-03
      0.450000          0.108347E-03
      0.455000          0.106828E-03
      0.460000          0.105397E-03
      0.465000          0.104043E-03
      0.470000          0.102758E-03
      0.475000          0.101531E-03
      0.480000          0.100352E-03
      0.485000          0.992100E-04
      0.490000          0.980936E-04
      0.495000          0.969922E-04
      0.500000          0.958957E-04
