 I_abs(s)[cm^-1]/c[mg/ml]
       0.00000          0.145904E-01
      0.500000E-02      0.145081E-01
      0.100000E-01      0.142641E-01
      0.150000E-01      0.138674E-01
      0.200000E-01      0.133323E-01
      0.250000E-01      0.126776E-01
      0.300000E-01      0.119256E-01
      0.350000E-01      0.111008E-01
      0.400000E-01      0.102288E-01
      0.450000E-01      0.933449E-02
      0.500000E-01      0.844154E-02
      0.550000E-01      0.757089E-02
      0.600000E-01      0.674016E-02
      0.650000E-01      0.596311E-02
      0.700000E-01      0.524942E-02
      0.750000E-01      0.460475E-02
      0.800000E-01      0.403104E-02
      0.850000E-01      0.352697E-02
      0.900000E-01      0.308862E-02
      0.950000E-01      0.271018E-02
      0.100000          0.238467E-02
      0.105000          0.210460E-02
      0.110000          0.186261E-02
      0.115000          0.165190E-02
      0.120000          0.146659E-02
      0.125000          0.130190E-02
      0.130000          0.115418E-02
      0.135000          0.102090E-02
      0.140000          0.900447E-03
      0.145000          0.791941E-03
      0.150000          0.694999E-03
      0.155000          0.609500E-03
      0.160000          0.535380E-03
      0.165000          0.472476E-03
      0.170000          0.420411E-03
      0.175000          0.378547E-03
      0.180000          0.345983E-03
      0.185000          0.321589E-03
      0.190000          0.304086E-03
      0.195000          0.292121E-03
      0.200000          0.284367E-03
      0.205000          0.279595E-03
      0.210000          0.276740E-03
      0.215000          0.274944E-03
      0.220000          0.273572E-03
      0.225000          0.272204E-03
      0.230000          0.270611E-03
      0.235000          0.268719E-03
      0.240000          0.266558E-03
      0.245000          0.264218E-03
      0.250000          0.261803E-03
      0.255000          0.259398E-03
      0.260000          0.257045E-03
      0.265000          0.254728E-03
      0.270000          0.252379E-03
      0.275000          0.249878E-03
      0.280000          0.247078E-03
      0.285000          0.243820E-03
      0.290000          0.239960E-03
      0.295000          0.235382E-03
      0.300000          0.230021E-03
      0.305000          0.223868E-03
      0.310000          0.216978E-03
      0.315000          0.209463E-03
      0.320000          0.201487E-03
      0.325000          0.193254E-03
      0.330000          0.184987E-03
      0.335000          0.176918E-03
      0.340000          0.169262E-03
      0.345000          0.162211E-03
      0.350000          0.155915E-03
      0.355000          0.150475E-03
      0.360000          0.145941E-03
      0.365000          0.142310E-03
      0.370000          0.139530E-03
      0.375000          0.137509E-03
      0.380000          0.136124E-03
      0.385000          0.135233E-03
      0.390000          0.134684E-03
      0.395000          0.134331E-03
      0.400000          0.134041E-03
      0.405000          0.133702E-03
      0.410000          0.133229E-03
      0.415000          0.132566E-03
      0.420000          0.131685E-03
      0.425000          0.130585E-03
      0.430000          0.129288E-03
      0.435000          0.127832E-03
      0.440000          0.126265E-03
      0.445000          0.124639E-03
      0.450000          0.123007E-03
      0.455000          0.121413E-03
      0.460000          0.119893E-03
      0.465000          0.118472E-03
      0.470000          0.117163E-03
      0.475000          0.115967E-03
      0.480000          0.114876E-03
      0.485000          0.113872E-03
      0.490000          0.112934E-03
      0.495000          0.112036E-03
      0.500000          0.111154E-03
