 I_abs(s)[cm^-1]/c[mg/ml]
       0.00000          0.138133E-01
      0.500000E-02      0.137275E-01
      0.100000E-01      0.134740E-01
      0.150000E-01      0.130641E-01
      0.200000E-01      0.125160E-01
      0.250000E-01      0.118531E-01
      0.300000E-01      0.111023E-01
      0.350000E-01      0.102926E-01
      0.400000E-01      0.945266E-02
      0.450000E-01      0.860943E-02
      0.500000E-01      0.778651E-02
      0.550000E-01      0.700312E-02
      0.600000E-01      0.627352E-02
      0.650000E-01      0.560680E-02
      0.700000E-01      0.500717E-02
      0.750000E-01      0.447457E-02
      0.800000E-01      0.400552E-02
      0.850000E-01      0.359415E-02
      0.900000E-01      0.323318E-02
      0.950000E-01      0.291489E-02
      0.100000          0.263189E-02
      0.105000          0.237768E-02
      0.110000          0.214700E-02
      0.115000          0.193595E-02
      0.120000          0.174192E-02
      0.125000          0.156342E-02
      0.130000          0.139975E-02
      0.135000          0.125072E-02
      0.140000          0.111633E-02
      0.145000          0.996570E-03
      0.150000          0.891213E-03
      0.155000          0.799752E-03
      0.160000          0.721381E-03
      0.165000          0.655036E-03
      0.170000          0.599479E-03
      0.175000          0.553389E-03
      0.180000          0.515450E-03
      0.185000          0.484427E-03
      0.190000          0.459206E-03
      0.195000          0.438818E-03
      0.200000          0.422428E-03
      0.205000          0.409317E-03
      0.210000          0.398854E-03
      0.215000          0.390466E-03
      0.220000          0.383619E-03
      0.225000          0.377808E-03
      0.230000          0.372561E-03
      0.235000          0.367450E-03
      0.240000          0.362108E-03
      0.245000          0.356251E-03
      0.250000          0.349688E-03
      0.255000          0.342335E-03
      0.260000          0.334208E-03
      0.265000          0.325415E-03
      0.270000          0.316132E-03
      0.275000          0.306578E-03
      0.280000          0.296989E-03
      0.285000          0.287587E-03
      0.290000          0.278561E-03
      0.295000          0.270044E-03
      0.300000          0.262114E-03
      0.305000          0.254784E-03
      0.310000          0.248016E-03
      0.315000          0.241728E-03
      0.320000          0.235808E-03
      0.325000          0.230136E-03
      0.330000          0.224589E-03
      0.335000          0.219062E-03
      0.340000          0.213471E-03
      0.345000          0.207757E-03
      0.350000          0.201892E-03
      0.355000          0.195871E-03
      0.360000          0.189712E-03
      0.365000          0.183447E-03
      0.370000          0.177119E-03
      0.375000          0.170774E-03
      0.380000          0.164455E-03
      0.385000          0.158203E-03
      0.390000          0.152050E-03
      0.395000          0.146022E-03
      0.400000          0.140136E-03
      0.405000          0.134407E-03
      0.410000          0.128845E-03
      0.415000          0.123461E-03
      0.420000          0.118269E-03
      0.425000          0.113288E-03
      0.430000          0.108542E-03
      0.435000          0.104065E-03
      0.440000          0.998947E-04
      0.445000          0.960737E-04
      0.450000          0.926468E-04
      0.455000          0.896568E-04
      0.460000          0.871398E-04
      0.465000          0.851214E-04
      0.470000          0.836123E-04
      0.475000          0.826053E-04
      0.480000          0.820725E-04
      0.485000          0.819656E-04
      0.490000          0.822164E-04
      0.495000          0.827402E-04
      0.500000          0.834400E-04
