 I_abs(s)[cm^-1]/c[mg/ml]
       0.00000          0.144238E-01
      0.500000E-02      0.143463E-01
      0.100000E-01      0.141164E-01
      0.150000E-01      0.137417E-01
      0.200000E-01      0.132344E-01
      0.250000E-01      0.126108E-01
      0.300000E-01      0.118904E-01
      0.350000E-01      0.110948E-01
      0.400000E-01      0.102469E-01
      0.450000E-01      0.936977E-02
      0.500000E-01      0.848565E-02
      0.550000E-01      0.761498E-02
      0.600000E-01      0.677572E-02
      0.650000E-01      0.598277E-02
      0.700000E-01      0.524761E-02
      0.750000E-01      0.457817E-02
      0.800000E-01      0.397887E-02
      0.850000E-01      0.345091E-02
      0.900000E-01      0.299259E-02
      0.950000E-01      0.259991E-02
      0.100000          0.226707E-02
      0.105000          0.198712E-02
      0.110000          0.175251E-02
      0.115000          0.155564E-02
      0.120000          0.138930E-02
      0.125000          0.124699E-02
      0.130000          0.112321E-02
      0.135000          0.101353E-02
      0.140000          0.914638E-03
      0.145000          0.824280E-03
      0.150000          0.741109E-03
      0.155000          0.664513E-03
      0.160000          0.594412E-03
      0.165000          0.531050E-03
      0.170000          0.474800E-03
      0.175000          0.426006E-03
      0.180000          0.384858E-03
      0.185000          0.351308E-03
      0.190000          0.325036E-03
      0.195000          0.305452E-03
      0.200000          0.291728E-03
      0.205000          0.282857E-03
      0.210000          0.277728E-03
      0.215000          0.275203E-03
      0.220000          0.274192E-03
      0.225000          0.273717E-03
      0.230000          0.272964E-03
      0.235000          0.271316E-03
      0.240000          0.268365E-03
      0.245000          0.263910E-03
      0.250000          0.257942E-03
      0.255000          0.250612E-03
      0.260000          0.242197E-03
      0.265000          0.233057E-03
      0.270000          0.223597E-03
      0.275000          0.214231E-03
      0.280000          0.205348E-03
      0.285000          0.197288E-03
      0.290000          0.190323E-03
      0.295000          0.184650E-03
      0.300000          0.180383E-03
      0.305000          0.177557E-03
      0.310000          0.176135E-03
      0.315000          0.176015E-03
      0.320000          0.177046E-03
      0.325000          0.179035E-03
      0.330000          0.181764E-03
      0.335000          0.185002E-03
      0.340000          0.188510E-03
      0.345000          0.192061E-03
      0.350000          0.195438E-03
      0.355000          0.198449E-03
      0.360000          0.200927E-03
      0.365000          0.202738E-03
      0.370000          0.203780E-03
      0.375000          0.203987E-03
      0.380000          0.203329E-03
      0.385000          0.201807E-03
      0.390000          0.199456E-03
      0.395000          0.196333E-03
      0.400000          0.192523E-03
      0.405000          0.188123E-03
      0.410000          0.183242E-03
      0.415000          0.177992E-03
      0.420000          0.172488E-03
      0.425000          0.166833E-03
      0.430000          0.161122E-03
      0.435000          0.155438E-03
      0.440000          0.149846E-03
      0.445000          0.144397E-03
      0.450000          0.139124E-03
      0.455000          0.134050E-03
      0.460000          0.129186E-03
      0.465000          0.124537E-03
      0.470000          0.120100E-03
      0.475000          0.115876E-03
      0.480000          0.111863E-03
      0.485000          0.108064E-03
      0.490000          0.104485E-03
      0.495000          0.101137E-03
      0.500000          0.980316E-04
