 I_abs(s)[cm^-1]/c[mg/ml]
       0.00000          0.141013E-01
      0.500000E-02      0.140272E-01
      0.100000E-01      0.138075E-01
      0.150000E-01      0.134502E-01
      0.200000E-01      0.129676E-01
      0.250000E-01      0.123764E-01
      0.300000E-01      0.116960E-01
      0.350000E-01      0.109481E-01
      0.400000E-01      0.101550E-01
      0.450000E-01      0.933895E-02
      0.500000E-01      0.852079E-02
      0.550000E-01      0.771919E-02
      0.600000E-01      0.695000E-02
      0.650000E-01      0.622574E-02
      0.700000E-01      0.555545E-02
      0.750000E-01      0.494471E-02
      0.800000E-01      0.439584E-02
      0.850000E-01      0.390834E-02
      0.900000E-01      0.347942E-02
      0.950000E-01      0.310457E-02
      0.100000          0.277815E-02
      0.105000          0.249400E-02
      0.110000          0.224590E-02
      0.115000          0.202800E-02
      0.120000          0.183507E-02
      0.125000          0.166272E-02
      0.130000          0.150742E-02
      0.135000          0.136650E-02
      0.140000          0.123804E-02
      0.145000          0.112075E-02
      0.150000          0.101376E-02
      0.155000          0.916527E-03
      0.160000          0.828618E-03
      0.165000          0.749648E-03
      0.170000          0.679178E-03
      0.175000          0.616678E-03
      0.180000          0.561521E-03
      0.185000          0.512997E-03
      0.190000          0.470354E-03
      0.195000          0.432833E-03
      0.200000          0.399721E-03
      0.205000          0.370382E-03
      0.210000          0.344284E-03
      0.215000          0.321009E-03
      0.220000          0.300253E-03
      0.225000          0.281809E-03
      0.230000          0.265548E-03
      0.235000          0.251389E-03
      0.240000          0.239272E-03
      0.245000          0.229133E-03
      0.250000          0.220883E-03
      0.255000          0.214401E-03
      0.260000          0.209519E-03
      0.265000          0.206032E-03
      0.270000          0.203702E-03
      0.275000          0.202273E-03
      0.280000          0.201479E-03
      0.285000          0.201064E-03
      0.290000          0.200791E-03
      0.295000          0.200458E-03
      0.300000          0.199899E-03
      0.305000          0.198993E-03
      0.310000          0.197663E-03
      0.315000          0.195874E-03
      0.320000          0.193629E-03
      0.325000          0.190963E-03
      0.330000          0.187938E-03
      0.335000          0.184631E-03
      0.340000          0.181130E-03
      0.345000          0.177527E-03
      0.350000          0.173911E-03
      0.355000          0.170360E-03
      0.360000          0.166941E-03
      0.365000          0.163703E-03
      0.370000          0.160676E-03
      0.375000          0.157870E-03
      0.380000          0.155278E-03
      0.385000          0.152872E-03
      0.390000          0.150610E-03
      0.395000          0.148441E-03
      0.400000          0.146306E-03
      0.405000          0.144146E-03
      0.410000          0.141905E-03
      0.415000          0.139537E-03
      0.420000          0.137009E-03
      0.425000          0.134302E-03
      0.430000          0.131414E-03
      0.435000          0.128360E-03
      0.440000          0.125168E-03
      0.445000          0.121879E-03
      0.450000          0.118540E-03
      0.455000          0.115201E-03
      0.460000          0.111912E-03
      0.465000          0.108715E-03
      0.470000          0.105644E-03
      0.475000          0.102719E-03
      0.480000          0.999518E-04
      0.485000          0.973397E-04
      0.490000          0.948715E-04
      0.495000          0.925289E-04
      0.500000          0.902908E-04
