 I_abs(s)[cm^-1]/c[mg/ml]
       0.00000          0.138366E-01
      0.500000E-02      0.137501E-01
      0.100000E-01      0.134946E-01
      0.150000E-01      0.130813E-01
      0.200000E-01      0.125281E-01
      0.250000E-01      0.118580E-01
      0.300000E-01      0.110980E-01
      0.350000E-01      0.102769E-01
      0.400000E-01      0.942349E-02
      0.450000E-01      0.856510E-02
      0.500000E-01      0.772584E-02
      0.550000E-01      0.692565E-02
      0.600000E-01      0.617958E-02
      0.650000E-01      0.549757E-02
      0.700000E-01      0.488462E-02
      0.750000E-01      0.434131E-02
      0.800000E-01      0.386463E-02
      0.850000E-01      0.344892E-02
      0.900000E-01      0.308689E-02
      0.950000E-01      0.277058E-02
      0.100000          0.249216E-02
      0.105000          0.224458E-02
      0.110000          0.202200E-02
      0.115000          0.181995E-02
      0.120000          0.163533E-02
      0.125000          0.146624E-02
      0.130000          0.131176E-02
      0.135000          0.117155E-02
      0.140000          0.104559E-02
      0.145000          0.933878E-03
      0.150000          0.836245E-03
      0.155000          0.752198E-03
      0.160000          0.680893E-03
      0.165000          0.621158E-03
      0.170000          0.571572E-03
      0.175000          0.530572E-03
      0.180000          0.496569E-03
      0.185000          0.468057E-03
      0.190000          0.443693E-03
      0.195000          0.422352E-03
      0.200000          0.403153E-03
      0.205000          0.385447E-03
      0.210000          0.368797E-03
      0.215000          0.352940E-03
      0.220000          0.337746E-03
      0.225000          0.323178E-03
      0.230000          0.309262E-03
      0.235000          0.296061E-03
      0.240000          0.283655E-03
      0.245000          0.272136E-03
      0.250000          0.261592E-03
      0.255000          0.252102E-03
      0.260000          0.243729E-03
      0.265000          0.236505E-03
      0.270000          0.230430E-03
      0.275000          0.225457E-03
      0.280000          0.221491E-03
      0.285000          0.218389E-03
      0.290000          0.215971E-03
      0.295000          0.214028E-03
      0.300000          0.212341E-03
      0.305000          0.210703E-03
      0.310000          0.208936E-03
      0.315000          0.206908E-03
      0.320000          0.204542E-03
      0.325000          0.201819E-03
      0.330000          0.198775E-03
      0.335000          0.195483E-03
      0.340000          0.192045E-03
      0.345000          0.188563E-03
      0.350000          0.185128E-03
      0.355000          0.181803E-03
      0.360000          0.178612E-03
      0.365000          0.175541E-03
      0.370000          0.172542E-03
      0.375000          0.169545E-03
      0.380000          0.166470E-03
      0.385000          0.163245E-03
      0.390000          0.159821E-03
      0.395000          0.156182E-03
      0.400000          0.152347E-03
      0.405000          0.148374E-03
      0.410000          0.144350E-03
      0.415000          0.140377E-03
      0.420000          0.136561E-03
      0.425000          0.132998E-03
      0.430000          0.129756E-03
      0.435000          0.126869E-03
      0.440000          0.124332E-03
      0.445000          0.122105E-03
      0.450000          0.120115E-03
      0.455000          0.118269E-03
      0.460000          0.116470E-03
      0.465000          0.114625E-03
      0.470000          0.112661E-03
      0.475000          0.110532E-03
      0.480000          0.108226E-03
      0.485000          0.105761E-03
      0.490000          0.103184E-03
      0.495000          0.100559E-03
      0.500000          0.979640E-04
