 I_abs(s)[cm^-1]/c[mg/ml]
       0.00000          0.136281E-01
      0.500000E-02      0.135393E-01
      0.100000E-01      0.132766E-01
      0.150000E-01      0.128518E-01
      0.200000E-01      0.122836E-01
      0.250000E-01      0.115962E-01
      0.300000E-01      0.108177E-01
      0.350000E-01      0.997840E-02
      0.400000E-01      0.910883E-02
      0.450000E-01      0.823778E-02
      0.500000E-01      0.739088E-02
      0.550000E-01      0.658933E-02
      0.600000E-01      0.584910E-02
      0.650000E-01      0.518058E-02
      0.700000E-01      0.458876E-02
      0.750000E-01      0.407366E-02
      0.800000E-01      0.363119E-02
      0.850000E-01      0.325422E-02
      0.900000E-01      0.293363E-02
      0.950000E-01      0.265950E-02
      0.100000          0.242206E-02
      0.105000          0.221249E-02
      0.110000          0.202350E-02
      0.115000          0.184962E-02
      0.120000          0.168727E-02
      0.125000          0.153456E-02
      0.130000          0.139100E-02
      0.135000          0.125708E-02
      0.140000          0.113381E-02
      0.145000          0.102231E-02
      0.150000          0.923431E-03
      0.155000          0.837531E-03
      0.160000          0.764351E-03
      0.165000          0.703003E-03
      0.170000          0.652058E-03
      0.175000          0.609719E-03
      0.180000          0.574022E-03
      0.185000          0.543049E-03
      0.190000          0.515113E-03
      0.195000          0.488903E-03
      0.200000          0.463557E-03
      0.205000          0.438684E-03
      0.210000          0.414312E-03
      0.215000          0.390796E-03
      0.220000          0.368700E-03
      0.225000          0.348655E-03
      0.230000          0.331234E-03
      0.235000          0.316853E-03
      0.240000          0.305695E-03
      0.245000          0.297683E-03
      0.250000          0.292487E-03
      0.255000          0.289565E-03
      0.260000          0.288228E-03
      0.265000          0.287722E-03
      0.270000          0.287305E-03
      0.275000          0.286324E-03
      0.280000          0.284269E-03
      0.285000          0.280809E-03
      0.290000          0.275804E-03
      0.295000          0.269296E-03
      0.300000          0.261484E-03
      0.305000          0.252678E-03
      0.310000          0.243257E-03
      0.315000          0.233623E-03
      0.320000          0.224153E-03
      0.325000          0.215172E-03
      0.330000          0.206924E-03
      0.335000          0.199565E-03
      0.340000          0.193159E-03
      0.345000          0.187689E-03
      0.350000          0.183069E-03
      0.355000          0.179161E-03
      0.360000          0.175800E-03
      0.365000          0.172805E-03
      0.370000          0.170001E-03
      0.375000          0.167229E-03
      0.380000          0.164354E-03
      0.385000          0.161274E-03
      0.390000          0.157920E-03
      0.395000          0.154258E-03
      0.400000          0.150286E-03
      0.405000          0.146030E-03
      0.410000          0.141542E-03
      0.415000          0.136893E-03
      0.420000          0.132170E-03
      0.425000          0.127467E-03
      0.430000          0.122880E-03
      0.435000          0.118501E-03
      0.440000          0.114411E-03
      0.445000          0.110677E-03
      0.450000          0.107345E-03
      0.455000          0.104443E-03
      0.460000          0.101972E-03
      0.465000          0.999153E-04
      0.470000          0.982362E-04
      0.475000          0.968848E-04
      0.480000          0.958024E-04
      0.485000          0.949274E-04
      0.490000          0.942007E-04
      0.495000          0.935703E-04
      0.500000          0.929948E-04
