 I_abs(s)[cm^-1]/c[mg/ml]
       0.00000          0.144872E-01
      0.500000E-02      0.144265E-01
      0.100000E-01      0.142462E-01
      0.150000E-01      0.139511E-01
      0.200000E-01      0.135492E-01
      0.250000E-01      0.130511E-01
      0.300000E-01      0.124698E-01
      0.350000E-01      0.118195E-01
      0.400000E-01      0.111159E-01
      0.450000E-01      0.103750E-01
      0.500000E-01      0.961238E-02
      0.550000E-01      0.884319E-02
      0.600000E-01      0.808118E-02
      0.650000E-01      0.733857E-02
      0.700000E-01      0.662567E-02
      0.750000E-01      0.595075E-02
      0.800000E-01      0.532001E-02
      0.850000E-01      0.473759E-02
      0.900000E-01      0.420573E-02
      0.950000E-01      0.372496E-02
      0.100000          0.329441E-02
      0.105000          0.291199E-02
      0.110000          0.257480E-02
      0.115000          0.227930E-02
      0.120000          0.202161E-02
      0.125000          0.179775E-02
      0.130000          0.160377E-02
      0.135000          0.143590E-02
      0.140000          0.129063E-02
      0.145000          0.116481E-02
      0.150000          0.105560E-02
      0.155000          0.960524E-03
      0.160000          0.877437E-03
      0.165000          0.804487E-03
      0.170000          0.740094E-03
      0.175000          0.682914E-03
      0.180000          0.631809E-03
      0.185000          0.585827E-03
      0.190000          0.544173E-03
      0.195000          0.506200E-03
      0.200000          0.471388E-03
      0.205000          0.439331E-03
      0.210000          0.409726E-03
      0.215000          0.382354E-03
      0.220000          0.357064E-03
      0.225000          0.333759E-03
      0.230000          0.312375E-03
      0.235000          0.292862E-03
      0.240000          0.275176E-03
      0.245000          0.259257E-03
      0.250000          0.245028E-03
      0.255000          0.232387E-03
      0.260000          0.221205E-03
      0.265000          0.211331E-03
      0.270000          0.202598E-03
      0.275000          0.194834E-03
      0.280000          0.187866E-03
      0.285000          0.181534E-03
      0.290000          0.175697E-03
      0.295000          0.170239E-03
      0.300000          0.165073E-03
      0.305000          0.160142E-03
      0.310000          0.155416E-03
      0.315000          0.150888E-03
      0.320000          0.146569E-03
      0.325000          0.142483E-03
      0.330000          0.138655E-03
      0.335000          0.135114E-03
      0.340000          0.131881E-03
      0.345000          0.128968E-03
      0.350000          0.126381E-03
      0.355000          0.124113E-03
      0.360000          0.122149E-03
      0.365000          0.120470E-03
      0.370000          0.119051E-03
      0.375000          0.117868E-03
      0.380000          0.116897E-03
      0.385000          0.116119E-03
      0.390000          0.115516E-03
      0.395000          0.115074E-03
      0.400000          0.114783E-03
      0.405000          0.114633E-03
      0.410000          0.114614E-03
      0.415000          0.114714E-03
      0.420000          0.114916E-03
      0.425000          0.115202E-03
      0.430000          0.115548E-03
      0.435000          0.115924E-03
      0.440000          0.116300E-03
      0.445000          0.116644E-03
      0.450000          0.116922E-03
      0.455000          0.117107E-03
      0.460000          0.117171E-03
      0.465000          0.117096E-03
      0.470000          0.116866E-03
      0.475000          0.116477E-03
      0.480000          0.115928E-03
      0.485000          0.115226E-03
      0.490000          0.114382E-03
      0.495000          0.113411E-03
      0.500000          0.112332E-03
