 I_abs(s)[cm^-1]/c[mg/ml]
       0.00000          0.144396E-01
      0.500000E-02      0.143495E-01
      0.100000E-01      0.140828E-01
      0.150000E-01      0.136502E-01
      0.200000E-01      0.130689E-01
      0.250000E-01      0.123611E-01
      0.300000E-01      0.115535E-01
      0.350000E-01      0.106748E-01
      0.400000E-01      0.975484E-02
      0.450000E-01      0.882239E-02
      0.500000E-01      0.790412E-02
      0.550000E-01      0.702319E-02
      0.600000E-01      0.619835E-02
      0.650000E-01      0.544347E-02
      0.700000E-01      0.476726E-02
      0.750000E-01      0.417353E-02
      0.800000E-01      0.366160E-02
      0.850000E-01      0.322708E-02
      0.900000E-01      0.286268E-02
      0.950000E-01      0.255925E-02
      0.100000          0.230666E-02
      0.105000          0.209471E-02
      0.110000          0.191388E-02
      0.115000          0.175581E-02
      0.120000          0.161376E-02
      0.125000          0.148265E-02
      0.130000          0.135914E-02
      0.135000          0.124138E-02
      0.140000          0.112876E-02
      0.145000          0.102157E-02
      0.150000          0.920634E-03
      0.155000          0.826999E-03
      0.160000          0.741631E-03
      0.165000          0.665223E-03
      0.170000          0.598079E-03
      0.175000          0.540069E-03
      0.180000          0.490665E-03
      0.185000          0.449022E-03
      0.190000          0.414095E-03
      0.195000          0.384770E-03
      0.200000          0.359976E-03
      0.205000          0.338784E-03
      0.210000          0.320466E-03
      0.215000          0.304520E-03
      0.220000          0.290656E-03
      0.225000          0.278757E-03
      0.230000          0.268817E-03
      0.235000          0.260875E-03
      0.240000          0.254947E-03
      0.245000          0.250977E-03
      0.250000          0.248802E-03
      0.255000          0.248139E-03
      0.260000          0.248601E-03
      0.265000          0.249726E-03
      0.270000          0.251025E-03
      0.275000          0.252027E-03
      0.280000          0.252337E-03
      0.285000          0.251670E-03
      0.290000          0.249887E-03
      0.295000          0.246996E-03
      0.300000          0.243152E-03
      0.305000          0.238629E-03
      0.310000          0.233783E-03
      0.315000          0.229005E-03
      0.320000          0.224670E-03
      0.325000          0.221097E-03
      0.330000          0.218506E-03
      0.335000          0.216995E-03
      0.340000          0.216530E-03
      0.345000          0.216951E-03
      0.350000          0.217989E-03
      0.355000          0.219298E-03
      0.360000          0.220492E-03
      0.365000          0.221186E-03
      0.370000          0.221035E-03
      0.375000          0.219767E-03
      0.380000          0.217209E-03
      0.385000          0.213299E-03
      0.390000          0.208088E-03
      0.395000          0.201733E-03
      0.400000          0.194476E-03
      0.405000          0.186617E-03
      0.410000          0.178486E-03
      0.415000          0.170410E-03
      0.420000          0.162685E-03
      0.425000          0.155555E-03
      0.430000          0.149189E-03
      0.435000          0.143678E-03
      0.440000          0.139031E-03
      0.445000          0.135183E-03
      0.450000          0.132009E-03
      0.455000          0.129341E-03
      0.460000          0.126988E-03
      0.465000          0.124759E-03
      0.470000          0.122479E-03
      0.475000          0.120005E-03
      0.480000          0.117240E-03
      0.485000          0.114135E-03
      0.490000          0.110693E-03
      0.495000          0.106963E-03
      0.500000          0.103030E-03
