 I_abs(s)[cm^-1]/c[mg/ml]
       0.00000          0.147100E-01
      0.500000E-02      0.146264E-01
      0.100000E-01      0.143784E-01
      0.150000E-01      0.139750E-01
      0.200000E-01      0.134305E-01
      0.250000E-01      0.127636E-01
      0.300000E-01      0.119967E-01
      0.350000E-01      0.111542E-01
      0.400000E-01      0.102620E-01
      0.450000E-01      0.934509E-02
      0.500000E-01      0.842751E-02
      0.550000E-01      0.753063E-02
      0.600000E-01      0.667266E-02
      0.650000E-01      0.586805E-02
      0.700000E-01      0.512730E-02
      0.750000E-01      0.445694E-02
      0.800000E-01      0.385983E-02
      0.850000E-01      0.333558E-02
      0.900000E-01      0.288112E-02
      0.950000E-01      0.249140E-02
      0.100000          0.216002E-02
      0.105000          0.187991E-02
      0.110000          0.164387E-02
      0.115000          0.144500E-02
      0.120000          0.127709E-02
      0.125000          0.113477E-02
      0.130000          0.101361E-02
      0.135000          0.910111E-03
      0.140000          0.821574E-03
      0.145000          0.745989E-03
      0.150000          0.681846E-03
      0.155000          0.627962E-03
      0.160000          0.583332E-03
      0.165000          0.547006E-03
      0.170000          0.518013E-03
      0.175000          0.495312E-03
      0.180000          0.477798E-03
      0.185000          0.464319E-03
      0.190000          0.453725E-03
      0.195000          0.444920E-03
      0.200000          0.436916E-03
      0.205000          0.428881E-03
      0.210000          0.420169E-03
      0.215000          0.410337E-03
      0.220000          0.399147E-03
      0.225000          0.386548E-03
      0.230000          0.372654E-03
      0.235000          0.357703E-03
      0.240000          0.342023E-03
      0.245000          0.325988E-03
      0.250000          0.309987E-03
      0.255000          0.294390E-03
      0.260000          0.279523E-03
      0.265000          0.265652E-03
      0.270000          0.252974E-03
      0.275000          0.241610E-03
      0.280000          0.231612E-03
      0.285000          0.222963E-03
      0.290000          0.215591E-03
      0.295000          0.209378E-03
      0.300000          0.204174E-03
      0.305000          0.199811E-03
      0.310000          0.196113E-03
      0.315000          0.192912E-03
      0.320000          0.190055E-03
      0.325000          0.187416E-03
      0.330000          0.184900E-03
      0.335000          0.182446E-03
      0.340000          0.180028E-03
      0.345000          0.177651E-03
      0.350000          0.175345E-03
      0.355000          0.173158E-03
      0.360000          0.171147E-03
      0.365000          0.169366E-03
      0.370000          0.167858E-03
      0.375000          0.166647E-03
      0.380000          0.165733E-03
      0.385000          0.165085E-03
      0.390000          0.164648E-03
      0.395000          0.164340E-03
      0.400000          0.164060E-03
      0.405000          0.163699E-03
      0.410000          0.163144E-03
      0.415000          0.162293E-03
      0.420000          0.161059E-03
      0.425000          0.159382E-03
      0.430000          0.157230E-03
      0.435000          0.154604E-03
      0.440000          0.151537E-03
      0.445000          0.148088E-03
      0.450000          0.144340E-03
      0.455000          0.140390E-03
      0.460000          0.136341E-03
      0.465000          0.132295E-03
      0.470000          0.128342E-03
      0.475000          0.124556E-03
      0.480000          0.120990E-03
      0.485000          0.117674E-03
      0.490000          0.114612E-03
      0.495000          0.111788E-03
      0.500000          0.109169E-03
