 I_abs(s)[cm^-1]/c[mg/ml]
       0.00000          0.146542E-01
      0.500000E-02      0.145724E-01
      0.100000E-01      0.143298E-01
      0.150000E-01      0.139347E-01
      0.200000E-01      0.133999E-01
      0.250000E-01      0.127429E-01
      0.300000E-01      0.119844E-01
      0.350000E-01      0.111473E-01
      0.400000E-01      0.102558E-01
      0.450000E-01      0.933412E-02
      0.500000E-01      0.840552E-02
      0.550000E-01      0.749128E-02
      0.600000E-01      0.661005E-02
      0.650000E-01      0.577721E-02
      0.700000E-01      0.500466E-02
      0.750000E-01      0.430064E-02
      0.800000E-01      0.366991E-02
      0.850000E-01      0.311403E-02
      0.900000E-01      0.263179E-02
      0.950000E-01      0.221973E-02
      0.100000          0.187273E-02
      0.105000          0.158454E-02
      0.110000          0.134835E-02
      0.115000          0.115720E-02
      0.120000          0.100435E-02
      0.125000          0.883561E-03
      0.130000          0.789254E-03
      0.135000          0.716562E-03
      0.140000          0.661343E-03
      0.145000          0.620124E-03
      0.150000          0.590001E-03
      0.155000          0.568542E-03
      0.160000          0.553676E-03
      0.165000          0.543610E-03
      0.170000          0.536763E-03
      0.175000          0.531726E-03
      0.180000          0.527254E-03
      0.185000          0.522270E-03
      0.190000          0.515886E-03
      0.195000          0.507430E-03
      0.200000          0.496468E-03
      0.205000          0.482817E-03
      0.210000          0.466541E-03
      0.215000          0.447936E-03
      0.220000          0.427491E-03
      0.225000          0.405842E-03
      0.230000          0.383713E-03
      0.235000          0.361849E-03
      0.240000          0.340964E-03
      0.245000          0.321677E-03
      0.250000          0.304478E-03
      0.255000          0.289695E-03
      0.260000          0.277485E-03
      0.265000          0.267837E-03
      0.270000          0.260589E-03
      0.275000          0.255457E-03
      0.280000          0.252072E-03
      0.285000          0.250015E-03
      0.290000          0.248859E-03
      0.295000          0.248200E-03
      0.300000          0.247682E-03
      0.305000          0.247019E-03
      0.310000          0.245998E-03
      0.315000          0.244486E-03
      0.320000          0.242419E-03
      0.325000          0.239789E-03
      0.330000          0.236631E-03
      0.335000          0.233005E-03
      0.340000          0.228981E-03
      0.345000          0.224626E-03
      0.350000          0.219994E-03
      0.355000          0.215123E-03
      0.360000          0.210034E-03
      0.365000          0.204734E-03
      0.370000          0.199221E-03
      0.375000          0.193495E-03
      0.380000          0.187562E-03
      0.385000          0.181440E-03
      0.390000          0.175171E-03
      0.395000          0.168812E-03
      0.400000          0.162446E-03
      0.405000          0.156168E-03
      0.410000          0.150087E-03
      0.415000          0.144312E-03
      0.420000          0.138947E-03
      0.425000          0.134079E-03
      0.430000          0.129775E-03
      0.435000          0.126071E-03
      0.440000          0.122969E-03
      0.445000          0.120442E-03
      0.450000          0.118427E-03
      0.455000          0.116838E-03
      0.460000          0.115568E-03
      0.465000          0.114499E-03
      0.470000          0.113510E-03
      0.475000          0.112488E-03
      0.480000          0.111335E-03
      0.485000          0.109973E-03
      0.490000          0.108353E-03
      0.495000          0.106450E-03
      0.500000          0.104271E-03
