 I_abs(s)[cm^-1]/c[mg/ml]
       0.00000          0.144238E-01
      0.500000E-02      0.143503E-01
      0.100000E-01      0.141319E-01
      0.150000E-01      0.137750E-01
      0.200000E-01      0.132898E-01
      0.250000E-01      0.126899E-01
      0.300000E-01      0.119920E-01
      0.350000E-01      0.112149E-01
      0.400000E-01      0.103786E-01
      0.450000E-01      0.950402E-02
      0.500000E-01      0.861164E-02
      0.550000E-01      0.772113E-02
      0.600000E-01      0.685051E-02
      0.650000E-01      0.601567E-02
      0.700000E-01      0.522991E-02
      0.750000E-01      0.450368E-02
      0.800000E-01      0.384448E-02
      0.850000E-01      0.325684E-02
      0.900000E-01      0.274251E-02
      0.950000E-01      0.230067E-02
      0.100000          0.192835E-02
      0.105000          0.162077E-02
      0.110000          0.137184E-02
      0.115000          0.117458E-02
      0.120000          0.102154E-02
      0.125000          0.905246E-03
      0.130000          0.818472E-03
      0.135000          0.754552E-03
      0.140000          0.707562E-03
      0.145000          0.672451E-03
      0.150000          0.645098E-03
      0.155000          0.622308E-03
      0.160000          0.601755E-03
      0.165000          0.581897E-03
      0.170000          0.561849E-03
      0.175000          0.541256E-03
      0.180000          0.520156E-03
      0.185000          0.498850E-03
      0.190000          0.477786E-03
      0.195000          0.457465E-03
      0.200000          0.438359E-03
      0.205000          0.420864E-03
      0.210000          0.405260E-03
      0.215000          0.391700E-03
      0.220000          0.380208E-03
      0.225000          0.370693E-03
      0.230000          0.362968E-03
      0.235000          0.356771E-03
      0.240000          0.351797E-03
      0.245000          0.347718E-03
      0.250000          0.344207E-03
      0.255000          0.340955E-03
      0.260000          0.337686E-03
      0.265000          0.334166E-03
      0.270000          0.330212E-03
      0.275000          0.325689E-03
      0.280000          0.320512E-03
      0.285000          0.314643E-03
      0.290000          0.308089E-03
      0.295000          0.300890E-03
      0.300000          0.293119E-03
      0.305000          0.284873E-03
      0.310000          0.276266E-03
      0.315000          0.267420E-03
      0.320000          0.258462E-03
      0.325000          0.249517E-03
      0.330000          0.240699E-03
      0.335000          0.232110E-03
      0.340000          0.223834E-03
      0.345000          0.215933E-03
      0.350000          0.208448E-03
      0.355000          0.201398E-03
      0.360000          0.194779E-03
      0.365000          0.188568E-03
      0.370000          0.182729E-03
      0.375000          0.177211E-03
      0.380000          0.171958E-03
      0.385000          0.166915E-03
      0.390000          0.162028E-03
      0.395000          0.157251E-03
      0.400000          0.152549E-03
      0.405000          0.147903E-03
      0.410000          0.143305E-03
      0.415000          0.138765E-03
      0.420000          0.134304E-03
      0.425000          0.129954E-03
      0.430000          0.125754E-03
      0.435000          0.121748E-03
      0.440000          0.117978E-03
      0.445000          0.114483E-03
      0.450000          0.111295E-03
      0.455000          0.108433E-03
      0.460000          0.105906E-03
      0.465000          0.103712E-03
      0.470000          0.101833E-03
      0.475000          0.100240E-03
      0.480000          0.988969E-04
      0.485000          0.977582E-04
      0.490000          0.967750E-04
      0.495000          0.958976E-04
      0.500000          0.950783E-04
