 I_abs(s)[cm^-1]/c[mg/ml]
       0.00000          0.141561E-01
      0.500000E-02      0.140769E-01
      0.100000E-01      0.138424E-01
      0.150000E-01      0.134612E-01
      0.200000E-01      0.129473E-01
      0.250000E-01      0.123189E-01
      0.300000E-01      0.115980E-01
      0.350000E-01      0.108082E-01
      0.400000E-01      0.997433E-02
      0.450000E-01      0.912080E-02
      0.500000E-01      0.827037E-02
      0.550000E-01      0.744330E-02
      0.600000E-01      0.665657E-02
      0.650000E-01      0.592334E-02
      0.700000E-01      0.525278E-02
      0.750000E-01      0.465013E-02
      0.800000E-01      0.411695E-02
      0.850000E-01      0.365160E-02
      0.900000E-01      0.324992E-02
      0.950000E-01      0.290584E-02
      0.100000          0.261215E-02
      0.105000          0.236111E-02
      0.110000          0.214509E-02
      0.115000          0.195699E-02
      0.120000          0.179063E-02
      0.125000          0.164089E-02
      0.130000          0.150384E-02
      0.135000          0.137669E-02
      0.140000          0.125764E-02
      0.145000          0.114574E-02
      0.150000          0.104067E-02
      0.155000          0.942520E-03
      0.160000          0.851589E-03
      0.165000          0.768239E-03
      0.170000          0.692756E-03
      0.175000          0.625271E-03
      0.180000          0.565727E-03
      0.185000          0.513867E-03
      0.190000          0.469258E-03
      0.195000          0.431333E-03
      0.200000          0.399436E-03
      0.205000          0.372868E-03
      0.210000          0.350933E-03
      0.215000          0.332966E-03
      0.220000          0.318353E-03
      0.225000          0.306547E-03
      0.230000          0.297064E-03
      0.235000          0.289482E-03
      0.240000          0.283428E-03
      0.245000          0.278572E-03
      0.250000          0.274620E-03
      0.255000          0.271304E-03
      0.260000          0.268382E-03
      0.265000          0.265639E-03
      0.270000          0.262888E-03
      0.275000          0.259976E-03
      0.280000          0.256784E-03
      0.285000          0.253236E-03
      0.290000          0.249291E-03
      0.295000          0.244951E-03
      0.300000          0.240253E-03
      0.305000          0.235261E-03
      0.310000          0.230063E-03
      0.315000          0.224759E-03
      0.320000          0.219455E-03
      0.325000          0.214255E-03
      0.330000          0.209248E-03
      0.335000          0.204513E-03
      0.340000          0.200103E-03
      0.345000          0.196052E-03
      0.350000          0.192369E-03
      0.355000          0.189043E-03
      0.360000          0.186040E-03
      0.365000          0.183309E-03
      0.370000          0.180786E-03
      0.375000          0.178398E-03
      0.380000          0.176063E-03
      0.385000          0.173699E-03
      0.390000          0.171229E-03
      0.395000          0.168578E-03
      0.400000          0.165684E-03
      0.405000          0.162496E-03
      0.410000          0.158980E-03
      0.415000          0.155120E-03
      0.420000          0.150918E-03
      0.425000          0.146395E-03
      0.430000          0.141591E-03
      0.435000          0.136564E-03
      0.440000          0.131387E-03
      0.445000          0.126142E-03
      0.450000          0.120923E-03
      0.455000          0.115824E-03
      0.460000          0.110939E-03
      0.465000          0.106356E-03
      0.470000          0.102150E-03
      0.475000          0.983841E-04
      0.480000          0.951024E-04
      0.485000          0.923294E-04
      0.490000          0.900690E-04
      0.495000          0.883044E-04
      0.500000          0.870003E-04
