 I_abs(s)[cm^-1]/c[mg/ml]
       0.00000          0.140778E-01
      0.500000E-02      0.140003E-01
      0.100000E-01      0.137703E-01
      0.150000E-01      0.133949E-01
      0.200000E-01      0.128859E-01
      0.250000E-01      0.122585E-01
      0.300000E-01      0.115317E-01
      0.350000E-01      0.107265E-01
      0.400000E-01      0.986528E-02
      0.450000E-01      0.897122E-02
      0.500000E-01      0.806687E-02
      0.550000E-01      0.717355E-02
      0.600000E-01      0.631050E-02
      0.650000E-01      0.549430E-02
      0.700000E-01      0.473839E-02
      0.750000E-01      0.405281E-02
      0.800000E-01      0.344406E-02
      0.850000E-01      0.291525E-02
      0.900000E-01      0.246625E-02
      0.950000E-01      0.209413E-02
      0.100000          0.179357E-02
      0.105000          0.155743E-02
      0.110000          0.137727E-02
      0.115000          0.124397E-02
      0.120000          0.114820E-02
      0.125000          0.108092E-02
      0.130000          0.103377E-02
      0.135000          0.999386E-03
      0.140000          0.971572E-03
      0.145000          0.945438E-03
      0.150000          0.917415E-03
      0.155000          0.885199E-03
      0.160000          0.847629E-03
      0.165000          0.804525E-03
      0.170000          0.756484E-03
      0.175000          0.704676E-03
      0.180000          0.650630E-03
      0.185000          0.596041E-03
      0.190000          0.542601E-03
      0.195000          0.491858E-03
      0.200000          0.445114E-03
      0.205000          0.403353E-03
      0.210000          0.367214E-03
      0.215000          0.336980E-03
      0.220000          0.312609E-03
      0.225000          0.293770E-03
      0.230000          0.279903E-03
      0.235000          0.270281E-03
      0.240000          0.264075E-03
      0.245000          0.260421E-03
      0.250000          0.258471E-03
      0.255000          0.257442E-03
      0.260000          0.256654E-03
      0.265000          0.255551E-03
      0.270000          0.253719E-03
      0.275000          0.250885E-03
      0.280000          0.246911E-03
      0.285000          0.241784E-03
      0.290000          0.235595E-03
      0.295000          0.228516E-03
      0.300000          0.220779E-03
      0.305000          0.212650E-03
      0.310000          0.204410E-03
      0.315000          0.196331E-03
      0.320000          0.188663E-03
      0.325000          0.181620E-03
      0.330000          0.175373E-03
      0.335000          0.170043E-03
      0.340000          0.165697E-03
      0.345000          0.162357E-03
      0.350000          0.159995E-03
      0.355000          0.158544E-03
      0.360000          0.157906E-03
      0.365000          0.157954E-03
      0.370000          0.158544E-03
      0.375000          0.159522E-03
      0.380000          0.160732E-03
      0.385000          0.162018E-03
      0.390000          0.163234E-03
      0.395000          0.164246E-03
      0.400000          0.164938E-03
      0.405000          0.165212E-03
      0.410000          0.164991E-03
      0.415000          0.164221E-03
      0.420000          0.162871E-03
      0.425000          0.160934E-03
      0.430000          0.158425E-03
      0.435000          0.155380E-03
      0.440000          0.151854E-03
      0.445000          0.147919E-03
      0.450000          0.143662E-03
      0.455000          0.139178E-03
      0.460000          0.134568E-03
      0.465000          0.129933E-03
      0.470000          0.125373E-03
      0.475000          0.120978E-03
      0.480000          0.116825E-03
      0.485000          0.112978E-03
      0.490000          0.109481E-03
      0.495000          0.106357E-03
      0.500000          0.103612E-03
