 I_abs(s)[cm^-1]/c[mg/ml]
       0.00000          0.150718E-01
      0.500000E-02      0.150163E-01
      0.100000E-01      0.148513E-01
      0.150000E-01      0.145805E-01
      0.200000E-01      0.142098E-01
      0.250000E-01      0.137475E-01
      0.300000E-01      0.132035E-01
      0.350000E-01      0.125893E-01
      0.400000E-01      0.119172E-01
      0.450000E-01      0.112003E-01
      0.500000E-01      0.104520E-01
      0.550000E-01      0.968526E-02
      0.600000E-01      0.891267E-02
      0.650000E-01      0.814581E-02
      0.700000E-01      0.739512E-02
      0.750000E-01      0.666969E-02
      0.800000E-01      0.597710E-02
      0.850000E-01      0.532338E-02
      0.900000E-01      0.471302E-02
      0.950000E-01      0.414899E-02
      0.100000          0.363290E-02
      0.105000          0.316510E-02
      0.110000          0.274489E-02
      0.115000          0.237066E-02
      0.120000          0.204012E-02
      0.125000          0.175048E-02
      0.130000          0.149858E-02
      0.135000          0.128109E-02
      0.140000          0.109461E-02
      0.145000          0.935782E-03
      0.150000          0.801383E-03
      0.155000          0.688368E-03
      0.160000          0.593917E-03
      0.165000          0.515458E-03
      0.170000          0.450672E-03
      0.175000          0.397497E-03
      0.180000          0.354110E-03
      0.185000          0.318924E-03
      0.190000          0.290562E-03
      0.195000          0.267847E-03
      0.200000          0.249779E-03
      0.205000          0.235517E-03
      0.210000          0.224364E-03
      0.215000          0.215747E-03
      0.220000          0.209202E-03
      0.225000          0.204352E-03
      0.230000          0.200898E-03
      0.235000          0.198596E-03
      0.240000          0.197245E-03
      0.245000          0.196674E-03
      0.250000          0.196726E-03
      0.255000          0.197255E-03
      0.260000          0.198115E-03
      0.265000          0.199158E-03
      0.270000          0.200230E-03
      0.275000          0.201181E-03
      0.280000          0.201861E-03
      0.285000          0.202129E-03
      0.290000          0.201863E-03
      0.295000          0.200961E-03
      0.300000          0.199354E-03
      0.305000          0.197005E-03
      0.310000          0.193915E-03
      0.315000          0.190122E-03
      0.320000          0.185701E-03
      0.325000          0.180757E-03
      0.330000          0.175420E-03
      0.335000          0.169839E-03
      0.340000          0.164168E-03
      0.345000          0.158561E-03
      0.350000          0.153161E-03
      0.355000          0.148094E-03
      0.360000          0.143460E-03
      0.365000          0.139331E-03
      0.370000          0.135748E-03
      0.375000          0.132721E-03
      0.380000          0.130231E-03
      0.385000          0.128234E-03
      0.390000          0.126668E-03
      0.395000          0.125454E-03
      0.400000          0.124508E-03
      0.405000          0.123744E-03
      0.410000          0.123081E-03
      0.415000          0.122447E-03
      0.420000          0.121784E-03
      0.425000          0.121049E-03
      0.430000          0.120215E-03
      0.435000          0.119272E-03
      0.440000          0.118224E-03
      0.445000          0.117088E-03
      0.450000          0.115891E-03
      0.455000          0.114665E-03
      0.460000          0.113445E-03
      0.465000          0.112267E-03
      0.470000          0.111160E-03
      0.475000          0.110151E-03
      0.480000          0.109258E-03
      0.485000          0.108490E-03
      0.490000          0.107846E-03
      0.495000          0.107318E-03
      0.500000          0.106889E-03
