 I_abs(s)[cm^-1]/c[mg/ml]
       0.00000          0.146941E-01
      0.500000E-02      0.146404E-01
      0.100000E-01      0.144806E-01
      0.150000E-01      0.142180E-01
      0.200000E-01      0.138579E-01
      0.250000E-01      0.134077E-01
      0.300000E-01      0.128763E-01
      0.350000E-01      0.122743E-01
      0.400000E-01      0.116132E-01
      0.450000E-01      0.109051E-01
      0.500000E-01      0.101629E-01
      0.550000E-01      0.939917E-02
      0.600000E-01      0.862642E-02
      0.650000E-01      0.785648E-02
      0.700000E-01      0.710030E-02
      0.750000E-01      0.636769E-02
      0.800000E-01      0.566720E-02
      0.850000E-01      0.500591E-02
      0.900000E-01      0.438942E-02
      0.950000E-01      0.382180E-02
      0.100000          0.330559E-02
      0.105000          0.284196E-02
      0.110000          0.243075E-02
      0.115000          0.207064E-02
      0.120000          0.175934E-02
      0.125000          0.149376E-02
      0.130000          0.127019E-02
      0.135000          0.108454E-02
      0.140000          0.932438E-03
      0.145000          0.809479E-03
      0.150000          0.711321E-03
      0.155000          0.633824E-03
      0.160000          0.573147E-03
      0.165000          0.525820E-03
      0.170000          0.488788E-03
      0.175000          0.459439E-03
      0.180000          0.435605E-03
      0.185000          0.415546E-03
      0.190000          0.397921E-03
      0.195000          0.381747E-03
      0.200000          0.366353E-03
      0.205000          0.351329E-03
      0.210000          0.336469E-03
      0.215000          0.321728E-03
      0.220000          0.307170E-03
      0.225000          0.292931E-03
      0.230000          0.279178E-03
      0.235000          0.266088E-03
      0.240000          0.253823E-03
      0.245000          0.242513E-03
      0.250000          0.232252E-03
      0.255000          0.223091E-03
      0.260000          0.215038E-03
      0.265000          0.208061E-03
      0.270000          0.202094E-03
      0.275000          0.197046E-03
      0.280000          0.192804E-03
      0.285000          0.189245E-03
      0.290000          0.186239E-03
      0.295000          0.183659E-03
      0.300000          0.181383E-03
      0.305000          0.179298E-03
      0.310000          0.177307E-03
      0.315000          0.175328E-03
      0.320000          0.173291E-03
      0.325000          0.171148E-03
      0.330000          0.168863E-03
      0.335000          0.166416E-03
      0.340000          0.163799E-03
      0.345000          0.161018E-03
      0.350000          0.158087E-03
      0.355000          0.155029E-03
      0.360000          0.151873E-03
      0.365000          0.148652E-03
      0.370000          0.145403E-03
      0.375000          0.142164E-03
      0.380000          0.138971E-03
      0.385000          0.135860E-03
      0.390000          0.132864E-03
      0.395000          0.130013E-03
      0.400000          0.127331E-03
      0.405000          0.124837E-03
      0.410000          0.122545E-03
      0.415000          0.120463E-03
      0.420000          0.118592E-03
      0.425000          0.116929E-03
      0.430000          0.115465E-03
      0.435000          0.114184E-03
      0.440000          0.113067E-03
      0.445000          0.112092E-03
      0.450000          0.111234E-03
      0.455000          0.110465E-03
      0.460000          0.109757E-03
      0.465000          0.109082E-03
      0.470000          0.108412E-03
      0.475000          0.107722E-03
      0.480000          0.106988E-03
      0.485000          0.106190E-03
      0.490000          0.105313E-03
      0.495000          0.104343E-03
      0.500000          0.103273E-03
