 I_abs(s)[cm^-1]/c[mg/ml]
       0.00000          0.142032E-01
      0.500000E-02      0.141373E-01
      0.100000E-01      0.139417E-01
      0.150000E-01      0.136219E-01
      0.200000E-01      0.131868E-01
      0.250000E-01      0.126484E-01
      0.300000E-01      0.120213E-01
      0.350000E-01      0.113217E-01
      0.400000E-01      0.105673E-01
      0.450000E-01      0.977601E-02
      0.500000E-01      0.896577E-02
      0.550000E-01      0.815356E-02
      0.600000E-01      0.735498E-02
      0.650000E-01      0.658377E-02
      0.700000E-01      0.585147E-02
      0.750000E-01      0.516722E-02
      0.800000E-01      0.453765E-02
      0.850000E-01      0.396697E-02
      0.900000E-01      0.345705E-02
      0.950000E-01      0.300771E-02
      0.100000          0.261699E-02
      0.105000          0.228148E-02
      0.110000          0.199671E-02
      0.115000          0.175747E-02
      0.120000          0.155815E-02
      0.125000          0.139307E-02
      0.130000          0.125668E-02
      0.135000          0.114377E-02
      0.140000          0.104964E-02
      0.145000          0.970151E-03
      0.150000          0.901810E-03
      0.155000          0.841739E-03
      0.160000          0.787664E-03
      0.165000          0.737864E-03
      0.170000          0.691103E-03
      0.175000          0.646559E-03
      0.180000          0.603748E-03
      0.185000          0.562452E-03
      0.190000          0.522654E-03
      0.195000          0.484478E-03
      0.200000          0.448141E-03
      0.205000          0.413908E-03
      0.210000          0.382057E-03
      0.215000          0.352856E-03
      0.220000          0.326532E-03
      0.225000          0.303265E-03
      0.230000          0.283166E-03
      0.235000          0.266271E-03
      0.240000          0.252541E-03
      0.245000          0.241854E-03
      0.250000          0.234016E-03
      0.255000          0.228763E-03
      0.260000          0.225771E-03
      0.265000          0.224673E-03
      0.270000          0.225072E-03
      0.275000          0.226558E-03
      0.280000          0.228725E-03
      0.285000          0.231187E-03
      0.290000          0.233594E-03
      0.295000          0.235642E-03
      0.300000          0.237085E-03
      0.305000          0.237736E-03
      0.310000          0.237474E-03
      0.315000          0.236236E-03
      0.320000          0.234020E-03
      0.325000          0.230872E-03
      0.330000          0.226876E-03
      0.335000          0.222150E-03
      0.340000          0.216828E-03
      0.345000          0.211057E-03
      0.350000          0.204981E-03
      0.355000          0.198739E-03
      0.360000          0.192456E-03
      0.365000          0.186236E-03
      0.370000          0.180165E-03
      0.375000          0.174305E-03
      0.380000          0.168698E-03
      0.385000          0.163362E-03
      0.390000          0.158301E-03
      0.395000          0.153500E-03
      0.400000          0.148933E-03
      0.405000          0.144567E-03
      0.410000          0.140363E-03
      0.415000          0.136280E-03
      0.420000          0.132279E-03
      0.425000          0.128327E-03
      0.430000          0.124396E-03
      0.435000          0.120470E-03
      0.440000          0.116542E-03
      0.445000          0.112618E-03
      0.450000          0.108715E-03
      0.455000          0.104862E-03
      0.460000          0.101099E-03
      0.465000          0.974726E-04
      0.470000          0.940379E-04
      0.475000          0.908509E-04
      0.480000          0.879676E-04
      0.485000          0.854395E-04
      0.490000          0.833104E-04
      0.495000          0.816129E-04
      0.500000          0.803655E-04
