 I_abs(s)[cm^-1]/c[mg/ml]
       0.00000          0.145427E-01
      0.500000E-02      0.144718E-01
      0.100000E-01      0.142612E-01
      0.150000E-01      0.139178E-01
      0.200000E-01      0.134522E-01
      0.250000E-01      0.128790E-01
      0.300000E-01      0.122153E-01
      0.350000E-01      0.114803E-01
      0.400000E-01      0.106943E-01
      0.450000E-01      0.987763E-02
      0.500000E-01      0.905003E-02
      0.550000E-01      0.822968E-02
      0.600000E-01      0.743260E-02
      0.650000E-01      0.667217E-02
      0.700000E-01      0.595883E-02
      0.750000E-01      0.529997E-02
      0.800000E-01      0.469997E-02
      0.850000E-01      0.416045E-02
      0.900000E-01      0.368061E-02
      0.950000E-01      0.325765E-02
      0.100000          0.288729E-02
      0.105000          0.256426E-02
      0.110000          0.228281E-02
      0.115000          0.203710E-02
      0.120000          0.182158E-02
      0.125000          0.163128E-02
      0.130000          0.146196E-02
      0.135000          0.131019E-02
      0.140000          0.117337E-02
      0.145000          0.104963E-02
      0.150000          0.937740E-03
      0.155000          0.836953E-03
      0.160000          0.746831E-03
      0.165000          0.667100E-03
      0.170000          0.597514E-03
      0.175000          0.537747E-03
      0.180000          0.487328E-03
      0.185000          0.445601E-03
      0.190000          0.411733E-03
      0.195000          0.384737E-03
      0.200000          0.363526E-03
      0.205000          0.346969E-03
      0.210000          0.333960E-03
      0.215000          0.323475E-03
      0.220000          0.314621E-03
      0.225000          0.306670E-03
      0.230000          0.299078E-03
      0.235000          0.291480E-03
      0.240000          0.283682E-03
      0.245000          0.275629E-03
      0.250000          0.267374E-03
      0.255000          0.259037E-03
      0.260000          0.250770E-03
      0.265000          0.242726E-03
      0.270000          0.235030E-03
      0.275000          0.227762E-03
      0.280000          0.220954E-03
      0.285000          0.214583E-03
      0.290000          0.208586E-03
      0.295000          0.202868E-03
      0.300000          0.197320E-03
      0.305000          0.191835E-03
      0.310000          0.186325E-03
      0.315000          0.180731E-03
      0.320000          0.175032E-03
      0.325000          0.169247E-03
      0.330000          0.163435E-03
      0.335000          0.157690E-03
      0.340000          0.152127E-03
      0.345000          0.146875E-03
      0.350000          0.142062E-03
      0.355000          0.137805E-03
      0.360000          0.134198E-03
      0.365000          0.131303E-03
      0.370000          0.129147E-03
      0.375000          0.127717E-03
      0.380000          0.126966E-03
      0.385000          0.126813E-03
      0.390000          0.127149E-03
      0.395000          0.127849E-03
      0.400000          0.128777E-03
      0.405000          0.129798E-03
      0.410000          0.130784E-03
      0.415000          0.131622E-03
      0.420000          0.132218E-03
      0.425000          0.132503E-03
      0.430000          0.132433E-03
      0.435000          0.131988E-03
      0.440000          0.131170E-03
      0.445000          0.130002E-03
      0.450000          0.128521E-03
      0.455000          0.126773E-03
      0.460000          0.124812E-03
      0.465000          0.122690E-03
      0.470000          0.120461E-03
      0.475000          0.118169E-03
      0.480000          0.115853E-03
      0.485000          0.113543E-03
      0.490000          0.111262E-03
      0.495000          0.109023E-03
      0.500000          0.106834E-03
