 I_abs(s)[cm^-1]/c[mg/ml]
       0.00000          0.146064E-01
      0.500000E-02      0.145471E-01
      0.100000E-01      0.143707E-01
      0.150000E-01      0.140812E-01
      0.200000E-01      0.136853E-01
      0.250000E-01      0.131922E-01
      0.300000E-01      0.126127E-01
      0.350000E-01      0.119597E-01
      0.400000E-01      0.112470E-01
      0.450000E-01      0.104892E-01
      0.500000E-01      0.970136E-02
      0.550000E-01      0.889818E-02
      0.600000E-01      0.809382E-02
      0.650000E-01      0.730143E-02
      0.700000E-01      0.653283E-02
      0.750000E-01      0.579827E-02
      0.800000E-01      0.510623E-02
      0.850000E-01      0.446328E-02
      0.900000E-01      0.387411E-02
      0.950000E-01      0.334155E-02
      0.100000          0.286665E-02
      0.105000          0.244888E-02
      0.110000          0.208633E-02
      0.115000          0.177591E-02
      0.120000          0.151367E-02
      0.125000          0.129501E-02
      0.130000          0.111493E-02
      0.135000          0.968302E-03
      0.140000          0.850049E-03
      0.145000          0.755325E-03
      0.150000          0.679659E-03
      0.155000          0.619055E-03
      0.160000          0.570054E-03
      0.165000          0.529768E-03
      0.170000          0.495874E-03
      0.175000          0.466582E-03
      0.180000          0.440594E-03
      0.185000          0.417028E-03
      0.190000          0.395353E-03
      0.195000          0.375309E-03
      0.200000          0.356827E-03
      0.205000          0.339966E-03
      0.210000          0.324844E-03
      0.215000          0.311593E-03
      0.220000          0.300312E-03
      0.225000          0.291048E-03
      0.230000          0.283773E-03
      0.235000          0.278384E-03
      0.240000          0.274700E-03
      0.245000          0.272480E-03
      0.250000          0.271430E-03
      0.255000          0.271226E-03
      0.260000          0.271532E-03
      0.265000          0.272017E-03
      0.270000          0.272376E-03
      0.275000          0.272338E-03
      0.280000          0.271682E-03
      0.285000          0.270240E-03
      0.290000          0.267905E-03
      0.295000          0.264627E-03
      0.300000          0.260411E-03
      0.305000          0.255311E-03
      0.310000          0.249424E-03
      0.315000          0.242879E-03
      0.320000          0.235827E-03
      0.325000          0.228433E-03
      0.330000          0.220867E-03
      0.335000          0.213290E-03
      0.340000          0.205855E-03
      0.345000          0.198694E-03
      0.350000          0.191916E-03
      0.355000          0.185605E-03
      0.360000          0.179816E-03
      0.365000          0.174578E-03
      0.370000          0.169894E-03
      0.375000          0.165744E-03
      0.380000          0.162085E-03
      0.385000          0.158862E-03
      0.390000          0.156006E-03
      0.395000          0.153443E-03
      0.400000          0.151094E-03
      0.405000          0.148886E-03
      0.410000          0.146749E-03
      0.415000          0.144623E-03
      0.420000          0.142459E-03
      0.425000          0.140223E-03
      0.430000          0.137893E-03
      0.435000          0.135462E-03
      0.440000          0.132935E-03
      0.445000          0.130331E-03
      0.450000          0.127676E-03
      0.455000          0.125004E-03
      0.460000          0.122353E-03
      0.465000          0.119765E-03
      0.470000          0.117277E-03
      0.475000          0.114925E-03
      0.480000          0.112739E-03
      0.485000          0.110739E-03
      0.490000          0.108941E-03
      0.495000          0.107347E-03
      0.500000          0.105952E-03
