 I_abs(s)[cm^-1]/c[mg/ml]
       0.00000          0.146861E-01
      0.500000E-02      0.146089E-01
      0.100000E-01      0.143797E-01
      0.150000E-01      0.140049E-01
      0.200000E-01      0.134953E-01
      0.250000E-01      0.128651E-01
      0.300000E-01      0.121317E-01
      0.350000E-01      0.113146E-01
      0.400000E-01      0.104350E-01
      0.450000E-01      0.951468E-02
      0.500000E-01      0.857529E-02
      0.550000E-01      0.763759E-02
      0.600000E-01      0.672075E-02
      0.650000E-01      0.584174E-02
      0.700000E-01      0.501492E-02
      0.750000E-01      0.425170E-02
      0.800000E-01      0.356043E-02
      0.850000E-01      0.294636E-02
      0.900000E-01      0.241177E-02
      0.950000E-01      0.195628E-02
      0.100000          0.157708E-02
      0.105000          0.126943E-02
      0.110000          0.102705E-02
      0.115000          0.842592E-03
      0.120000          0.708088E-03
      0.125000          0.615348E-03
      0.130000          0.556328E-03
      0.135000          0.523429E-03
      0.140000          0.509726E-03
      0.145000          0.509130E-03
      0.150000          0.516481E-03
      0.155000          0.527581E-03
      0.160000          0.539177E-03
      0.165000          0.548893E-03
      0.170000          0.555143E-03
      0.175000          0.557016E-03
      0.180000          0.554156E-03
      0.185000          0.546635E-03
      0.190000          0.534840E-03
      0.195000          0.519367E-03
      0.200000          0.500932E-03
      0.205000          0.480295E-03
      0.210000          0.458207E-03
      0.215000          0.435366E-03
      0.220000          0.412394E-03
      0.225000          0.389818E-03
      0.230000          0.368067E-03
      0.235000          0.347473E-03
      0.240000          0.328275E-03
      0.245000          0.310632E-03
      0.250000          0.294629E-03
      0.255000          0.280293E-03
      0.260000          0.267600E-03
      0.265000          0.256487E-03
      0.270000          0.246865E-03
      0.275000          0.238621E-03
      0.280000          0.231632E-03
      0.285000          0.225769E-03
      0.290000          0.220903E-03
      0.295000          0.216911E-03
      0.300000          0.213675E-03
      0.305000          0.211092E-03
      0.310000          0.209064E-03
      0.315000          0.207509E-03
      0.320000          0.206351E-03
      0.325000          0.205522E-03
      0.330000          0.204958E-03
      0.335000          0.204598E-03
      0.340000          0.204380E-03
      0.345000          0.204238E-03
      0.350000          0.204105E-03
      0.355000          0.203908E-03
      0.360000          0.203573E-03
      0.365000          0.203026E-03
      0.370000          0.202194E-03
      0.375000          0.201012E-03
      0.380000          0.199424E-03
      0.385000          0.197389E-03
      0.390000          0.194880E-03
      0.395000          0.191892E-03
      0.400000          0.188439E-03
      0.405000          0.184556E-03
      0.410000          0.180294E-03
      0.415000          0.175723E-03
      0.420000          0.170922E-03
      0.425000          0.165980E-03
      0.430000          0.160984E-03
      0.435000          0.156022E-03
      0.440000          0.151171E-03
      0.445000          0.146498E-03
      0.450000          0.142055E-03
      0.455000          0.137877E-03
      0.460000          0.133983E-03
      0.465000          0.130377E-03
      0.470000          0.127046E-03
      0.475000          0.123971E-03
      0.480000          0.121121E-03
      0.485000          0.118464E-03
      0.490000          0.115967E-03
      0.495000          0.113601E-03
      0.500000          0.111340E-03
