 I_abs(s)[cm^-1]/c[mg/ml]
       0.00000          0.144238E-01
      0.500000E-02      0.143495E-01
      0.100000E-01      0.141290E-01
      0.150000E-01      0.137699E-01
      0.200000E-01      0.132842E-01
      0.250000E-01      0.126878E-01
      0.300000E-01      0.119997E-01
      0.350000E-01      0.112408E-01
      0.400000E-01      0.104329E-01
      0.450000E-01      0.959780E-02
      0.500000E-01      0.875615E-02
      0.550000E-01      0.792672E-02
      0.600000E-01      0.712570E-02
      0.650000E-01      0.636626E-02
      0.700000E-01      0.565837E-02
      0.750000E-01      0.500873E-02
      0.800000E-01      0.442097E-02
      0.850000E-01      0.389598E-02
      0.900000E-01      0.343233E-02
      0.950000E-01      0.302677E-02
      0.100000          0.267475E-02
      0.105000          0.237091E-02
      0.110000          0.210954E-02
      0.115000          0.188490E-02
      0.120000          0.169157E-02
      0.125000          0.152460E-02
      0.130000          0.137962E-02
      0.135000          0.125291E-02
      0.140000          0.114137E-02
      0.145000          0.104247E-02
      0.150000          0.954152E-03
      0.155000          0.874800E-03
      0.160000          0.803117E-03
      0.165000          0.738075E-03
      0.170000          0.678854E-03
      0.175000          0.624797E-03
      0.180000          0.575384E-03
      0.185000          0.530203E-03
      0.190000          0.488933E-03
      0.195000          0.451329E-03
      0.200000          0.417200E-03
      0.205000          0.386398E-03
      0.210000          0.358792E-03
      0.215000          0.334256E-03
      0.220000          0.312649E-03
      0.225000          0.293804E-03
      0.230000          0.277522E-03
      0.235000          0.263567E-03
      0.240000          0.251678E-03
      0.245000          0.241572E-03
      0.250000          0.232959E-03
      0.255000          0.225558E-03
      0.260000          0.219109E-03
      0.265000          0.213385E-03
      0.270000          0.208202E-03
      0.275000          0.203419E-03
      0.280000          0.198940E-03
      0.285000          0.194708E-03
      0.290000          0.190695E-03
      0.295000          0.186900E-03
      0.300000          0.183330E-03
      0.305000          0.179999E-03
      0.310000          0.176917E-03
      0.315000          0.174088E-03
      0.320000          0.171505E-03
      0.325000          0.169156E-03
      0.330000          0.167017E-03
      0.335000          0.165061E-03
      0.340000          0.163260E-03
      0.345000          0.161583E-03
      0.350000          0.160001E-03
      0.355000          0.158487E-03
      0.360000          0.157014E-03
      0.365000          0.155557E-03
      0.370000          0.154089E-03
      0.375000          0.152584E-03
      0.380000          0.151014E-03
      0.385000          0.149353E-03
      0.390000          0.147576E-03
      0.395000          0.145664E-03
      0.400000          0.143603E-03
      0.405000          0.141389E-03
      0.410000          0.139026E-03
      0.415000          0.136531E-03
      0.420000          0.133929E-03
      0.425000          0.131252E-03
      0.430000          0.128538E-03
      0.435000          0.125824E-03
      0.440000          0.123146E-03
      0.445000          0.120535E-03
      0.450000          0.118012E-03
      0.455000          0.115590E-03
      0.460000          0.113271E-03
      0.465000          0.111052E-03
      0.470000          0.108921E-03
      0.475000          0.106866E-03
      0.480000          0.104873E-03
      0.485000          0.102932E-03
      0.490000          0.101040E-03
      0.495000          0.991970E-04
      0.500000          0.974118E-04
