 I_abs(s)[cm^-1]/c[mg/ml]
       0.00000          0.150556E-01
      0.500000E-02      0.149988E-01
      0.100000E-01      0.148296E-01
      0.150000E-01      0.145516E-01
      0.200000E-01      0.141707E-01
      0.250000E-01      0.136949E-01
      0.300000E-01      0.131340E-01
      0.350000E-01      0.124993E-01
      0.400000E-01      0.118031E-01
      0.450000E-01      0.110588E-01
      0.500000E-01      0.102796E-01
      0.550000E-01      0.947920E-02
      0.600000E-01      0.867056E-02
      0.650000E-01      0.786602E-02
      0.700000E-01      0.707687E-02
      0.750000E-01      0.631318E-02
      0.800000E-01      0.558358E-02
      0.850000E-01      0.489517E-02
      0.900000E-01      0.425347E-02
      0.950000E-01      0.366247E-02
      0.100000          0.312463E-02
      0.105000          0.264101E-02
      0.110000          0.221142E-02
      0.115000          0.183458E-02
      0.120000          0.150829E-02
      0.125000          0.122962E-02
      0.130000          0.995117E-03
      0.135000          0.800927E-03
      0.140000          0.643006E-03
      0.145000          0.517236E-03
      0.150000          0.419548E-03
      0.155000          0.346017E-03
      0.160000          0.292937E-03
      0.165000          0.256874E-03
      0.170000          0.234699E-03
      0.175000          0.223600E-03
      0.180000          0.221095E-03
      0.185000          0.225014E-03
      0.190000          0.233495E-03
      0.195000          0.244955E-03
      0.200000          0.258073E-03
      0.205000          0.271764E-03
      0.210000          0.285156E-03
      0.215000          0.297565E-03
      0.220000          0.308476E-03
      0.225000          0.317521E-03
      0.230000          0.324463E-03
      0.235000          0.329175E-03
      0.240000          0.331628E-03
      0.245000          0.331872E-03
      0.250000          0.330027E-03
      0.255000          0.326263E-03
      0.260000          0.320793E-03
      0.265000          0.313859E-03
      0.270000          0.305721E-03
      0.275000          0.296643E-03
      0.280000          0.286891E-03
      0.285000          0.276719E-03
      0.290000          0.266365E-03
      0.295000          0.256047E-03
      0.300000          0.245955E-03
      0.305000          0.236252E-03
      0.310000          0.227072E-03
      0.315000          0.218518E-03
      0.320000          0.210665E-03
      0.325000          0.203560E-03
      0.330000          0.197223E-03
      0.335000          0.191651E-03
      0.340000          0.186824E-03
      0.345000          0.182699E-03
      0.350000          0.179223E-03
      0.355000          0.176329E-03
      0.360000          0.173943E-03
      0.365000          0.171986E-03
      0.370000          0.170377E-03
      0.375000          0.169032E-03
      0.380000          0.167875E-03
      0.385000          0.166830E-03
      0.390000          0.165831E-03
      0.395000          0.164820E-03
      0.400000          0.163746E-03
      0.405000          0.162570E-03
      0.410000          0.161264E-03
      0.415000          0.159808E-03
      0.420000          0.158194E-03
      0.425000          0.156419E-03
      0.430000          0.154492E-03
      0.435000          0.152424E-03
      0.440000          0.150230E-03
      0.445000          0.147931E-03
      0.450000          0.145544E-03
      0.455000          0.143090E-03
      0.460000          0.140586E-03
      0.465000          0.138046E-03
      0.470000          0.135482E-03
      0.475000          0.132902E-03
      0.480000          0.130313E-03
      0.485000          0.127716E-03
      0.490000          0.125113E-03
      0.495000          0.122506E-03
      0.500000          0.119893E-03
