 I_abs(s)[cm^-1]/c[mg/ml]
       0.00000          0.148863E-01
      0.500000E-02      0.148339E-01
      0.100000E-01      0.146777E-01
      0.150000E-01      0.144206E-01
      0.200000E-01      0.140677E-01
      0.250000E-01      0.136256E-01
      0.300000E-01      0.131026E-01
      0.350000E-01      0.125083E-01
      0.400000E-01      0.118535E-01
      0.450000E-01      0.111494E-01
      0.500000E-01      0.104082E-01
      0.550000E-01      0.964180E-02
      0.600000E-01      0.886223E-02
      0.650000E-01      0.808097E-02
      0.700000E-01      0.730884E-02
      0.750000E-01      0.655574E-02
      0.800000E-01      0.583047E-02
      0.850000E-01      0.514060E-02
      0.900000E-01      0.449235E-02
      0.950000E-01      0.389056E-02
      0.100000          0.333867E-02
      0.105000          0.283880E-02
      0.110000          0.239175E-02
      0.115000          0.199717E-02
      0.120000          0.165368E-02
      0.125000          0.135900E-02
      0.130000          0.111013E-02
      0.135000          0.903497E-03
      0.140000          0.735160E-03
      0.145000          0.600925E-03
      0.150000          0.496515E-03
      0.155000          0.417692E-03
      0.160000          0.360370E-03
      0.165000          0.320706E-03
      0.170000          0.295169E-03
      0.175000          0.280588E-03
      0.180000          0.274180E-03
      0.185000          0.273565E-03
      0.190000          0.276756E-03
      0.195000          0.282142E-03
      0.200000          0.288465E-03
      0.205000          0.294777E-03
      0.210000          0.300406E-03
      0.215000          0.304910E-03
      0.220000          0.308039E-03
      0.225000          0.309690E-03
      0.230000          0.309874E-03
      0.235000          0.308680E-03
      0.240000          0.306251E-03
      0.245000          0.302757E-03
      0.250000          0.298380E-03
      0.255000          0.293299E-03
      0.260000          0.287684E-03
      0.265000          0.281684E-03
      0.270000          0.275432E-03
      0.275000          0.269039E-03
      0.280000          0.262596E-03
      0.285000          0.256177E-03
      0.290000          0.249841E-03
      0.295000          0.243633E-03
      0.300000          0.237589E-03
      0.305000          0.231733E-03
      0.310000          0.226087E-03
      0.315000          0.220662E-03
      0.320000          0.215468E-03
      0.325000          0.210506E-03
      0.330000          0.205775E-03
      0.335000          0.201271E-03
      0.340000          0.196984E-03
      0.345000          0.192900E-03
      0.350000          0.189005E-03
      0.355000          0.185278E-03
      0.360000          0.181699E-03
      0.365000          0.178247E-03
      0.370000          0.174898E-03
      0.375000          0.171631E-03
      0.380000          0.168425E-03
      0.385000          0.165262E-03
      0.390000          0.162125E-03
      0.395000          0.159000E-03
      0.400000          0.155878E-03
      0.405000          0.152750E-03
      0.410000          0.149613E-03
      0.415000          0.146464E-03
      0.420000          0.143306E-03
      0.425000          0.140139E-03
      0.430000          0.136969E-03
      0.435000          0.133801E-03
      0.440000          0.130641E-03
      0.445000          0.127496E-03
      0.450000          0.124374E-03
      0.455000          0.121282E-03
      0.460000          0.118228E-03
      0.465000          0.115220E-03
      0.470000          0.112266E-03
      0.475000          0.109377E-03
      0.480000          0.106561E-03
      0.485000          0.103830E-03
      0.490000          0.101194E-03
      0.495000          0.986652E-04
      0.500000          0.962556E-04
