 I_abs(s)[cm^-1]/c[mg/ml]
       0.00000          0.142346E-01
      0.500000E-02      0.141512E-01
      0.100000E-01      0.139040E-01
      0.150000E-01      0.135024E-01
      0.200000E-01      0.129610E-01
      0.250000E-01      0.122990E-01
      0.300000E-01      0.115393E-01
      0.350000E-01      0.107065E-01
      0.400000E-01      0.982633E-02
      0.450000E-01      0.892363E-02
      0.500000E-01      0.802163E-02
      0.550000E-01      0.714087E-02
      0.600000E-01      0.629850E-02
      0.650000E-01      0.550793E-02
      0.700000E-01      0.477878E-02
      0.750000E-01      0.411699E-02
      0.800000E-01      0.352520E-02
      0.850000E-01      0.300331E-02
      0.900000E-01      0.254901E-02
      0.950000E-01      0.215842E-02
      0.100000          0.182665E-02
      0.105000          0.154825E-02
      0.110000          0.131764E-02
      0.115000          0.112933E-02
      0.120000          0.978107E-03
      0.125000          0.859107E-03
      0.130000          0.767820E-03
      0.135000          0.700065E-03
      0.140000          0.651952E-03
      0.145000          0.619846E-03
      0.150000          0.600346E-03
      0.155000          0.590296E-03
      0.160000          0.586807E-03
      0.165000          0.587306E-03
      0.170000          0.589574E-03
      0.175000          0.591794E-03
      0.180000          0.592572E-03
      0.185000          0.590944E-03
      0.190000          0.586352E-03
      0.195000          0.578599E-03
      0.200000          0.567787E-03
      0.205000          0.554237E-03
      0.210000          0.538409E-03
      0.215000          0.520827E-03
      0.220000          0.502010E-03
      0.225000          0.482425E-03
      0.230000          0.462455E-03
      0.235000          0.442385E-03
      0.240000          0.422409E-03
      0.245000          0.402640E-03
      0.250000          0.383140E-03
      0.255000          0.363940E-03
      0.260000          0.345068E-03
      0.265000          0.326568E-03
      0.270000          0.308511E-03
      0.275000          0.291002E-03
      0.280000          0.274180E-03
      0.285000          0.258206E-03
      0.290000          0.243255E-03
      0.295000          0.229500E-03
      0.300000          0.217095E-03
      0.305000          0.206169E-03
      0.310000          0.196804E-03
      0.315000          0.189037E-03
      0.320000          0.182850E-03
      0.325000          0.178172E-03
      0.330000          0.174879E-03
      0.335000          0.172807E-03
      0.340000          0.171755E-03
      0.345000          0.171500E-03
      0.350000          0.171809E-03
      0.355000          0.172455E-03
      0.360000          0.173223E-03
      0.365000          0.173929E-03
      0.370000          0.174420E-03
      0.375000          0.174584E-03
      0.380000          0.174349E-03
      0.385000          0.173682E-03
      0.390000          0.172579E-03
      0.395000          0.171062E-03
      0.400000          0.169166E-03
      0.405000          0.166934E-03
      0.410000          0.164405E-03
      0.415000          0.161612E-03
      0.420000          0.158580E-03
      0.425000          0.155323E-03
      0.430000          0.151851E-03
      0.435000          0.148175E-03
      0.440000          0.144312E-03
      0.445000          0.140288E-03
      0.450000          0.136147E-03
      0.455000          0.131949E-03
      0.460000          0.127767E-03
      0.465000          0.123687E-03
      0.470000          0.119798E-03
      0.475000          0.116186E-03
      0.480000          0.112924E-03
      0.485000          0.110063E-03
      0.490000          0.107632E-03
      0.495000          0.105632E-03
      0.500000          0.104034E-03
