 I_abs(s)[cm^-1]/c[mg/ml]
       0.00000          0.144396E-01
      0.500000E-02      0.143713E-01
      0.100000E-01      0.141683E-01
      0.150000E-01      0.138369E-01
      0.200000E-01      0.133867E-01
      0.250000E-01      0.128311E-01
      0.300000E-01      0.121858E-01
      0.350000E-01      0.114687E-01
      0.400000E-01      0.106985E-01
      0.450000E-01      0.989474E-02
      0.500000E-01      0.907616E-02
      0.550000E-01      0.826052E-02
      0.600000E-01      0.746376E-02
      0.650000E-01      0.669962E-02
      0.700000E-01      0.597919E-02
      0.750000E-01      0.531083E-02
      0.800000E-01      0.470008E-02
      0.850000E-01      0.414980E-02
      0.900000E-01      0.366040E-02
      0.950000E-01      0.323016E-02
      0.100000          0.285567E-02
      0.105000          0.253221E-02
      0.110000          0.225426E-02
      0.115000          0.201586E-02
      0.120000          0.181102E-02
      0.125000          0.163407E-02
      0.130000          0.147982E-02
      0.135000          0.134382E-02
      0.140000          0.122237E-02
      0.145000          0.111259E-02
      0.150000          0.101237E-02
      0.155000          0.920268E-03
      0.160000          0.835415E-03
      0.165000          0.757356E-03
      0.170000          0.685926E-03
      0.175000          0.621116E-03
      0.180000          0.562958E-03
      0.185000          0.511439E-03
      0.190000          0.466438E-03
      0.195000          0.427690E-03
      0.200000          0.394780E-03
      0.205000          0.367153E-03
      0.210000          0.344147E-03
      0.215000          0.325030E-03
      0.220000          0.309047E-03
      0.225000          0.295466E-03
      0.230000          0.283615E-03
      0.235000          0.272921E-03
      0.240000          0.262925E-03
      0.245000          0.253297E-03
      0.250000          0.243839E-03
      0.255000          0.234468E-03
      0.260000          0.225205E-03
      0.265000          0.216150E-03
      0.270000          0.207457E-03
      0.275000          0.199304E-03
      0.280000          0.191872E-03
      0.285000          0.185320E-03
      0.290000          0.179770E-03
      0.295000          0.175294E-03
      0.300000          0.171909E-03
      0.305000          0.169573E-03
      0.310000          0.168194E-03
      0.315000          0.167636E-03
      0.320000          0.167730E-03
      0.325000          0.168289E-03
      0.330000          0.169118E-03
      0.335000          0.170030E-03
      0.340000          0.170856E-03
      0.345000          0.171456E-03
      0.350000          0.171721E-03
      0.355000          0.171580E-03
      0.360000          0.171001E-03
      0.365000          0.169985E-03
      0.370000          0.168563E-03
      0.375000          0.166790E-03
      0.380000          0.164737E-03
      0.385000          0.162483E-03
      0.390000          0.160107E-03
      0.395000          0.157682E-03
      0.400000          0.155268E-03
      0.405000          0.152907E-03
      0.410000          0.150625E-03
      0.415000          0.148426E-03
      0.420000          0.146298E-03
      0.425000          0.144213E-03
      0.430000          0.142130E-03
      0.435000          0.140002E-03
      0.440000          0.137780E-03
      0.445000          0.135416E-03
      0.450000          0.132869E-03
      0.455000          0.130109E-03
      0.460000          0.127117E-03
      0.465000          0.123889E-03
      0.470000          0.120437E-03
      0.475000          0.116786E-03
      0.480000          0.112972E-03
      0.485000          0.109044E-03
      0.490000          0.105058E-03
      0.495000          0.101076E-03
      0.500000          0.971597E-04
