 I_abs(s)[cm^-1]/c[mg/ml]
       0.00000          0.146143E-01
      0.500000E-02      0.145593E-01
      0.100000E-01      0.143956E-01
      0.150000E-01      0.141268E-01
      0.200000E-01      0.137587E-01
      0.250000E-01      0.132993E-01
      0.300000E-01      0.127584E-01
      0.350000E-01      0.121472E-01
      0.400000E-01      0.114781E-01
      0.450000E-01      0.107640E-01
      0.500000E-01      0.100184E-01
      0.550000E-01      0.925448E-02
      0.600000E-01      0.848511E-02
      0.650000E-01      0.772226E-02
      0.700000E-01      0.697686E-02
      0.750000E-01      0.625850E-02
      0.800000E-01      0.557526E-02
      0.850000E-01      0.493365E-02
      0.900000E-01      0.433851E-02
      0.950000E-01      0.379307E-02
      0.100000          0.329903E-02
      0.105000          0.285666E-02
      0.110000          0.246498E-02
      0.115000          0.212195E-02
      0.120000          0.182469E-02
      0.125000          0.156967E-02
      0.130000          0.135293E-02
      0.135000          0.117027E-02
      0.140000          0.101748E-02
      0.145000          0.890400E-03
      0.150000          0.785134E-03
      0.155000          0.698089E-03
      0.160000          0.626058E-03
      0.165000          0.566254E-03
      0.170000          0.516320E-03
      0.175000          0.474313E-03
      0.180000          0.438676E-03
      0.185000          0.408200E-03
      0.190000          0.381964E-03
      0.195000          0.359292E-03
      0.200000          0.339690E-03
      0.205000          0.322801E-03
      0.210000          0.308361E-03
      0.215000          0.296156E-03
      0.220000          0.286001E-03
      0.225000          0.277714E-03
      0.230000          0.271102E-03
      0.235000          0.265961E-03
      0.240000          0.262071E-03
      0.245000          0.259198E-03
      0.250000          0.257107E-03
      0.255000          0.255563E-03
      0.260000          0.254343E-03
      0.265000          0.253242E-03
      0.270000          0.252079E-03
      0.275000          0.250700E-03
      0.280000          0.248983E-03
      0.285000          0.246834E-03
      0.290000          0.244188E-03
      0.295000          0.241009E-03
      0.300000          0.237280E-03
      0.305000          0.233006E-03
      0.310000          0.228206E-03
      0.315000          0.222911E-03
      0.320000          0.217163E-03
      0.325000          0.211009E-03
      0.330000          0.204504E-03
      0.335000          0.197707E-03
      0.340000          0.190682E-03
      0.345000          0.183500E-03
      0.350000          0.176233E-03
      0.355000          0.168960E-03
      0.360000          0.161764E-03
      0.365000          0.154730E-03
      0.370000          0.147945E-03
      0.375000          0.141494E-03
      0.380000          0.135459E-03
      0.385000          0.129918E-03
      0.390000          0.124937E-03
      0.395000          0.120570E-03
      0.400000          0.116858E-03
      0.405000          0.113825E-03
      0.410000          0.111473E-03
      0.415000          0.109790E-03
      0.420000          0.108741E-03
      0.425000          0.108275E-03
      0.430000          0.108326E-03
      0.435000          0.108814E-03
      0.440000          0.109647E-03
      0.445000          0.110731E-03
      0.450000          0.111966E-03
      0.455000          0.113255E-03
      0.460000          0.114509E-03
      0.465000          0.115643E-03
      0.470000          0.116588E-03
      0.475000          0.117286E-03
      0.480000          0.117696E-03
      0.485000          0.117789E-03
      0.490000          0.117556E-03
      0.495000          0.116997E-03
      0.500000          0.116129E-03
