 I_abs(s)[cm^-1]/c[mg/ml]
       0.00000          0.148221E-01
      0.500000E-02      0.147742E-01
      0.100000E-01      0.146314E-01
      0.150000E-01      0.143963E-01
      0.200000E-01      0.140731E-01
      0.250000E-01      0.136675E-01
      0.300000E-01      0.131866E-01
      0.350000E-01      0.126387E-01
      0.400000E-01      0.120331E-01
      0.450000E-01      0.113796E-01
      0.500000E-01      0.106886E-01
      0.550000E-01      0.997067E-02
      0.600000E-01      0.923640E-02
      0.650000E-01      0.849599E-02
      0.700000E-01      0.775914E-02
      0.750000E-01      0.703488E-02
      0.800000E-01      0.633132E-02
      0.850000E-01      0.565564E-02
      0.900000E-01      0.501387E-02
      0.950000E-01      0.441095E-02
      0.100000          0.385062E-02
      0.105000          0.333550E-02
      0.110000          0.286711E-02
      0.115000          0.244593E-02
      0.120000          0.207152E-02
      0.125000          0.174262E-02
      0.130000          0.145727E-02
      0.135000          0.121293E-02
      0.140000          0.100663E-02
      0.145000          0.835100E-03
      0.150000          0.694853E-03
      0.155000          0.582334E-03
      0.160000          0.493999E-03
      0.165000          0.426403E-03
      0.170000          0.376267E-03
      0.175000          0.340529E-03
      0.180000          0.316391E-03
      0.185000          0.301335E-03
      0.190000          0.293140E-03
      0.195000          0.289886E-03
      0.200000          0.289942E-03
      0.205000          0.291957E-03
      0.210000          0.294838E-03
      0.215000          0.297728E-03
      0.220000          0.299980E-03
      0.225000          0.301132E-03
      0.230000          0.300881E-03
      0.235000          0.299057E-03
      0.240000          0.295599E-03
      0.245000          0.290536E-03
      0.250000          0.283967E-03
      0.255000          0.276044E-03
      0.260000          0.266953E-03
      0.265000          0.256909E-03
      0.270000          0.246138E-03
      0.275000          0.234872E-03
      0.280000          0.223338E-03
      0.285000          0.211755E-03
      0.290000          0.200326E-03
      0.295000          0.189235E-03
      0.300000          0.178643E-03
      0.305000          0.168689E-03
      0.310000          0.159481E-03
      0.315000          0.151104E-03
      0.320000          0.143615E-03
      0.325000          0.137044E-03
      0.330000          0.131397E-03
      0.335000          0.126657E-03
      0.340000          0.122786E-03
      0.345000          0.119730E-03
      0.350000          0.117419E-03
      0.355000          0.115773E-03
      0.360000          0.114703E-03
      0.365000          0.114116E-03
      0.370000          0.113918E-03
      0.375000          0.114016E-03
      0.380000          0.114322E-03
      0.385000          0.114754E-03
      0.390000          0.115238E-03
      0.395000          0.115709E-03
      0.400000          0.116112E-03
      0.405000          0.116405E-03
      0.410000          0.116555E-03
      0.415000          0.116540E-03
      0.420000          0.116347E-03
      0.425000          0.115972E-03
      0.430000          0.115420E-03
      0.435000          0.114702E-03
      0.440000          0.113833E-03
      0.445000          0.112834E-03
      0.450000          0.111724E-03
      0.455000          0.110529E-03
      0.460000          0.109272E-03
      0.465000          0.107973E-03
      0.470000          0.106655E-03
      0.475000          0.105334E-03
      0.480000          0.104027E-03
      0.485000          0.102744E-03
      0.490000          0.101495E-03
      0.495000          0.100285E-03
      0.500000          0.991155E-04
