 I_abs(s)[cm^-1]/c[mg/ml]
       0.00000          0.146382E-01
      0.500000E-02      0.145779E-01
      0.100000E-01      0.143983E-01
      0.150000E-01      0.141043E-01
      0.200000E-01      0.137032E-01
      0.250000E-01      0.132051E-01
      0.300000E-01      0.126222E-01
      0.350000E-01      0.119684E-01
      0.400000E-01      0.112586E-01
      0.450000E-01      0.105084E-01
      0.500000E-01      0.973329E-02
      0.550000E-01      0.894832E-02
      0.600000E-01      0.816748E-02
      0.650000E-01      0.740337E-02
      0.700000E-01      0.666688E-02
      0.750000E-01      0.596695E-02
      0.800000E-01      0.531053E-02
      0.850000E-01      0.470249E-02
      0.900000E-01      0.414575E-02
      0.950000E-01      0.364142E-02
      0.100000          0.318903E-02
      0.105000          0.278677E-02
      0.110000          0.243180E-02
      0.115000          0.212054E-02
      0.120000          0.184893E-02
      0.125000          0.161274E-02
      0.130000          0.140774E-02
      0.135000          0.122990E-02
      0.140000          0.107554E-02
      0.145000          0.941385E-03
      0.150000          0.824640E-03
      0.155000          0.722963E-03
      0.160000          0.634450E-03
      0.165000          0.557580E-03
      0.170000          0.491145E-03
      0.175000          0.434176E-03
      0.180000          0.385866E-03
      0.185000          0.345506E-03
      0.190000          0.312429E-03
      0.195000          0.285965E-03
      0.200000          0.265417E-03
      0.205000          0.250050E-03
      0.210000          0.239092E-03
      0.215000          0.231750E-03
      0.220000          0.227227E-03
      0.225000          0.224752E-03
      0.230000          0.223603E-03
      0.235000          0.223134E-03
      0.240000          0.222794E-03
      0.245000          0.222144E-03
      0.250000          0.220861E-03
      0.255000          0.218744E-03
      0.260000          0.215705E-03
      0.265000          0.211759E-03
      0.270000          0.207004E-03
      0.275000          0.201608E-03
      0.280000          0.195786E-03
      0.285000          0.189776E-03
      0.290000          0.183824E-03
      0.295000          0.178164E-03
      0.300000          0.173007E-03
      0.305000          0.168525E-03
      0.310000          0.164849E-03
      0.315000          0.162062E-03
      0.320000          0.160201E-03
      0.325000          0.159255E-03
      0.330000          0.159175E-03
      0.335000          0.159873E-03
      0.340000          0.161236E-03
      0.345000          0.163127E-03
      0.350000          0.165397E-03
      0.355000          0.167891E-03
      0.360000          0.170452E-03
      0.365000          0.172931E-03
      0.370000          0.175190E-03
      0.375000          0.177108E-03
      0.380000          0.178580E-03
      0.385000          0.179526E-03
      0.390000          0.179886E-03
      0.395000          0.179624E-03
      0.400000          0.178730E-03
      0.405000          0.177213E-03
      0.410000          0.175105E-03
      0.415000          0.172457E-03
      0.420000          0.169333E-03
      0.425000          0.165812E-03
      0.430000          0.161980E-03
      0.435000          0.157928E-03
      0.440000          0.153747E-03
      0.445000          0.149525E-03
      0.450000          0.145345E-03
      0.455000          0.141276E-03
      0.460000          0.137376E-03
      0.465000          0.133690E-03
      0.470000          0.130244E-03
      0.475000          0.127050E-03
      0.480000          0.124104E-03
      0.485000          0.121388E-03
      0.490000          0.118871E-03
      0.495000          0.116514E-03
      0.500000          0.114272E-03
