 I_abs(s)[cm^-1]/c[mg/ml]
       0.00000          0.138598E-01
      0.500000E-02      0.137726E-01
      0.100000E-01      0.135144E-01
      0.150000E-01      0.130962E-01
      0.200000E-01      0.125350E-01
      0.250000E-01      0.118532E-01
      0.300000E-01      0.110771E-01
      0.350000E-01      0.102350E-01
      0.400000E-01      0.935608E-02
      0.450000E-01      0.846808E-02
      0.500000E-01      0.759634E-02
      0.550000E-01      0.676247E-02
      0.600000E-01      0.598350E-02
      0.650000E-01      0.527151E-02
      0.700000E-01      0.463357E-02
      0.750000E-01      0.407203E-02
      0.800000E-01      0.358516E-02
      0.850000E-01      0.316793E-02
      0.900000E-01      0.281302E-02
      0.950000E-01      0.251173E-02
      0.100000          0.225496E-02
      0.105000          0.203394E-02
      0.110000          0.184090E-02
      0.115000          0.166944E-02
      0.120000          0.151471E-02
      0.125000          0.137344E-02
      0.130000          0.124378E-02
      0.135000          0.112495E-02
      0.140000          0.101697E-02
      0.145000          0.920262E-03
      0.150000          0.835322E-03
      0.155000          0.762444E-03
      0.160000          0.701542E-03
      0.165000          0.652053E-03
      0.170000          0.612938E-03
      0.175000          0.582755E-03
      0.180000          0.559786E-03
      0.185000          0.542194E-03
      0.190000          0.528187E-03
      0.195000          0.516160E-03
      0.200000          0.504807E-03
      0.205000          0.493188E-03
      0.210000          0.480747E-03
      0.215000          0.467287E-03
      0.220000          0.452907E-03
      0.225000          0.437919E-03
      0.230000          0.422757E-03
      0.235000          0.407876E-03
      0.240000          0.393681E-03
      0.245000          0.380469E-03
      0.250000          0.368392E-03
      0.255000          0.357457E-03
      0.260000          0.347536E-03
      0.265000          0.338405E-03
      0.270000          0.329782E-03
      0.275000          0.321374E-03
      0.280000          0.312919E-03
      0.285000          0.304220E-03
      0.290000          0.295161E-03
      0.295000          0.285718E-03
      0.300000          0.275950E-03
      0.305000          0.265985E-03
      0.310000          0.255995E-03
      0.315000          0.246170E-03
      0.320000          0.236692E-03
      0.325000          0.227719E-03
      0.330000          0.219360E-03
      0.335000          0.211676E-03
      0.340000          0.204674E-03
      0.345000          0.198316E-03
      0.350000          0.192526E-03
      0.355000          0.187208E-03
      0.360000          0.182252E-03
      0.365000          0.177557E-03
      0.370000          0.173032E-03
      0.375000          0.168607E-03
      0.380000          0.164239E-03
      0.385000          0.159903E-03
      0.390000          0.155599E-03
      0.395000          0.151339E-03
      0.400000          0.147146E-03
      0.405000          0.143046E-03
      0.410000          0.139064E-03
      0.415000          0.135219E-03
      0.420000          0.131524E-03
      0.425000          0.127984E-03
      0.430000          0.124597E-03
      0.435000          0.121356E-03
      0.440000          0.118251E-03
      0.445000          0.115271E-03
      0.450000          0.112406E-03
      0.455000          0.109650E-03
      0.460000          0.106998E-03
      0.465000          0.104450E-03
      0.470000          0.102008E-03
      0.475000          0.996745E-04
      0.480000          0.974544E-04
      0.485000          0.953506E-04
      0.490000          0.933646E-04
      0.495000          0.914953E-04
      0.500000          0.897387E-04
