 I_abs(s)[cm^-1]/c[mg/ml]
       0.00000          0.143606E-01
      0.500000E-02      0.142814E-01
      0.100000E-01      0.140465E-01
      0.150000E-01      0.136645E-01
      0.200000E-01      0.131489E-01
      0.250000E-01      0.125175E-01
      0.300000E-01      0.117916E-01
      0.350000E-01      0.109944E-01
      0.400000E-01      0.101502E-01
      0.450000E-01      0.928288E-02
      0.500000E-01      0.841494E-02
      0.550000E-01      0.756654E-02
      0.600000E-01      0.675474E-02
      0.650000E-01      0.599304E-02
      0.700000E-01      0.529115E-02
      0.750000E-01      0.465504E-02
      0.800000E-01      0.408719E-02
      0.850000E-01      0.358707E-02
      0.900000E-01      0.315163E-02
      0.950000E-01      0.277599E-02
      0.100000          0.245407E-02
      0.105000          0.217915E-02
      0.110000          0.194446E-02
      0.115000          0.174356E-02
      0.120000          0.157066E-02
      0.125000          0.142076E-02
      0.130000          0.128977E-02
      0.135000          0.117445E-02
      0.140000          0.107233E-02
      0.145000          0.981564E-03
      0.150000          0.900771E-03
      0.155000          0.828891E-03
      0.160000          0.765044E-03
      0.165000          0.708431E-03
      0.170000          0.658273E-03
      0.175000          0.613771E-03
      0.180000          0.574117E-03
      0.185000          0.538507E-03
      0.190000          0.506178E-03
      0.195000          0.476448E-03
      0.200000          0.448742E-03
      0.205000          0.422621E-03
      0.210000          0.397786E-03
      0.215000          0.374071E-03
      0.220000          0.351428E-03
      0.225000          0.329896E-03
      0.230000          0.309570E-03
      0.235000          0.290569E-03
      0.240000          0.273002E-03
      0.245000          0.256953E-03
      0.250000          0.242459E-03
      0.255000          0.229509E-03
      0.260000          0.218042E-03
      0.265000          0.207961E-03
      0.270000          0.199138E-03
      0.275000          0.191431E-03
      0.280000          0.184696E-03
      0.285000          0.178798E-03
      0.290000          0.173617E-03
      0.295000          0.169049E-03
      0.300000          0.165010E-03
      0.305000          0.161431E-03
      0.310000          0.158255E-03
      0.315000          0.155430E-03
      0.320000          0.152912E-03
      0.325000          0.150653E-03
      0.330000          0.148610E-03
      0.335000          0.146740E-03
      0.340000          0.145003E-03
      0.345000          0.143365E-03
      0.350000          0.141800E-03
      0.355000          0.140291E-03
      0.360000          0.138829E-03
      0.365000          0.137416E-03
      0.370000          0.136053E-03
      0.375000          0.134747E-03
      0.380000          0.133499E-03
      0.385000          0.132303E-03
      0.390000          0.131142E-03
      0.395000          0.129990E-03
      0.400000          0.128809E-03
      0.405000          0.127550E-03
      0.410000          0.126165E-03
      0.415000          0.124602E-03
      0.420000          0.122821E-03
      0.425000          0.120790E-03
      0.430000          0.118498E-03
      0.435000          0.115952E-03
      0.440000          0.113181E-03
      0.445000          0.110235E-03
      0.450000          0.107178E-03
      0.455000          0.104085E-03
      0.460000          0.101036E-03
      0.465000          0.981079E-04
      0.470000          0.953683E-04
      0.475000          0.928698E-04
      0.480000          0.906466E-04
      0.485000          0.887123E-04
      0.490000          0.870609E-04
      0.495000          0.856688E-04
      0.500000          0.844987E-04
