 I_abs(s)[cm^-1]/c[mg/ml]
       0.00000          0.147740E-01
      0.500000E-02      0.147103E-01
      0.100000E-01      0.145209E-01
      0.150000E-01      0.142116E-01
      0.200000E-01      0.137915E-01
      0.250000E-01      0.132725E-01
      0.300000E-01      0.126692E-01
      0.350000E-01      0.119974E-01
      0.400000E-01      0.112741E-01
      0.450000E-01      0.105162E-01
      0.500000E-01      0.973997E-02
      0.550000E-01      0.896061E-02
      0.600000E-01      0.819156E-02
      0.650000E-01      0.744426E-02
      0.700000E-01      0.672799E-02
      0.750000E-01      0.604980E-02
      0.800000E-01      0.541461E-02
      0.850000E-01      0.482544E-02
      0.900000E-01      0.428363E-02
      0.950000E-01      0.378914E-02
      0.100000          0.334092E-02
      0.105000          0.293714E-02
      0.110000          0.257547E-02
      0.115000          0.225328E-02
      0.120000          0.196781E-02
      0.125000          0.171627E-02
      0.130000          0.149589E-02
      0.135000          0.130396E-02
      0.140000          0.113784E-02
      0.145000          0.994930E-03
      0.150000          0.872713E-03
      0.155000          0.768729E-03
      0.160000          0.680608E-03
      0.165000          0.606092E-03
      0.170000          0.543075E-03
      0.175000          0.489639E-03
      0.180000          0.444094E-03
      0.185000          0.405001E-03
      0.190000          0.371188E-03
      0.195000          0.341747E-03
      0.200000          0.316014E-03
      0.205000          0.293536E-03
      0.210000          0.274027E-03
      0.215000          0.257312E-03
      0.220000          0.243277E-03
      0.225000          0.231821E-03
      0.230000          0.222817E-03
      0.235000          0.216087E-03
      0.240000          0.211385E-03
      0.245000          0.208404E-03
      0.250000          0.206784E-03
      0.255000          0.206137E-03
      0.260000          0.206068E-03
      0.265000          0.206209E-03
      0.270000          0.206237E-03
      0.275000          0.205896E-03
      0.280000          0.205003E-03
      0.285000          0.203456E-03
      0.290000          0.201224E-03
      0.295000          0.198338E-03
      0.300000          0.194875E-03
      0.305000          0.190938E-03
      0.310000          0.186644E-03
      0.315000          0.182106E-03
      0.320000          0.177422E-03
      0.325000          0.172673E-03
      0.330000          0.167921E-03
      0.335000          0.163208E-03
      0.340000          0.158564E-03
      0.345000          0.154016E-03
      0.350000          0.149590E-03
      0.355000          0.145318E-03
      0.360000          0.141242E-03
      0.365000          0.137414E-03
      0.370000          0.133891E-03
      0.375000          0.130736E-03
      0.380000          0.128010E-03
      0.385000          0.125763E-03
      0.390000          0.124032E-03
      0.395000          0.122836E-03
      0.400000          0.122171E-03
      0.405000          0.122009E-03
      0.410000          0.122303E-03
      0.415000          0.122984E-03
      0.420000          0.123970E-03
      0.425000          0.125167E-03
      0.430000          0.126477E-03
      0.435000          0.127802E-03
      0.440000          0.129050E-03
      0.445000          0.130134E-03
      0.450000          0.130981E-03
      0.455000          0.131528E-03
      0.460000          0.131727E-03
      0.465000          0.131543E-03
      0.470000          0.130954E-03
      0.475000          0.129955E-03
      0.480000          0.128552E-03
      0.485000          0.126764E-03
      0.490000          0.124625E-03
      0.495000          0.122179E-03
      0.500000          0.119481E-03
