 I_abs(s)[cm^-1]/c[mg/ml]
       0.00000          0.149104E-01
      0.500000E-02      0.148430E-01
      0.100000E-01      0.146426E-01
      0.150000E-01      0.143150E-01
      0.200000E-01      0.138692E-01
      0.250000E-01      0.133175E-01
      0.300000E-01      0.126747E-01
      0.350000E-01      0.119574E-01
      0.400000E-01      0.111837E-01
      0.450000E-01      0.103718E-01
      0.500000E-01      0.954006E-02
      0.550000E-01      0.870571E-02
      0.600000E-01      0.788460E-02
      0.650000E-01      0.709063E-02
      0.700000E-01      0.633541E-02
      0.750000E-01      0.562802E-02
      0.800000E-01      0.497494E-02
      0.850000E-01      0.438012E-02
      0.900000E-01      0.384512E-02
      0.950000E-01      0.336935E-02
      0.100000          0.295048E-02
      0.105000          0.258475E-02
      0.110000          0.226739E-02
      0.115000          0.199306E-02
      0.120000          0.175614E-02
      0.125000          0.155114E-02
      0.130000          0.137290E-02
      0.135000          0.121682E-02
      0.140000          0.107897E-02
      0.145000          0.956154E-03
      0.150000          0.845911E-03
      0.155000          0.746451E-03
      0.160000          0.656568E-03
      0.165000          0.575527E-03
      0.170000          0.502925E-03
      0.175000          0.438574E-03
      0.180000          0.382373E-03
      0.185000          0.334218E-03
      0.190000          0.293924E-03
      0.195000          0.261178E-03
      0.200000          0.235519E-03
      0.205000          0.216338E-03
      0.210000          0.202901E-03
      0.215000          0.194387E-03
      0.220000          0.189927E-03
      0.225000          0.188652E-03
      0.230000          0.189737E-03
      0.235000          0.192438E-03
      0.240000          0.196115E-03
      0.245000          0.200249E-03
      0.250000          0.204448E-03
      0.255000          0.208438E-03
      0.260000          0.212050E-03
      0.265000          0.215196E-03
      0.270000          0.217853E-03
      0.275000          0.220029E-03
      0.280000          0.221752E-03
      0.285000          0.223044E-03
      0.290000          0.223915E-03
      0.295000          0.224352E-03
      0.300000          0.224324E-03
      0.305000          0.223782E-03
      0.310000          0.222666E-03
      0.315000          0.220923E-03
      0.320000          0.218509E-03
      0.325000          0.215402E-03
      0.330000          0.211612E-03
      0.335000          0.207183E-03
      0.340000          0.202194E-03
      0.345000          0.196758E-03
      0.350000          0.191013E-03
      0.355000          0.185116E-03
      0.360000          0.179232E-03
      0.365000          0.173520E-03
      0.370000          0.168129E-03
      0.375000          0.163181E-03
      0.380000          0.158769E-03
      0.385000          0.154949E-03
      0.390000          0.151743E-03
      0.395000          0.149135E-03
      0.400000          0.147079E-03
      0.405000          0.145502E-03
      0.410000          0.144315E-03
      0.415000          0.143415E-03
      0.420000          0.142699E-03
      0.425000          0.142069E-03
      0.430000          0.141437E-03
      0.435000          0.140730E-03
      0.440000          0.139896E-03
      0.445000          0.138898E-03
      0.450000          0.137720E-03
      0.455000          0.136363E-03
      0.460000          0.134837E-03
      0.465000          0.133166E-03
      0.470000          0.131377E-03
      0.475000          0.129501E-03
      0.480000          0.127565E-03
      0.485000          0.125597E-03
      0.490000          0.123615E-03
      0.495000          0.121636E-03
      0.500000          0.119669E-03
