 I_abs(s)[cm^-1]/c[mg/ml]
       0.00000          0.142791E-01
      0.500000E-02      0.142074E-01
      0.100000E-01      0.139944E-01
      0.150000E-01      0.136472E-01
      0.200000E-01      0.131768E-01
      0.250000E-01      0.125981E-01
      0.300000E-01      0.119286E-01
      0.350000E-01      0.111880E-01
      0.400000E-01      0.103973E-01
      0.450000E-01      0.957749E-02
      0.500000E-01      0.874875E-02
      0.550000E-01      0.792985E-02
      0.600000E-01      0.713733E-02
      0.650000E-01      0.638499E-02
      0.700000E-01      0.568359E-02
      0.750000E-01      0.504071E-02
      0.800000E-01      0.446082E-02
      0.850000E-01      0.394549E-02
      0.900000E-01      0.349369E-02
      0.950000E-01      0.310228E-02
      0.100000          0.276652E-02
      0.105000          0.248051E-02
      0.110000          0.223778E-02
      0.115000          0.203169E-02
      0.120000          0.185586E-02
      0.125000          0.170442E-02
      0.130000          0.157224E-02
      0.135000          0.145505E-02
      0.140000          0.134948E-02
      0.145000          0.125301E-02
      0.150000          0.116384E-02
      0.155000          0.108085E-02
      0.160000          0.100337E-02
      0.165000          0.931070E-03
      0.170000          0.863819E-03
      0.175000          0.801572E-03
      0.180000          0.744278E-03
      0.185000          0.691827E-03
      0.190000          0.644020E-03
      0.195000          0.600568E-03
      0.200000          0.561102E-03
      0.205000          0.525205E-03
      0.210000          0.492441E-03
      0.215000          0.462391E-03
      0.220000          0.434676E-03
      0.225000          0.408982E-03
      0.230000          0.385065E-03
      0.235000          0.362754E-03
      0.240000          0.341943E-03
      0.245000          0.322576E-03
      0.250000          0.304632E-03
      0.255000          0.288102E-03
      0.260000          0.272978E-03
      0.265000          0.259238E-03
      0.270000          0.246835E-03
      0.275000          0.235697E-03
      0.280000          0.225730E-03
      0.285000          0.216817E-03
      0.290000          0.208831E-03
      0.295000          0.201644E-03
      0.300000          0.195134E-03
      0.305000          0.189194E-03
      0.310000          0.183733E-03
      0.315000          0.178686E-03
      0.320000          0.174006E-03
      0.325000          0.169664E-03
      0.330000          0.165644E-03
      0.335000          0.161939E-03
      0.340000          0.158540E-03
      0.345000          0.155435E-03
      0.350000          0.152604E-03
      0.355000          0.150013E-03
      0.360000          0.147620E-03
      0.365000          0.145371E-03
      0.370000          0.143208E-03
      0.375000          0.141068E-03
      0.380000          0.138891E-03
      0.385000          0.136628E-03
      0.390000          0.134237E-03
      0.395000          0.131695E-03
      0.400000          0.128993E-03
      0.405000          0.126141E-03
      0.410000          0.123164E-03
      0.415000          0.120097E-03
      0.420000          0.116989E-03
      0.425000          0.113890E-03
      0.430000          0.110853E-03
      0.435000          0.107925E-03
      0.440000          0.105147E-03
      0.445000          0.102549E-03
      0.450000          0.100152E-03
      0.455000          0.979623E-04
      0.460000          0.959778E-04
      0.465000          0.941860E-04
      0.470000          0.925682E-04
      0.475000          0.911014E-04
      0.480000          0.897618E-04
      0.485000          0.885267E-04
      0.490000          0.873770E-04
      0.495000          0.862986E-04
      0.500000          0.852829E-04
