 I_abs(s)[cm^-1]/c[mg/ml]
       0.00000          0.140755E-01
      0.500000E-02      0.140060E-01
      0.100000E-01      0.137998E-01
      0.150000E-01      0.134635E-01
      0.200000E-01      0.130080E-01
      0.250000E-01      0.124475E-01
      0.300000E-01      0.117992E-01
      0.350000E-01      0.110820E-01
      0.400000E-01      0.103158E-01
      0.450000E-01      0.952074E-02
      0.500000E-01      0.871601E-02
      0.550000E-01      0.791932E-02
      0.600000E-01      0.714620E-02
      0.650000E-01      0.640960E-02
      0.700000E-01      0.571960E-02
      0.750000E-01      0.508337E-02
      0.800000E-01      0.450523E-02
      0.850000E-01      0.398690E-02
      0.900000E-01      0.352784E-02
      0.950000E-01      0.312562E-02
      0.100000          0.277642E-02
      0.105000          0.247545E-02
      0.110000          0.221735E-02
      0.115000          0.199657E-02
      0.120000          0.180768E-02
      0.125000          0.164557E-02
      0.130000          0.150565E-02
      0.135000          0.138389E-02
      0.140000          0.127690E-02
      0.145000          0.118188E-02
      0.150000          0.109661E-02
      0.155000          0.101935E-02
      0.160000          0.948797E-03
      0.165000          0.883977E-03
      0.170000          0.824190E-03
      0.175000          0.768935E-03
      0.180000          0.717857E-03
      0.185000          0.670696E-03
      0.190000          0.627246E-03
      0.195000          0.587335E-03
      0.200000          0.550792E-03
      0.205000          0.517438E-03
      0.210000          0.487073E-03
      0.215000          0.459473E-03
      0.220000          0.434388E-03
      0.225000          0.411549E-03
      0.230000          0.390673E-03
      0.235000          0.371476E-03
      0.240000          0.353683E-03
      0.245000          0.337040E-03
      0.250000          0.321328E-03
      0.255000          0.306367E-03
      0.260000          0.292026E-03
      0.265000          0.278218E-03
      0.270000          0.264906E-03
      0.275000          0.252089E-03
      0.280000          0.239796E-03
      0.285000          0.228074E-03
      0.290000          0.216981E-03
      0.295000          0.206568E-03
      0.300000          0.196877E-03
      0.305000          0.187932E-03
      0.310000          0.179735E-03
      0.315000          0.172267E-03
      0.320000          0.165492E-03
      0.325000          0.159355E-03
      0.330000          0.153797E-03
      0.335000          0.148749E-03
      0.340000          0.144147E-03
      0.345000          0.139929E-03
      0.350000          0.136041E-03
      0.355000          0.132438E-03
      0.360000          0.129082E-03
      0.365000          0.125942E-03
      0.370000          0.122993E-03
      0.375000          0.120215E-03
      0.380000          0.117591E-03
      0.385000          0.115103E-03
      0.390000          0.112740E-03
      0.395000          0.110491E-03
      0.400000          0.108348E-03
      0.405000          0.106306E-03
      0.410000          0.104367E-03
      0.415000          0.102534E-03
      0.420000          0.100814E-03
      0.425000          0.992170E-04
      0.430000          0.977514E-04
      0.435000          0.964236E-04
      0.440000          0.952356E-04
      0.445000          0.941830E-04
      0.450000          0.932542E-04
      0.455000          0.924301E-04
      0.460000          0.916849E-04
      0.465000          0.909880E-04
      0.470000          0.903065E-04
      0.475000          0.896084E-04
      0.480000          0.888656E-04
      0.485000          0.880568E-04
      0.490000          0.871701E-04
      0.495000          0.862039E-04
      0.500000          0.851674E-04
