 I_abs(s)[cm^-1]/c[mg/ml]
       0.00000          0.132455E-01
      0.500000E-02      0.131433E-01
      0.100000E-01      0.128421E-01
      0.150000E-01      0.123573E-01
      0.200000E-01      0.117134E-01
      0.250000E-01      0.109421E-01
      0.300000E-01      0.100794E-01
      0.350000E-01      0.916358E-02
      0.400000E-01      0.823213E-02
      0.450000E-01      0.731944E-02
      0.500000E-01      0.645478E-02
      0.550000E-01      0.566092E-02
      0.600000E-01      0.495336E-02
      0.650000E-01      0.434022E-02
      0.700000E-01      0.382281E-02
      0.750000E-01      0.339658E-02
      0.800000E-01      0.305250E-02
      0.850000E-01      0.277852E-02
      0.900000E-01      0.256110E-02
      0.950000E-01      0.238658E-02
      0.100000          0.224226E-02
      0.105000          0.211730E-02
      0.110000          0.200314E-02
      0.115000          0.189369E-02
      0.120000          0.178526E-02
      0.125000          0.167622E-02
      0.130000          0.156661E-02
      0.135000          0.145761E-02
      0.140000          0.135106E-02
      0.145000          0.124902E-02
      0.150000          0.115340E-02
      0.155000          0.106572E-02
      0.160000          0.986911E-03
      0.165000          0.917320E-03
      0.170000          0.856685E-03
      0.175000          0.804242E-03
      0.180000          0.758854E-03
      0.185000          0.719158E-03
      0.190000          0.683727E-03
      0.195000          0.651209E-03
      0.200000          0.620450E-03
      0.205000          0.590573E-03
      0.210000          0.561028E-03
      0.215000          0.531595E-03
      0.220000          0.502353E-03
      0.225000          0.473612E-03
      0.230000          0.445836E-03
      0.235000          0.419543E-03
      0.240000          0.395214E-03
      0.245000          0.373222E-03
      0.250000          0.353772E-03
      0.255000          0.336879E-03
      0.260000          0.322369E-03
      0.265000          0.309913E-03
      0.270000          0.299071E-03
      0.275000          0.289360E-03
      0.280000          0.280310E-03
      0.285000          0.271517E-03
      0.290000          0.262685E-03
      0.295000          0.253639E-03
      0.300000          0.244326E-03
      0.305000          0.234793E-03
      0.310000          0.225161E-03
      0.315000          0.215582E-03
      0.320000          0.206210E-03
      0.325000          0.197170E-03
      0.330000          0.188541E-03
      0.335000          0.180356E-03
      0.340000          0.172603E-03
      0.345000          0.165243E-03
      0.350000          0.158228E-03
      0.355000          0.151518E-03
      0.360000          0.145095E-03
      0.365000          0.138972E-03
      0.370000          0.133188E-03
      0.375000          0.127803E-03
      0.380000          0.122884E-03
      0.385000          0.118494E-03
      0.390000          0.114675E-03
      0.395000          0.111440E-03
      0.400000          0.108769E-03
      0.405000          0.106612E-03
      0.410000          0.104892E-03
      0.415000          0.103518E-03
      0.420000          0.102392E-03
      0.425000          0.101425E-03
      0.430000          0.100540E-03
      0.435000          0.996811E-04
      0.440000          0.988107E-04
      0.445000          0.979100E-04
      0.450000          0.969741E-04
      0.455000          0.960070E-04
      0.460000          0.950165E-04
      0.465000          0.940106E-04
      0.470000          0.929953E-04
      0.475000          0.919730E-04
      0.480000          0.909436E-04
      0.485000          0.899046E-04
      0.490000          0.888521E-04
      0.495000          0.877808E-04
      0.500000          0.866841E-04
