 I_abs(s)[cm^-1]/c[mg/ml]
       0.00000          0.139510E-01
      0.500000E-02      0.138768E-01
      0.100000E-01      0.136569E-01
      0.150000E-01      0.132990E-01
      0.200000E-01      0.128152E-01
      0.250000E-01      0.122219E-01
      0.300000E-01      0.115385E-01
      0.350000E-01      0.107863E-01
      0.400000E-01      0.998802E-02
      0.450000E-01      0.916600E-02
      0.500000E-01      0.834166E-02
      0.550000E-01      0.753438E-02
      0.600000E-01      0.676087E-02
      0.650000E-01      0.603458E-02
      0.700000E-01      0.536547E-02
      0.750000E-01      0.475988E-02
      0.800000E-01      0.422069E-02
      0.850000E-01      0.374768E-02
      0.900000E-01      0.333796E-02
      0.950000E-01      0.298657E-02
      0.100000          0.268709E-02
      0.105000          0.243227E-02
      0.110000          0.221459E-02
      0.115000          0.202680E-02
      0.120000          0.186231E-02
      0.125000          0.171546E-02
      0.130000          0.158169E-02
      0.135000          0.145761E-02
      0.140000          0.134094E-02
      0.145000          0.123034E-02
      0.150000          0.112529E-02
      0.155000          0.102584E-02
      0.160000          0.932373E-03
      0.165000          0.845444E-03
      0.170000          0.765578E-03
      0.175000          0.693151E-03
      0.180000          0.628307E-03
      0.185000          0.570923E-03
      0.190000          0.520621E-03
      0.195000          0.476801E-03
      0.200000          0.438712E-03
      0.205000          0.405521E-03
      0.210000          0.376393E-03
      0.215000          0.350554E-03
      0.220000          0.327344E-03
      0.225000          0.306249E-03
      0.230000          0.286916E-03
      0.235000          0.269138E-03
      0.240000          0.252841E-03
      0.245000          0.238040E-03
      0.250000          0.224806E-03
      0.255000          0.213224E-03
      0.260000          0.203357E-03
      0.265000          0.195215E-03
      0.270000          0.188746E-03
      0.275000          0.183823E-03
      0.280000          0.180250E-03
      0.285000          0.177781E-03
      0.290000          0.176132E-03
      0.295000          0.175013E-03
      0.300000          0.174146E-03
      0.305000          0.173291E-03
      0.310000          0.172259E-03
      0.315000          0.170926E-03
      0.320000          0.169237E-03
      0.325000          0.167199E-03
      0.330000          0.164878E-03
      0.335000          0.162378E-03
      0.340000          0.159831E-03
      0.345000          0.157377E-03
      0.350000          0.155145E-03
      0.355000          0.153244E-03
      0.360000          0.151745E-03
      0.365000          0.150681E-03
      0.370000          0.150040E-03
      0.375000          0.149770E-03
      0.380000          0.149784E-03
      0.385000          0.149969E-03
      0.390000          0.150195E-03
      0.395000          0.150329E-03
      0.400000          0.150244E-03
      0.405000          0.149827E-03
      0.410000          0.148992E-03
      0.415000          0.147681E-03
      0.420000          0.145865E-03
      0.425000          0.143549E-03
      0.430000          0.140768E-03
      0.435000          0.137581E-03
      0.440000          0.134066E-03
      0.445000          0.130315E-03
      0.450000          0.126427E-03
      0.455000          0.122502E-03
      0.460000          0.118633E-03
      0.465000          0.114905E-03
      0.470000          0.111389E-03
      0.475000          0.108139E-03
      0.480000          0.105196E-03
      0.485000          0.102581E-03
      0.490000          0.100303E-03
      0.495000          0.983558E-04
      0.500000          0.967220E-04
