 I_abs(s)[cm^-1]/c[mg/ml]
       0.00000          0.139044E-01
      0.500000E-02      0.138403E-01
      0.100000E-01      0.136497E-01
      0.150000E-01      0.133379E-01
      0.200000E-01      0.129133E-01
      0.250000E-01      0.123872E-01
      0.300000E-01      0.117736E-01
      0.350000E-01      0.110881E-01
      0.400000E-01      0.103476E-01
      0.450000E-01      0.956995E-02
      0.500000E-01      0.877263E-02
      0.550000E-01      0.797272E-02
      0.600000E-01      0.718606E-02
      0.650000E-01      0.642686E-02
      0.700000E-01      0.570725E-02
      0.750000E-01      0.503707E-02
      0.800000E-01      0.442368E-02
      0.850000E-01      0.387192E-02
      0.900000E-01      0.338417E-02
      0.950000E-01      0.296052E-02
      0.100000          0.259904E-02
      0.105000          0.229605E-02
      0.110000          0.204651E-02
      0.115000          0.184441E-02
      0.120000          0.168308E-02
      0.125000          0.155565E-02
      0.130000          0.145530E-02
      0.135000          0.137558E-02
      0.140000          0.131062E-02
      0.145000          0.125531E-02
      0.150000          0.120542E-02
      0.155000          0.115759E-02
      0.160000          0.110941E-02
      0.165000          0.105927E-02
      0.170000          0.100636E-02
      0.175000          0.950506E-03
      0.180000          0.892048E-03
      0.185000          0.831716E-03
      0.190000          0.770485E-03
      0.195000          0.709460E-03
      0.200000          0.649764E-03
      0.205000          0.592452E-03
      0.210000          0.538443E-03
      0.215000          0.488474E-03
      0.220000          0.443078E-03
      0.225000          0.402572E-03
      0.230000          0.367068E-03
      0.235000          0.336493E-03
      0.240000          0.310618E-03
      0.245000          0.289088E-03
      0.250000          0.271461E-03
      0.255000          0.257236E-03
      0.260000          0.245893E-03
      0.265000          0.236911E-03
      0.270000          0.229794E-03
      0.275000          0.224087E-03
      0.280000          0.219389E-03
      0.285000          0.215355E-03
      0.290000          0.211702E-03
      0.295000          0.208207E-03
      0.300000          0.204704E-03
      0.305000          0.201077E-03
      0.310000          0.197254E-03
      0.315000          0.193203E-03
      0.320000          0.188922E-03
      0.325000          0.184433E-03
      0.330000          0.179776E-03
      0.335000          0.175005E-03
      0.340000          0.170178E-03
      0.345000          0.165359E-03
      0.350000          0.160609E-03
      0.355000          0.155986E-03
      0.360000          0.151541E-03
      0.365000          0.147315E-03
      0.370000          0.143339E-03
      0.375000          0.139635E-03
      0.380000          0.136211E-03
      0.385000          0.133067E-03
      0.390000          0.130192E-03
      0.395000          0.127564E-03
      0.400000          0.125157E-03
      0.405000          0.122940E-03
      0.410000          0.120877E-03
      0.415000          0.118933E-03
      0.420000          0.117072E-03
      0.425000          0.115262E-03
      0.430000          0.113474E-03
      0.435000          0.111686E-03
      0.440000          0.109880E-03
      0.445000          0.108046E-03
      0.450000          0.106178E-03
      0.455000          0.104280E-03
      0.460000          0.102357E-03
      0.465000          0.100422E-03
      0.470000          0.984914E-04
      0.475000          0.965847E-04
      0.480000          0.947230E-04
      0.485000          0.929288E-04
      0.490000          0.912249E-04
      0.495000          0.896330E-04
      0.500000          0.881733E-04
