 I_abs(s)[cm^-1]/c[mg/ml]
       0.00000          0.149147E-01
      0.500000E-02      0.148434E-01
      0.100000E-01      0.146316E-01
      0.150000E-01      0.142859E-01
      0.200000E-01      0.138168E-01
      0.250000E-01      0.132382E-01
      0.300000E-01      0.125669E-01
      0.350000E-01      0.118216E-01
      0.400000E-01      0.110221E-01
      0.450000E-01      0.101885E-01
      0.500000E-01      0.934007E-02
      0.550000E-01      0.849502E-02
      0.600000E-01      0.766945E-02
      0.650000E-01      0.687705E-02
      0.700000E-01      0.612881E-02
      0.750000E-01      0.543292E-02
      0.800000E-01      0.479472E-02
      0.850000E-01      0.421699E-02
      0.900000E-01      0.370015E-02
      0.950000E-01      0.324268E-02
      0.100000          0.284153E-02
      0.105000          0.249251E-02
      0.110000          0.219075E-02
      0.115000          0.193103E-02
      0.120000          0.170810E-02
      0.125000          0.151694E-02
      0.130000          0.135292E-02
      0.135000          0.121189E-02
      0.140000          0.109027E-02
      0.145000          0.984983E-03
      0.150000          0.893481E-03
      0.155000          0.813649E-03
      0.160000          0.743742E-03
      0.165000          0.682319E-03
      0.170000          0.628174E-03
      0.175000          0.580286E-03
      0.180000          0.537780E-03
      0.185000          0.499896E-03
      0.190000          0.465980E-03
      0.195000          0.435469E-03
      0.200000          0.407890E-03
      0.205000          0.382856E-03
      0.210000          0.360063E-03
      0.215000          0.339283E-03
      0.220000          0.320350E-03
      0.225000          0.303152E-03
      0.230000          0.287611E-03
      0.235000          0.273669E-03
      0.240000          0.261271E-03
      0.245000          0.250354E-03
      0.250000          0.240833E-03
      0.255000          0.232602E-03
      0.260000          0.225528E-03
      0.265000          0.219456E-03
      0.270000          0.214215E-03
      0.275000          0.209625E-03
      0.280000          0.205509E-03
      0.285000          0.201700E-03
      0.290000          0.198049E-03
      0.295000          0.194434E-03
      0.300000          0.190759E-03
      0.305000          0.186959E-03
      0.310000          0.182999E-03
      0.315000          0.178868E-03
      0.320000          0.174580E-03
      0.325000          0.170161E-03
      0.330000          0.165651E-03
      0.335000          0.161095E-03
      0.340000          0.156539E-03
      0.345000          0.152026E-03
      0.350000          0.147594E-03
      0.355000          0.143273E-03
      0.360000          0.139089E-03
      0.365000          0.135055E-03
      0.370000          0.131184E-03
      0.375000          0.127478E-03
      0.380000          0.123941E-03
      0.385000          0.120570E-03
      0.390000          0.117364E-03
      0.395000          0.114322E-03
      0.400000          0.111444E-03
      0.405000          0.108732E-03
      0.410000          0.106190E-03
      0.415000          0.103822E-03
      0.420000          0.101635E-03
      0.425000          0.996353E-04
      0.430000          0.978288E-04
      0.435000          0.962193E-04
      0.440000          0.948080E-04
      0.445000          0.935927E-04
      0.450000          0.925668E-04
      0.455000          0.917192E-04
      0.460000          0.910346E-04
      0.465000          0.904931E-04
      0.470000          0.900718E-04
      0.475000          0.897450E-04
      0.480000          0.894860E-04
      0.485000          0.892682E-04
      0.490000          0.890664E-04
      0.495000          0.888582E-04
      0.500000          0.886250E-04
