 I_abs(s)[cm^-1]/c[mg/ml]
       0.00000          0.140366E-01
      0.500000E-02      0.139558E-01
      0.100000E-01      0.137166E-01
      0.150000E-01      0.133281E-01
      0.200000E-01      0.128047E-01
      0.250000E-01      0.121654E-01
      0.300000E-01      0.114327E-01
      0.350000E-01      0.106316E-01
      0.400000E-01      0.978763E-02
      0.450000E-01      0.892605E-02
      0.500000E-01      0.807048E-02
      0.550000E-01      0.724184E-02
      0.600000E-01      0.645755E-02
      0.650000E-01      0.573105E-02
      0.700000E-01      0.507153E-02
      0.750000E-01      0.448400E-02
      0.800000E-01      0.396962E-02
      0.850000E-01      0.352617E-02
      0.900000E-01      0.314872E-02
      0.950000E-01      0.283040E-02
      0.100000          0.256315E-02
      0.105000          0.233843E-02
      0.110000          0.214786E-02
      0.115000          0.198377E-02
      0.120000          0.183948E-02
      0.125000          0.170959E-02
      0.130000          0.159004E-02
      0.135000          0.147802E-02
      0.140000          0.137185E-02
      0.145000          0.127077E-02
      0.150000          0.117465E-02
      0.155000          0.108381E-02
      0.160000          0.998728E-03
      0.165000          0.919878E-03
      0.170000          0.847599E-03
      0.175000          0.782006E-03
      0.180000          0.722966E-03
      0.185000          0.670110E-03
      0.190000          0.622890E-03
      0.195000          0.580639E-03
      0.200000          0.542648E-03
      0.205000          0.508238E-03
      0.210000          0.476810E-03
      0.215000          0.447887E-03
      0.220000          0.421125E-03
      0.225000          0.396313E-03
      0.230000          0.373347E-03
      0.235000          0.352201E-03
      0.240000          0.332892E-03
      0.245000          0.315438E-03
      0.250000          0.299833E-03
      0.255000          0.286019E-03
      0.260000          0.273877E-03
      0.265000          0.263227E-03
      0.270000          0.253836E-03
      0.275000          0.245439E-03
      0.280000          0.237753E-03
      0.285000          0.230509E-03
      0.290000          0.223467E-03
      0.295000          0.216436E-03
      0.300000          0.209285E-03
      0.305000          0.201952E-03
      0.310000          0.194434E-03
      0.315000          0.186786E-03
      0.320000          0.179108E-03
      0.325000          0.171528E-03
      0.330000          0.164185E-03
      0.335000          0.157218E-03
      0.340000          0.150747E-03
      0.345000          0.144867E-03
      0.350000          0.139637E-03
      0.355000          0.135082E-03
      0.360000          0.131190E-03
      0.365000          0.127916E-03
      0.370000          0.125190E-03
      0.375000          0.122926E-03
      0.380000          0.121026E-03
      0.385000          0.119391E-03
      0.390000          0.117929E-03
      0.395000          0.116560E-03
      0.400000          0.115217E-03
      0.405000          0.113854E-03
      0.410000          0.112442E-03
      0.415000          0.110970E-03
      0.420000          0.109445E-03
      0.425000          0.107882E-03
      0.430000          0.106308E-03
      0.435000          0.104753E-03
      0.440000          0.103249E-03
      0.445000          0.101826E-03
      0.450000          0.100508E-03
      0.455000          0.993121E-04
      0.460000          0.982493E-04
      0.465000          0.973213E-04
      0.470000          0.965225E-04
      0.475000          0.958407E-04
      0.480000          0.952592E-04
      0.485000          0.947574E-04
      0.490000          0.943137E-04
      0.495000          0.939067E-04
      0.500000          0.935164E-04
