 I_abs(s)[cm^-1]/c[mg/ml]
       0.00000          0.143421E-01
      0.500000E-02      0.142783E-01
      0.100000E-01      0.140887E-01
      0.150000E-01      0.137784E-01
      0.200000E-01      0.133558E-01
      0.250000E-01      0.128320E-01
      0.300000E-01      0.122205E-01
      0.350000E-01      0.115366E-01
      0.400000E-01      0.107970E-01
      0.450000E-01      0.100186E-01
      0.500000E-01      0.921851E-02
      0.550000E-01      0.841301E-02
      0.600000E-01      0.761728E-02
      0.650000E-01      0.684481E-02
      0.700000E-01      0.610716E-02
      0.750000E-01      0.541367E-02
      0.800000E-01      0.477140E-02
      0.850000E-01      0.418507E-02
      0.900000E-01      0.365725E-02
      0.950000E-01      0.318847E-02
      0.100000          0.277751E-02
      0.105000          0.242168E-02
      0.110000          0.211716E-02
      0.115000          0.185932E-02
      0.120000          0.164305E-02
      0.125000          0.146300E-02
      0.130000          0.131389E-02
      0.135000          0.119068E-02
      0.140000          0.108869E-02
      0.145000          0.100379E-02
      0.150000          0.932353E-03
      0.155000          0.871355E-03
      0.160000          0.818309E-03
      0.165000          0.771240E-03
      0.170000          0.728630E-03
      0.175000          0.689341E-03
      0.180000          0.652555E-03
      0.185000          0.617703E-03
      0.190000          0.584404E-03
      0.195000          0.552420E-03
      0.200000          0.521610E-03
      0.205000          0.491903E-03
      0.210000          0.463275E-03
      0.215000          0.435734E-03
      0.220000          0.409310E-03
      0.225000          0.384050E-03
      0.230000          0.360013E-03
      0.235000          0.337268E-03
      0.240000          0.315883E-03
      0.245000          0.295931E-03
      0.250000          0.277472E-03
      0.255000          0.260558E-03
      0.260000          0.245220E-03
      0.265000          0.231466E-03
      0.270000          0.219277E-03
      0.275000          0.208604E-03
      0.280000          0.199371E-03
      0.285000          0.191475E-03
      0.290000          0.184791E-03
      0.295000          0.179177E-03
      0.300000          0.174481E-03
      0.305000          0.170550E-03
      0.310000          0.167233E-03
      0.315000          0.164393E-03
      0.320000          0.161904E-03
      0.325000          0.159662E-03
      0.330000          0.157583E-03
      0.335000          0.155601E-03
      0.340000          0.153674E-03
      0.345000          0.151772E-03
      0.350000          0.149882E-03
      0.355000          0.147999E-03
      0.360000          0.146125E-03
      0.365000          0.144262E-03
      0.370000          0.142414E-03
      0.375000          0.140582E-03
      0.380000          0.138761E-03
      0.385000          0.136943E-03
      0.390000          0.135116E-03
      0.395000          0.133264E-03
      0.400000          0.131371E-03
      0.405000          0.129420E-03
      0.410000          0.127396E-03
      0.415000          0.125288E-03
      0.420000          0.123089E-03
      0.425000          0.120797E-03
      0.430000          0.118417E-03
      0.435000          0.115960E-03
      0.440000          0.113441E-03
      0.445000          0.110879E-03
      0.450000          0.108300E-03
      0.455000          0.105727E-03
      0.460000          0.103186E-03
      0.465000          0.100705E-03
      0.470000          0.983061E-04
      0.475000          0.960120E-04
      0.480000          0.938411E-04
      0.485000          0.918088E-04
      0.490000          0.899264E-04
      0.495000          0.882017E-04
      0.500000          0.866384E-04
