 I_abs(s)[cm^-1]/c[mg/ml]
       0.00000          0.145714E-01
      0.500000E-02      0.145109E-01
      0.100000E-01      0.143313E-01
      0.150000E-01      0.140373E-01
      0.200000E-01      0.136369E-01
      0.250000E-01      0.131406E-01
      0.300000E-01      0.125614E-01
      0.350000E-01      0.119135E-01
      0.400000E-01      0.112124E-01
      0.450000E-01      0.104741E-01
      0.500000E-01      0.971430E-02
      0.550000E-01      0.894786E-02
      0.600000E-01      0.818857E-02
      0.650000E-01      0.744851E-02
      0.700000E-01      0.673790E-02
      0.750000E-01      0.606486E-02
      0.800000E-01      0.543538E-02
      0.850000E-01      0.485339E-02
      0.900000E-01      0.432089E-02
      0.950000E-01      0.383815E-02
      0.100000          0.340403E-02
      0.105000          0.301622E-02
      0.110000          0.267164E-02
      0.115000          0.236662E-02
      0.120000          0.209729E-02
      0.125000          0.185975E-02
      0.130000          0.165025E-02
      0.135000          0.146535E-02
      0.140000          0.130199E-02
      0.145000          0.115754E-02
      0.150000          0.102978E-02
      0.155000          0.916865E-03
      0.160000          0.817269E-03
      0.165000          0.729736E-03
      0.170000          0.653194E-03
      0.175000          0.586696E-03
      0.180000          0.529362E-03
      0.185000          0.480345E-03
      0.190000          0.438798E-03
      0.195000          0.403870E-03
      0.200000          0.374706E-03
      0.205000          0.350457E-03
      0.210000          0.330304E-03
      0.215000          0.313478E-03
      0.220000          0.299281E-03
      0.225000          0.287104E-03
      0.230000          0.276443E-03
      0.235000          0.266901E-03
      0.240000          0.258189E-03
      0.245000          0.250116E-03
      0.250000          0.242579E-03
      0.255000          0.235542E-03
      0.260000          0.229016E-03
      0.265000          0.223039E-03
      0.270000          0.217659E-03
      0.275000          0.212913E-03
      0.280000          0.208817E-03
      0.285000          0.205355E-03
      0.290000          0.202480E-03
      0.295000          0.200108E-03
      0.300000          0.198127E-03
      0.305000          0.196404E-03
      0.310000          0.194793E-03
      0.315000          0.193145E-03
      0.320000          0.191320E-03
      0.325000          0.189195E-03
      0.330000          0.186675E-03
      0.335000          0.183693E-03
      0.340000          0.180217E-03
      0.345000          0.176249E-03
      0.350000          0.171823E-03
      0.355000          0.167001E-03
      0.360000          0.161866E-03
      0.365000          0.156516E-03
      0.370000          0.151058E-03
      0.375000          0.145597E-03
      0.380000          0.140234E-03
      0.385000          0.135056E-03
      0.390000          0.130135E-03
      0.395000          0.125524E-03
      0.400000          0.121258E-03
      0.405000          0.117353E-03
      0.410000          0.113808E-03
      0.415000          0.110610E-03
      0.420000          0.107734E-03
      0.425000          0.105151E-03
      0.430000          0.102831E-03
      0.435000          0.100743E-03
      0.440000          0.988592E-04
      0.445000          0.971593E-04
      0.450000          0.956273E-04
      0.455000          0.942533E-04
      0.460000          0.930315E-04
      0.465000          0.919594E-04
      0.470000          0.910350E-04
      0.475000          0.902556E-04
      0.480000          0.896153E-04
      0.485000          0.891041E-04
      0.490000          0.887072E-04
      0.495000          0.884048E-04
      0.500000          0.881725E-04
