 I_abs(s)[cm^-1]/c[mg/ml]
       0.00000          0.145634E-01
      0.500000E-02      0.144971E-01
      0.100000E-01      0.143000E-01
      0.150000E-01      0.139777E-01
      0.200000E-01      0.135392E-01
      0.250000E-01      0.129966E-01
      0.300000E-01      0.123645E-01
      0.350000E-01      0.116594E-01
      0.400000E-01      0.108990E-01
      0.450000E-01      0.101015E-01
      0.500000E-01      0.928506E-02
      0.550000E-01      0.846672E-02
      0.600000E-01      0.766230E-02
      0.650000E-01      0.688565E-02
      0.700000E-01      0.614834E-02
      0.750000E-01      0.545947E-02
      0.800000E-01      0.482556E-02
      0.850000E-01      0.425058E-02
      0.900000E-01      0.373609E-02
      0.950000E-01      0.328152E-02
      0.100000          0.288448E-02
      0.105000          0.254111E-02
      0.110000          0.224652E-02
      0.115000          0.199514E-02
      0.120000          0.178114E-02
      0.125000          0.159872E-02
      0.130000          0.144240E-02
      0.135000          0.130725E-02
      0.140000          0.118897E-02
      0.145000          0.108407E-02
      0.150000          0.989767E-03
      0.155000          0.904031E-03
      0.160000          0.825466E-03
      0.165000          0.753212E-03
      0.170000          0.686819E-03
      0.175000          0.626120E-03
      0.180000          0.571112E-03
      0.185000          0.521845E-03
      0.190000          0.478345E-03
      0.195000          0.440546E-03
      0.200000          0.408262E-03
      0.205000          0.381169E-03
      0.210000          0.358817E-03
      0.215000          0.340655E-03
      0.220000          0.326061E-03
      0.225000          0.314387E-03
      0.230000          0.304994E-03
      0.235000          0.297291E-03
      0.240000          0.290763E-03
      0.245000          0.284987E-03
      0.250000          0.279645E-03
      0.255000          0.274520E-03
      0.260000          0.269490E-03
      0.265000          0.264509E-03
      0.270000          0.259589E-03
      0.275000          0.254775E-03
      0.280000          0.250129E-03
      0.285000          0.245705E-03
      0.290000          0.241537E-03
      0.295000          0.237631E-03
      0.300000          0.233958E-03
      0.305000          0.230457E-03
      0.310000          0.227037E-03
      0.315000          0.223589E-03
      0.320000          0.219997E-03
      0.325000          0.216146E-03
      0.330000          0.211937E-03
      0.335000          0.207293E-03
      0.340000          0.202172E-03
      0.345000          0.196563E-03
      0.350000          0.190491E-03
      0.355000          0.184018E-03
      0.360000          0.177233E-03
      0.365000          0.170246E-03
      0.370000          0.163183E-03
      0.375000          0.156174E-03
      0.380000          0.149348E-03
      0.385000          0.142820E-03
      0.390000          0.136692E-03
      0.395000          0.131039E-03
      0.400000          0.125918E-03
      0.405000          0.121357E-03
      0.410000          0.117362E-03
      0.415000          0.113916E-03
      0.420000          0.110987E-03
      0.425000          0.108526E-03
      0.430000          0.106479E-03
      0.435000          0.104785E-03
      0.440000          0.103384E-03
      0.445000          0.102217E-03
      0.450000          0.101232E-03
      0.455000          0.100385E-03
      0.460000          0.996388E-04
      0.465000          0.989638E-04
      0.470000          0.983387E-04
      0.475000          0.977483E-04
      0.480000          0.971824E-04
      0.485000          0.966343E-04
      0.490000          0.960997E-04
      0.495000          0.955753E-04
      0.500000          0.950577E-04
