 I_abs(s)[cm^-1]/c[mg/ml]
       0.00000          0.144525E-01
      0.500000E-02      0.143922E-01
      0.100000E-01      0.142128E-01
      0.150000E-01      0.139191E-01
      0.200000E-01      0.135187E-01
      0.250000E-01      0.130218E-01
      0.300000E-01      0.124409E-01
      0.350000E-01      0.117900E-01
      0.400000E-01      0.110842E-01
      0.450000E-01      0.103392E-01
      0.500000E-01      0.957045E-02
      0.550000E-01      0.879298E-02
      0.600000E-01      0.802061E-02
      0.650000E-01      0.726574E-02
      0.700000E-01      0.653902E-02
      0.750000E-01      0.584913E-02
      0.800000E-01      0.520276E-02
      0.850000E-01      0.460460E-02
      0.900000E-01      0.405742E-02
      0.950000E-01      0.356228E-02
      0.100000          0.311876E-02
      0.105000          0.272518E-02
      0.110000          0.237892E-02
      0.115000          0.207664E-02
      0.120000          0.181458E-02
      0.125000          0.158879E-02
      0.130000          0.139525E-02
      0.135000          0.123008E-02
      0.140000          0.108963E-02
      0.145000          0.970518E-03
      0.150000          0.869710E-03
      0.155000          0.784493E-03
      0.160000          0.712475E-03
      0.165000          0.651564E-03
      0.170000          0.599931E-03
      0.175000          0.555987E-03
      0.180000          0.518351E-03
      0.185000          0.485829E-03
      0.190000          0.457395E-03
      0.195000          0.432183E-03
      0.200000          0.409478E-03
      0.205000          0.388708E-03
      0.210000          0.369439E-03
      0.215000          0.351369E-03
      0.220000          0.334313E-03
      0.225000          0.318192E-03
      0.230000          0.303010E-03
      0.235000          0.288835E-03
      0.240000          0.275774E-03
      0.245000          0.263948E-03
      0.250000          0.253472E-03
      0.255000          0.244435E-03
      0.260000          0.236882E-03
      0.265000          0.230812E-03
      0.270000          0.226165E-03
      0.275000          0.222833E-03
      0.280000          0.220662E-03
      0.285000          0.219461E-03
      0.290000          0.219021E-03
      0.295000          0.219124E-03
      0.300000          0.219558E-03
      0.305000          0.220126E-03
      0.310000          0.220658E-03
      0.315000          0.221016E-03
      0.320000          0.221093E-03
      0.325000          0.220814E-03
      0.330000          0.220132E-03
      0.335000          0.219020E-03
      0.340000          0.217469E-03
      0.345000          0.215478E-03
      0.350000          0.213048E-03
      0.355000          0.210183E-03
      0.360000          0.206879E-03
      0.365000          0.203134E-03
      0.370000          0.198941E-03
      0.375000          0.194296E-03
      0.380000          0.189201E-03
      0.385000          0.183668E-03
      0.390000          0.177721E-03
      0.395000          0.171403E-03
      0.400000          0.164773E-03
      0.405000          0.157910E-03
      0.410000          0.150909E-03
      0.415000          0.143877E-03
      0.420000          0.136929E-03
      0.425000          0.130183E-03
      0.430000          0.123754E-03
      0.435000          0.117744E-03
      0.440000          0.112243E-03
      0.445000          0.107319E-03
      0.450000          0.103017E-03
      0.455000          0.993584E-04
      0.460000          0.963389E-04
      0.465000          0.939321E-04
      0.470000          0.920914E-04
      0.475000          0.907542E-04
      0.480000          0.898462E-04
      0.485000          0.892864E-04
      0.490000          0.889919E-04
      0.495000          0.888819E-04
      0.500000          0.888817E-04
