 I_abs(s)[cm^-1]/c[mg/ml]
       0.00000          0.138734E-01
      0.500000E-02      0.138039E-01
      0.100000E-01      0.135978E-01
      0.150000E-01      0.132616E-01
      0.200000E-01      0.128060E-01
      0.250000E-01      0.122452E-01
      0.300000E-01      0.115962E-01
      0.350000E-01      0.108781E-01
      0.400000E-01      0.101108E-01
      0.450000E-01      0.931468E-02
      0.500000E-01      0.850938E-02
      0.550000E-01      0.771305E-02
      0.600000E-01      0.694178E-02
      0.650000E-01      0.620901E-02
      0.700000E-01      0.552531E-02
      0.750000E-01      0.489816E-02
      0.800000E-01      0.433202E-02
      0.850000E-01      0.382853E-02
      0.900000E-01      0.338680E-02
      0.950000E-01      0.300386E-02
      0.100000          0.267512E-02
      0.105000          0.239490E-02
      0.110000          0.215687E-02
      0.115000          0.195456E-02
      0.120000          0.178170E-02
      0.125000          0.163253E-02
      0.130000          0.150205E-02
      0.135000          0.138608E-02
      0.140000          0.128137E-02
      0.145000          0.118548E-02
      0.150000          0.109679E-02
      0.155000          0.101428E-02
      0.160000          0.937435E-03
      0.165000          0.866082E-03
      0.170000          0.800225E-03
      0.175000          0.739937E-03
      0.180000          0.685261E-03
      0.185000          0.636140E-03
      0.190000          0.592391E-03
      0.195000          0.553690E-03
      0.200000          0.519592E-03
      0.205000          0.489563E-03
      0.210000          0.463017E-03
      0.215000          0.439363E-03
      0.220000          0.418041E-03
      0.225000          0.398555E-03
      0.230000          0.380495E-03
      0.235000          0.363546E-03
      0.240000          0.347492E-03
      0.245000          0.332199E-03
      0.250000          0.317609E-03
      0.255000          0.303711E-03
      0.260000          0.290527E-03
      0.265000          0.278089E-03
      0.270000          0.266424E-03
      0.275000          0.255543E-03
      0.280000          0.245435E-03
      0.285000          0.236065E-03
      0.290000          0.227377E-03
      0.295000          0.219298E-03
      0.300000          0.211751E-03
      0.305000          0.204655E-03
      0.310000          0.197939E-03
      0.315000          0.191545E-03
      0.320000          0.185431E-03
      0.325000          0.179574E-03
      0.330000          0.173966E-03
      0.335000          0.168613E-03
      0.340000          0.163529E-03
      0.345000          0.158732E-03
      0.350000          0.154240E-03
      0.355000          0.150065E-03
      0.360000          0.146208E-03
      0.365000          0.142661E-03
      0.370000          0.139402E-03
      0.375000          0.136400E-03
      0.380000          0.133615E-03
      0.385000          0.130997E-03
      0.390000          0.128497E-03
      0.395000          0.126064E-03
      0.400000          0.123650E-03
      0.405000          0.121214E-03
      0.410000          0.118722E-03
      0.415000          0.116150E-03
      0.420000          0.113483E-03
      0.425000          0.110718E-03
      0.430000          0.107859E-03
      0.435000          0.104920E-03
      0.440000          0.101921E-03
      0.445000          0.988874E-04
      0.450000          0.958495E-04
      0.455000          0.928383E-04
      0.460000          0.898860E-04
      0.465000          0.870244E-04
      0.470000          0.842828E-04
      0.475000          0.816882E-04
      0.480000          0.792631E-04
      0.485000          0.770260E-04
      0.490000          0.749898E-04
      0.495000          0.731622E-04
      0.500000          0.715452E-04
