 I_abs(s)[cm^-1]/c[mg/ml]
       0.00000          0.144446E-01
      0.500000E-02      0.143769E-01
      0.100000E-01      0.141757E-01
      0.150000E-01      0.138468E-01
      0.200000E-01      0.133995E-01
      0.250000E-01      0.128463E-01
      0.300000E-01      0.122022E-01
      0.350000E-01      0.114842E-01
      0.400000E-01      0.107104E-01
      0.450000E-01      0.989972E-02
      0.500000E-01      0.907048E-02
      0.550000E-01      0.824030E-02
      0.600000E-01      0.742529E-02
      0.650000E-01      0.663959E-02
      0.700000E-01      0.589504E-02
      0.750000E-01      0.520098E-02
      0.800000E-01      0.456414E-02
      0.850000E-01      0.398872E-02
      0.900000E-01      0.347650E-02
      0.950000E-01      0.302714E-02
      0.100000          0.263846E-02
      0.105000          0.230685E-02
      0.110000          0.202755E-02
      0.115000          0.179510E-02
      0.120000          0.160368E-02
      0.125000          0.144736E-02
      0.130000          0.132038E-02
      0.135000          0.121737E-02
      0.140000          0.113346E-02
      0.145000          0.106435E-02
      0.150000          0.100639E-02
      0.155000          0.956538E-03
      0.160000          0.912356E-03
      0.165000          0.871934E-03
      0.170000          0.833835E-03
      0.175000          0.797023E-03
      0.180000          0.760797E-03
      0.185000          0.724722E-03
      0.190000          0.688583E-03
      0.195000          0.652330E-03
      0.200000          0.616046E-03
      0.205000          0.579910E-03
      0.210000          0.544176E-03
      0.215000          0.509144E-03
      0.220000          0.475143E-03
      0.225000          0.442508E-03
      0.230000          0.411562E-03
      0.235000          0.382595E-03
      0.240000          0.355851E-03
      0.245000          0.331508E-03
      0.250000          0.309672E-03
      0.255000          0.290368E-03
      0.260000          0.273539E-03
      0.265000          0.259052E-03
      0.270000          0.246706E-03
      0.275000          0.236245E-03
      0.280000          0.227380E-03
      0.285000          0.219802E-03
      0.290000          0.213208E-03
      0.295000          0.207312E-03
      0.300000          0.201868E-03
      0.305000          0.196674E-03
      0.310000          0.191585E-03
      0.315000          0.186511E-03
      0.320000          0.181415E-03
      0.325000          0.176307E-03
      0.330000          0.171232E-03
      0.335000          0.166259E-03
      0.340000          0.161468E-03
      0.345000          0.156938E-03
      0.350000          0.152733E-03
      0.355000          0.148899E-03
      0.360000          0.145453E-03
      0.365000          0.142385E-03
      0.370000          0.139656E-03
      0.375000          0.137205E-03
      0.380000          0.134953E-03
      0.385000          0.132807E-03
      0.390000          0.130677E-03
      0.395000          0.128474E-03
      0.400000          0.126124E-03
      0.405000          0.123571E-03
      0.410000          0.120779E-03
      0.415000          0.117738E-03
      0.420000          0.114460E-03
      0.425000          0.110979E-03
      0.430000          0.107348E-03
      0.435000          0.103632E-03
      0.440000          0.999061E-04
      0.445000          0.962463E-04
      0.450000          0.927280E-04
      0.455000          0.894195E-04
      0.460000          0.863790E-04
      0.465000          0.836519E-04
      0.470000          0.812687E-04
      0.475000          0.792453E-04
      0.480000          0.775830E-04
      0.485000          0.762696E-04
      0.490000          0.752815E-04
      0.495000          0.745860E-04
      0.500000          0.741432E-04
