 I_abs(s)[cm^-1]/c[mg/ml]
       0.00000          0.144604E-01
      0.500000E-02      0.143845E-01
      0.100000E-01      0.141596E-01
      0.150000E-01      0.137936E-01
      0.200000E-01      0.132995E-01
      0.250000E-01      0.126945E-01
      0.300000E-01      0.119986E-01
      0.350000E-01      0.112342E-01
      0.400000E-01      0.104244E-01
      0.450000E-01      0.959196E-02
      0.500000E-01      0.875838E-02
      0.550000E-01      0.794282E-02
      0.600000E-01      0.716148E-02
      0.650000E-01      0.642708E-02
      0.700000E-01      0.574870E-02
      0.750000E-01      0.513181E-02
      0.800000E-01      0.457850E-02
      0.850000E-01      0.408793E-02
      0.900000E-01      0.365688E-02
      0.950000E-01      0.328039E-02
      0.100000          0.295238E-02
      0.105000          0.266628E-02
      0.110000          0.241553E-02
      0.115000          0.219405E-02
      0.120000          0.199647E-02
      0.125000          0.181837E-02
      0.130000          0.165634E-02
      0.135000          0.150787E-02
      0.140000          0.137131E-02
      0.145000          0.124564E-02
      0.150000          0.113033E-02
      0.155000          0.102511E-02
      0.160000          0.929814E-03
      0.165000          0.844258E-03
      0.170000          0.768128E-03
      0.175000          0.700942E-03
      0.180000          0.642044E-03
      0.185000          0.590627E-03
      0.190000          0.545782E-03
      0.195000          0.506556E-03
      0.200000          0.472017E-03
      0.205000          0.441307E-03
      0.210000          0.413681E-03
      0.215000          0.388538E-03
      0.220000          0.365424E-03
      0.225000          0.344031E-03
      0.230000          0.324171E-03
      0.235000          0.305754E-03
      0.240000          0.288755E-03
      0.245000          0.273187E-03
      0.250000          0.259068E-03
      0.255000          0.246408E-03
      0.260000          0.235190E-03
      0.265000          0.225367E-03
      0.270000          0.216858E-03
      0.275000          0.209556E-03
      0.280000          0.203329E-03
      0.285000          0.198033E-03
      0.290000          0.193518E-03
      0.295000          0.189634E-03
      0.300000          0.186234E-03
      0.305000          0.183182E-03
      0.310000          0.180354E-03
      0.315000          0.177634E-03
      0.320000          0.174924E-03
      0.325000          0.172136E-03
      0.330000          0.169200E-03
      0.335000          0.166063E-03
      0.340000          0.162689E-03
      0.345000          0.159065E-03
      0.350000          0.155198E-03
      0.355000          0.151117E-03
      0.360000          0.146872E-03
      0.365000          0.142529E-03
      0.370000          0.138168E-03
      0.375000          0.133877E-03
      0.380000          0.129747E-03
      0.385000          0.125863E-03
      0.390000          0.122300E-03
      0.395000          0.119116E-03
      0.400000          0.116350E-03
      0.405000          0.114019E-03
      0.410000          0.112114E-03
      0.415000          0.110609E-03
      0.420000          0.109455E-03
      0.425000          0.108591E-03
      0.430000          0.107945E-03
      0.435000          0.107440E-03
      0.440000          0.107000E-03
      0.445000          0.106557E-03
      0.450000          0.106049E-03
      0.455000          0.105430E-03
      0.460000          0.104666E-03
      0.465000          0.103739E-03
      0.470000          0.102646E-03
      0.475000          0.101398E-03
      0.480000          0.100017E-03
      0.485000          0.985321E-04
      0.490000          0.969809E-04
      0.495000          0.954019E-04
      0.500000          0.938339E-04
