 I_abs(s)[cm^-1]/c[mg/ml]
       0.00000          0.140599E-01
      0.500000E-02      0.139934E-01
      0.100000E-01      0.137957E-01
      0.150000E-01      0.134728E-01
      0.200000E-01      0.130345E-01
      0.250000E-01      0.124937E-01
      0.300000E-01      0.118657E-01
      0.350000E-01      0.111679E-01
      0.400000E-01      0.104188E-01
      0.450000E-01      0.963712E-02
      0.500000E-01      0.884106E-02
      0.550000E-01      0.804776E-02
      0.600000E-01      0.727260E-02
      0.650000E-01      0.652881E-02
      0.700000E-01      0.582709E-02
      0.750000E-01      0.517556E-02
      0.800000E-01      0.457966E-02
      0.850000E-01      0.404236E-02
      0.900000E-01      0.356432E-02
      0.950000E-01      0.314425E-02
      0.100000          0.277926E-02
      0.105000          0.246526E-02
      0.110000          0.219732E-02
      0.115000          0.197006E-02
      0.120000          0.177797E-02
      0.125000          0.161566E-02
      0.130000          0.147809E-02
      0.135000          0.136069E-02
      0.140000          0.125946E-02
      0.145000          0.117104E-02
      0.150000          0.109263E-02
      0.155000          0.102206E-02
      0.160000          0.957609E-03
      0.165000          0.898044E-03
      0.170000          0.842474E-03
      0.175000          0.790298E-03
      0.180000          0.741131E-03
      0.185000          0.694741E-03
      0.190000          0.650994E-03
      0.195000          0.609815E-03
      0.200000          0.571154E-03
      0.205000          0.534958E-03
      0.210000          0.501165E-03
      0.215000          0.469688E-03
      0.220000          0.440416E-03
      0.225000          0.413214E-03
      0.230000          0.387932E-03
      0.235000          0.364411E-03
      0.240000          0.342490E-03
      0.245000          0.322022E-03
      0.250000          0.302873E-03
      0.255000          0.284938E-03
      0.260000          0.268139E-03
      0.265000          0.252426E-03
      0.270000          0.237779E-03
      0.275000          0.224199E-03
      0.280000          0.211702E-03
      0.285000          0.200309E-03
      0.290000          0.190037E-03
      0.295000          0.180888E-03
      0.300000          0.172844E-03
      0.305000          0.165858E-03
      0.310000          0.159855E-03
      0.315000          0.154732E-03
      0.320000          0.150361E-03
      0.325000          0.146597E-03
      0.330000          0.143287E-03
      0.335000          0.140282E-03
      0.340000          0.137444E-03
      0.345000          0.134655E-03
      0.350000          0.131825E-03
      0.355000          0.128896E-03
      0.360000          0.125843E-03
      0.365000          0.122669E-03
      0.370000          0.119406E-03
      0.375000          0.116102E-03
      0.380000          0.112820E-03
      0.385000          0.109625E-03
      0.390000          0.106575E-03
      0.395000          0.103723E-03
      0.400000          0.101105E-03
      0.405000          0.987382E-04
      0.410000          0.966272E-04
      0.415000          0.947598E-04
      0.420000          0.931127E-04
      0.425000          0.916561E-04
      0.430000          0.903578E-04
      0.435000          0.891877E-04
      0.440000          0.881212E-04
      0.445000          0.871416E-04
      0.450000          0.862413E-04
      0.455000          0.854210E-04
      0.460000          0.846883E-04
      0.465000          0.840554E-04
      0.470000          0.835361E-04
      0.475000          0.831429E-04
      0.480000          0.828842E-04
      0.485000          0.827624E-04
      0.490000          0.827727E-04
      0.495000          0.829030E-04
      0.500000          0.831341E-04
