 I_abs(s)[cm^-1]/c[mg/ml]
       0.00000          0.136113E-01
      0.500000E-02      0.135280E-01
      0.100000E-01      0.132816E-01
      0.150000E-01      0.128818E-01
      0.200000E-01      0.123445E-01
      0.250000E-01      0.116904E-01
      0.300000E-01      0.109438E-01
      0.350000E-01      0.101314E-01
      0.400000E-01      0.928050E-02
      0.450000E-01      0.841783E-02
      0.500000E-01      0.756795E-02
      0.550000E-01      0.675223E-02
      0.600000E-01      0.598806E-02
      0.650000E-01      0.528831E-02
      0.700000E-01      0.466117E-02
      0.750000E-01      0.411030E-02
      0.800000E-01      0.363526E-02
      0.850000E-01      0.323216E-02
      0.900000E-01      0.289444E-02
      0.950000E-01      0.261372E-02
      0.100000          0.238068E-02
      0.105000          0.218584E-02
      0.110000          0.202019E-02
      0.115000          0.187577E-02
      0.120000          0.174593E-02
      0.125000          0.162555E-02
      0.130000          0.151108E-02
      0.135000          0.140034E-02
      0.140000          0.129241E-02
      0.145000          0.118728E-02
      0.150000          0.108562E-02
      0.155000          0.988460E-03
      0.160000          0.896954E-03
      0.165000          0.812174E-03
      0.170000          0.734967E-03
      0.175000          0.665870E-03
      0.180000          0.605078E-03
      0.185000          0.552456E-03
      0.190000          0.507585E-03
      0.195000          0.469824E-03
      0.200000          0.438382E-03
      0.205000          0.412389E-03
      0.210000          0.390957E-03
      0.215000          0.373228E-03
      0.220000          0.358409E-03
      0.225000          0.345793E-03
      0.230000          0.334774E-03
      0.235000          0.324840E-03
      0.240000          0.315579E-03
      0.245000          0.306668E-03
      0.250000          0.297867E-03
      0.255000          0.289010E-03
      0.260000          0.280004E-03
      0.265000          0.270813E-03
      0.270000          0.261460E-03
      0.275000          0.252008E-03
      0.280000          0.242560E-03
      0.285000          0.233238E-03
      0.290000          0.224175E-03
      0.295000          0.215501E-03
      0.300000          0.207331E-03
      0.305000          0.199754E-03
      0.310000          0.192825E-03
      0.315000          0.186562E-03
      0.320000          0.180948E-03
      0.325000          0.175932E-03
      0.330000          0.171436E-03
      0.335000          0.167369E-03
      0.340000          0.163632E-03
      0.345000          0.160132E-03
      0.350000          0.156789E-03
      0.355000          0.153548E-03
      0.360000          0.150376E-03
      0.365000          0.147267E-03
      0.370000          0.144243E-03
      0.375000          0.141341E-03
      0.380000          0.138616E-03
      0.385000          0.136123E-03
      0.390000          0.133917E-03
      0.395000          0.132041E-03
      0.400000          0.130520E-03
      0.405000          0.129356E-03
      0.410000          0.128528E-03
      0.415000          0.127988E-03
      0.420000          0.127669E-03
      0.425000          0.127483E-03
      0.430000          0.127332E-03
      0.435000          0.127113E-03
      0.440000          0.126727E-03
      0.445000          0.126084E-03
      0.450000          0.125112E-03
      0.455000          0.123763E-03
      0.460000          0.122014E-03
      0.465000          0.119871E-03
      0.470000          0.117369E-03
      0.475000          0.114568E-03
      0.480000          0.111547E-03
      0.485000          0.108402E-03
      0.490000          0.105235E-03
      0.495000          0.102149E-03
      0.500000          0.992353E-04
