 I_abs(s)[cm^-1]/c[mg/ml]
       0.00000          0.143815E-01
      0.500000E-02      0.143223E-01
      0.100000E-01      0.141463E-01
      0.150000E-01      0.138579E-01
      0.200000E-01      0.134644E-01
      0.250000E-01      0.129757E-01
      0.300000E-01      0.124034E-01
      0.350000E-01      0.117613E-01
      0.400000E-01      0.110640E-01
      0.450000E-01      0.103266E-01
      0.500000E-01      0.956456E-02
      0.550000E-01      0.879270E-02
      0.600000E-01      0.802494E-02
      0.650000E-01      0.727391E-02
      0.700000E-01      0.655057E-02
      0.750000E-01      0.586405E-02
      0.800000E-01      0.522148E-02
      0.850000E-01      0.462797E-02
      0.900000E-01      0.408665E-02
      0.950000E-01      0.359884E-02
      0.100000          0.316419E-02
      0.105000          0.278097E-02
      0.110000          0.244628E-02
      0.115000          0.215643E-02
      0.120000          0.190711E-02
      0.125000          0.169374E-02
      0.130000          0.151167E-02
      0.135000          0.135638E-02
      0.140000          0.122365E-02
      0.145000          0.110967E-02
      0.150000          0.101109E-02
      0.155000          0.925080E-03
      0.160000          0.849321E-03
      0.165000          0.781958E-03
      0.170000          0.721564E-03
      0.175000          0.667066E-03
      0.180000          0.617682E-03
      0.185000          0.572844E-03
      0.190000          0.532140E-03
      0.195000          0.495251E-03
      0.200000          0.461908E-03
      0.205000          0.431862E-03
      0.210000          0.404860E-03
      0.215000          0.380632E-03
      0.220000          0.358897E-03
      0.225000          0.339360E-03
      0.230000          0.321728E-03
      0.235000          0.305717E-03
      0.240000          0.291068E-03
      0.245000          0.277553E-03
      0.250000          0.264985E-03
      0.255000          0.253220E-03
      0.260000          0.242159E-03
      0.265000          0.231746E-03
      0.270000          0.221957E-03
      0.275000          0.212798E-03
      0.280000          0.204291E-03
      0.285000          0.196469E-03
      0.290000          0.189361E-03
      0.295000          0.182991E-03
      0.300000          0.177367E-03
      0.305000          0.172478E-03
      0.310000          0.168290E-03
      0.315000          0.164752E-03
      0.320000          0.161790E-03
      0.325000          0.159316E-03
      0.330000          0.157231E-03
      0.335000          0.155427E-03
      0.340000          0.153799E-03
      0.345000          0.152242E-03
      0.350000          0.150664E-03
      0.355000          0.148983E-03
      0.360000          0.147137E-03
      0.365000          0.145079E-03
      0.370000          0.142782E-03
      0.375000          0.140240E-03
      0.380000          0.137461E-03
      0.385000          0.134473E-03
      0.390000          0.131313E-03
      0.395000          0.128032E-03
      0.400000          0.124684E-03
      0.405000          0.121328E-03
      0.410000          0.118023E-03
      0.415000          0.114822E-03
      0.420000          0.111774E-03
      0.425000          0.108922E-03
      0.430000          0.106294E-03
      0.435000          0.103913E-03
      0.440000          0.101788E-03
      0.445000          0.999188E-04
      0.450000          0.982958E-04
      0.455000          0.969008E-04
      0.460000          0.957088E-04
      0.465000          0.946898E-04
      0.470000          0.938104E-04
      0.475000          0.930359E-04
      0.480000          0.923313E-04
      0.485000          0.916636E-04
      0.490000          0.910021E-04
      0.495000          0.903200E-04
      0.500000          0.895950E-04
