 I_abs(s)[cm^-1]/c[mg/ml]
       0.00000          0.144921E-01
      0.500000E-02      0.144238E-01
      0.100000E-01      0.142209E-01
      0.150000E-01      0.138901E-01
      0.200000E-01      0.134418E-01
      0.250000E-01      0.128898E-01
      0.300000E-01      0.122505E-01
      0.350000E-01      0.115425E-01
      0.400000E-01      0.107849E-01
      0.450000E-01      0.999705E-02
      0.500000E-01      0.919763E-02
      0.550000E-01      0.840362E-02
      0.600000E-01      0.762995E-02
      0.650000E-01      0.688899E-02
      0.700000E-01      0.619035E-02
      0.750000E-01      0.554078E-02
      0.800000E-01      0.494430E-02
      0.850000E-01      0.440246E-02
      0.900000E-01      0.391467E-02
      0.950000E-01      0.347865E-02
      0.100000          0.309090E-02
      0.105000          0.274713E-02
      0.110000          0.244270E-02
      0.115000          0.217296E-02
      0.120000          0.193354E-02
      0.125000          0.172053E-02
      0.130000          0.153059E-02
      0.135000          0.136097E-02
      0.140000          0.120948E-02
      0.145000          0.107443E-02
      0.150000          0.954483E-03
      0.155000          0.848542E-03
      0.160000          0.755659E-03
      0.165000          0.674919E-03
      0.170000          0.605377E-03
      0.175000          0.546016E-03
      0.180000          0.495737E-03
      0.185000          0.453376E-03
      0.190000          0.417737E-03
      0.195000          0.387641E-03
      0.200000          0.361975E-03
      0.205000          0.339741E-03
      0.210000          0.320092E-03
      0.215000          0.302357E-03
      0.220000          0.286051E-03
      0.225000          0.270866E-03
      0.230000          0.256653E-03
      0.235000          0.243391E-03
      0.240000          0.231147E-03
      0.245000          0.220040E-03
      0.250000          0.210203E-03
      0.255000          0.201748E-03
      0.260000          0.194744E-03
      0.265000          0.189198E-03
      0.270000          0.185051E-03
      0.275000          0.182177E-03
      0.280000          0.180395E-03
      0.285000          0.179479E-03
      0.290000          0.179178E-03
      0.295000          0.179231E-03
      0.300000          0.179390E-03
      0.305000          0.179429E-03
      0.310000          0.179156E-03
      0.315000          0.178425E-03
      0.320000          0.177137E-03
      0.325000          0.175237E-03
      0.330000          0.172717E-03
      0.335000          0.169605E-03
      0.340000          0.165961E-03
      0.345000          0.161869E-03
      0.350000          0.157427E-03
      0.355000          0.152741E-03
      0.360000          0.147918E-03
      0.365000          0.143060E-03
      0.370000          0.138260E-03
      0.375000          0.133598E-03
      0.380000          0.129140E-03
      0.385000          0.124936E-03
      0.390000          0.121023E-03
      0.395000          0.117419E-03
      0.400000          0.114133E-03
      0.405000          0.111159E-03
      0.410000          0.108484E-03
      0.415000          0.106086E-03
      0.420000          0.103938E-03
      0.425000          0.102010E-03
      0.430000          0.100272E-03
      0.435000          0.986921E-04
      0.440000          0.972423E-04
      0.445000          0.958967E-04
      0.450000          0.946329E-04
      0.455000          0.934325E-04
      0.460000          0.922808E-04
      0.465000          0.911669E-04
      0.470000          0.900832E-04
      0.475000          0.890248E-04
      0.480000          0.879891E-04
      0.485000          0.869749E-04
      0.490000          0.859823E-04
      0.495000          0.850118E-04
      0.500000          0.840640E-04
