 I_abs(s)[cm^-1]/c[mg/ml]
       0.00000          0.142949E-01
      0.500000E-02      0.142342E-01
      0.100000E-01      0.140539E-01
      0.150000E-01      0.137585E-01
      0.200000E-01      0.133557E-01
      0.250000E-01      0.128557E-01
      0.300000E-01      0.122709E-01
      0.350000E-01      0.116153E-01
      0.400000E-01      0.109043E-01
      0.450000E-01      0.101536E-01
      0.500000E-01      0.937917E-02
      0.550000E-01      0.859631E-02
      0.600000E-01      0.781943E-02
      0.650000E-01      0.706148E-02
      0.700000E-01      0.633372E-02
      0.750000E-01      0.564546E-02
      0.800000E-01      0.500395E-02
      0.850000E-01      0.441435E-02
      0.900000E-01      0.387975E-02
      0.950000E-01      0.340140E-02
      0.100000          0.297883E-02
      0.105000          0.261013E-02
      0.110000          0.229222E-02
      0.115000          0.202114E-02
      0.120000          0.179234E-02
      0.125000          0.160091E-02
      0.130000          0.144186E-02
      0.135000          0.131030E-02
      0.140000          0.120158E-02
      0.145000          0.111143E-02
      0.150000          0.103606E-02
      0.155000          0.972149E-03
      0.160000          0.916901E-03
      0.165000          0.868016E-03
      0.170000          0.823659E-03
      0.175000          0.782419E-03
      0.180000          0.743250E-03
      0.185000          0.705423E-03
      0.190000          0.668469E-03
      0.195000          0.632128E-03
      0.200000          0.596304E-03
      0.205000          0.561024E-03
      0.210000          0.526405E-03
      0.215000          0.492623E-03
      0.220000          0.459889E-03
      0.225000          0.428429E-03
      0.230000          0.398465E-03
      0.235000          0.370204E-03
      0.240000          0.343820E-03
      0.245000          0.319452E-03
      0.250000          0.297191E-03
      0.255000          0.277078E-03
      0.260000          0.259102E-03
      0.265000          0.243203E-03
      0.270000          0.229273E-03
      0.275000          0.217165E-03
      0.280000          0.206699E-03
      0.285000          0.197673E-03
      0.290000          0.189876E-03
      0.295000          0.183094E-03
      0.300000          0.177124E-03
      0.305000          0.171783E-03
      0.310000          0.166912E-03
      0.315000          0.162383E-03
      0.320000          0.158099E-03
      0.325000          0.153997E-03
      0.330000          0.150043E-03
      0.335000          0.146227E-03
      0.340000          0.142559E-03
      0.345000          0.139063E-03
      0.350000          0.135768E-03
      0.355000          0.132704E-03
      0.360000          0.129895E-03
      0.365000          0.127356E-03
      0.370000          0.125089E-03
      0.375000          0.123084E-03
      0.380000          0.121317E-03
      0.385000          0.119753E-03
      0.390000          0.118349E-03
      0.395000          0.117055E-03
      0.400000          0.115821E-03
      0.405000          0.114597E-03
      0.410000          0.113339E-03
      0.415000          0.112011E-03
      0.420000          0.110586E-03
      0.425000          0.109046E-03
      0.430000          0.107386E-03
      0.435000          0.105611E-03
      0.440000          0.103733E-03
      0.445000          0.101775E-03
      0.450000          0.997606E-04
      0.455000          0.977211E-04
      0.460000          0.956874E-04
      0.465000          0.936902E-04
      0.470000          0.917583E-04
      0.475000          0.899177E-04
      0.480000          0.881904E-04
      0.485000          0.865939E-04
      0.490000          0.851413E-04
      0.495000          0.838408E-04
      0.500000          0.826962E-04
