 I_abs(s)[cm^-1]/c[mg/ml]
       0.00000          0.145159E-01
      0.500000E-02      0.144465E-01
      0.100000E-01      0.142405E-01
      0.150000E-01      0.139037E-01
      0.200000E-01      0.134456E-01
      0.250000E-01      0.128788E-01
      0.300000E-01      0.122187E-01
      0.350000E-01      0.114828E-01
      0.400000E-01      0.106898E-01
      0.450000E-01      0.985900E-02
      0.500000E-01      0.900956E-02
      0.550000E-01      0.815985E-02
      0.600000E-01      0.732674E-02
      0.650000E-01      0.652516E-02
      0.700000E-01      0.576766E-02
      0.750000E-01      0.506417E-02
      0.800000E-01      0.442188E-02
      0.850000E-01      0.384523E-02
      0.900000E-01      0.333605E-02
      0.950000E-01      0.289378E-02
      0.100000          0.251582E-02
      0.105000          0.219787E-02
      0.110000          0.193435E-02
      0.115000          0.171884E-02
      0.120000          0.154446E-02
      0.125000          0.140423E-02
      0.130000          0.129142E-02
      0.135000          0.119980E-02
      0.140000          0.112383E-02
      0.145000          0.105878E-02
      0.150000          0.100082E-02
      0.155000          0.946998E-03
      0.160000          0.895194E-03
      0.165000          0.844059E-03
      0.170000          0.792893E-03
      0.175000          0.741517E-03
      0.180000          0.690148E-03
      0.185000          0.639271E-03
      0.190000          0.589524E-03
      0.195000          0.541595E-03
      0.200000          0.496150E-03
      0.205000          0.453767E-03
      0.210000          0.414902E-03
      0.215000          0.379863E-03
      0.220000          0.348813E-03
      0.225000          0.321767E-03
      0.230000          0.298617E-03
      0.235000          0.279150E-03
      0.240000          0.263071E-03
      0.245000          0.250031E-03
      0.250000          0.239647E-03
      0.255000          0.231522E-03
      0.260000          0.225266E-03
      0.265000          0.220501E-03
      0.270000          0.216879E-03
      0.275000          0.214081E-03
      0.280000          0.211828E-03
      0.285000          0.209874E-03
      0.290000          0.208018E-03
      0.295000          0.206092E-03
      0.300000          0.203969E-03
      0.305000          0.201557E-03
      0.310000          0.198798E-03
      0.315000          0.195667E-03
      0.320000          0.192165E-03
      0.325000          0.188322E-03
      0.330000          0.184187E-03
      0.335000          0.179828E-03
      0.340000          0.175322E-03
      0.345000          0.170755E-03
      0.350000          0.166214E-03
      0.355000          0.161781E-03
      0.360000          0.157532E-03
      0.365000          0.153526E-03
      0.370000          0.149811E-03
      0.375000          0.146415E-03
      0.380000          0.143348E-03
      0.385000          0.140602E-03
      0.390000          0.138152E-03
      0.395000          0.135958E-03
      0.400000          0.133971E-03
      0.405000          0.132132E-03
      0.410000          0.130381E-03
      0.415000          0.128656E-03
      0.420000          0.126902E-03
      0.425000          0.125069E-03
      0.430000          0.123120E-03
      0.435000          0.121028E-03
      0.440000          0.118781E-03
      0.445000          0.116378E-03
      0.450000          0.113834E-03
      0.455000          0.111174E-03
      0.460000          0.108433E-03
      0.465000          0.105652E-03
      0.470000          0.102879E-03
      0.475000          0.100162E-03
      0.480000          0.975481E-04
      0.485000          0.950809E-04
      0.490000          0.927978E-04
      0.495000          0.907281E-04
      0.500000          0.888918E-04
