 I_abs(s)[cm^-1]/c[mg/ml]
       0.00000          0.143736E-01
      0.500000E-02      0.143173E-01
      0.100000E-01      0.141496E-01
      0.150000E-01      0.138747E-01
      0.200000E-01      0.134988E-01
      0.250000E-01      0.130307E-01
      0.300000E-01      0.124810E-01
      0.350000E-01      0.118618E-01
      0.400000E-01      0.111864E-01
      0.450000E-01      0.104687E-01
      0.500000E-01      0.972268E-02
      0.550000E-01      0.896233E-02
      0.600000E-01      0.820079E-02
      0.650000E-01      0.745027E-02
      0.700000E-01      0.672161E-02
      0.750000E-01      0.602417E-02
      0.800000E-01      0.536558E-02
      0.850000E-01      0.475173E-02
      0.900000E-01      0.418673E-02
      0.950000E-01      0.367302E-02
      0.100000          0.321146E-02
      0.105000          0.280152E-02
      0.110000          0.244146E-02
      0.115000          0.212860E-02
      0.120000          0.185951E-02
      0.125000          0.163025E-02
      0.130000          0.143661E-02
      0.135000          0.127424E-02
      0.140000          0.113890E-02
      0.145000          0.102652E-02
      0.150000          0.933324E-03
      0.155000          0.855920E-03
      0.160000          0.791306E-03
      0.165000          0.736894E-03
      0.170000          0.690510E-03
      0.175000          0.650357E-03
      0.180000          0.614987E-03
      0.185000          0.583259E-03
      0.190000          0.554286E-03
      0.195000          0.527401E-03
      0.200000          0.502109E-03
      0.205000          0.478055E-03
      0.210000          0.454992E-03
      0.215000          0.432756E-03
      0.220000          0.411247E-03
      0.225000          0.390415E-03
      0.230000          0.370249E-03
      0.235000          0.350766E-03
      0.240000          0.332006E-03
      0.245000          0.314023E-03
      0.250000          0.296885E-03
      0.255000          0.280658E-03
      0.260000          0.265411E-03
      0.265000          0.251203E-03
      0.270000          0.238079E-03
      0.275000          0.226069E-03
      0.280000          0.215178E-03
      0.285000          0.205391E-03
      0.290000          0.196668E-03
      0.295000          0.188948E-03
      0.300000          0.182150E-03
      0.305000          0.176177E-03
      0.310000          0.170921E-03
      0.315000          0.166271E-03
      0.320000          0.162115E-03
      0.325000          0.158347E-03
      0.330000          0.154871E-03
      0.335000          0.151605E-03
      0.340000          0.148484E-03
      0.345000          0.145459E-03
      0.350000          0.142498E-03
      0.355000          0.139584E-03
      0.360000          0.136716E-03
      0.365000          0.133901E-03
      0.370000          0.131152E-03
      0.375000          0.128491E-03
      0.380000          0.125936E-03
      0.385000          0.123505E-03
      0.390000          0.121214E-03
      0.395000          0.119072E-03
      0.400000          0.117084E-03
      0.405000          0.115246E-03
      0.410000          0.113551E-03
      0.415000          0.111986E-03
      0.420000          0.110535E-03
      0.425000          0.109180E-03
      0.430000          0.107898E-03
      0.435000          0.106671E-03
      0.440000          0.105476E-03
      0.445000          0.104296E-03
      0.450000          0.103112E-03
      0.455000          0.101909E-03
      0.460000          0.100673E-03
      0.465000          0.993913E-04
      0.470000          0.980553E-04
      0.475000          0.966568E-04
      0.480000          0.951899E-04
      0.485000          0.936508E-04
      0.490000          0.920381E-04
      0.495000          0.903531E-04
      0.500000          0.885998E-04
