 I_abs(s)[cm^-1]/c[mg/ml]
       0.00000          0.140054E-01
      0.500000E-02      0.139324E-01
      0.100000E-01      0.137160E-01
      0.150000E-01      0.133638E-01
      0.200000E-01      0.128877E-01
      0.250000E-01      0.123037E-01
      0.300000E-01      0.116308E-01
      0.350000E-01      0.108897E-01
      0.400000E-01      0.101024E-01
      0.450000E-01      0.929041E-02
      0.500000E-01      0.847425E-02
      0.550000E-01      0.767242E-02
      0.600000E-01      0.690083E-02
      0.650000E-01      0.617231E-02
      0.700000E-01      0.549642E-02
      0.750000E-01      0.487945E-02
      0.800000E-01      0.432457E-02
      0.850000E-01      0.383225E-02
      0.900000E-01      0.340062E-02
      0.950000E-01      0.302603E-02
      0.100000          0.270356E-02
      0.105000          0.242755E-02
      0.110000          0.219201E-02
      0.115000          0.199102E-02
      0.120000          0.181900E-02
      0.125000          0.167091E-02
      0.130000          0.154236E-02
      0.135000          0.142963E-02
      0.140000          0.132967E-02
      0.145000          0.124003E-02
      0.150000          0.115878E-02
      0.155000          0.108442E-02
      0.160000          0.101577E-02
      0.165000          0.951958E-03
      0.170000          0.892287E-03
      0.175000          0.836233E-03
      0.180000          0.783398E-03
      0.185000          0.733489E-03
      0.190000          0.686299E-03
      0.195000          0.641697E-03
      0.200000          0.599613E-03
      0.205000          0.560023E-03
      0.210000          0.522935E-03
      0.215000          0.488371E-03
      0.220000          0.456354E-03
      0.225000          0.426888E-03
      0.230000          0.399953E-03
      0.235000          0.375495E-03
      0.240000          0.353420E-03
      0.245000          0.333602E-03
      0.250000          0.315883E-03
      0.255000          0.300084E-03
      0.260000          0.286010E-03
      0.265000          0.273461E-03
      0.270000          0.262239E-03
      0.275000          0.252154E-03
      0.280000          0.243031E-03
      0.285000          0.234708E-03
      0.290000          0.227039E-03
      0.295000          0.219898E-03
      0.300000          0.213173E-03
      0.305000          0.206766E-03
      0.310000          0.200598E-03
      0.315000          0.194605E-03
      0.320000          0.188739E-03
      0.325000          0.182968E-03
      0.330000          0.177278E-03
      0.335000          0.171669E-03
      0.340000          0.166156E-03
      0.345000          0.160766E-03
      0.350000          0.155533E-03
      0.355000          0.150495E-03
      0.360000          0.145690E-03
      0.365000          0.141149E-03
      0.370000          0.136899E-03
      0.375000          0.132950E-03
      0.380000          0.129304E-03
      0.385000          0.125950E-03
      0.390000          0.122865E-03
      0.395000          0.120018E-03
      0.400000          0.117372E-03
      0.405000          0.114888E-03
      0.410000          0.112528E-03
      0.415000          0.110257E-03
      0.420000          0.108045E-03
      0.425000          0.105869E-03
      0.430000          0.103714E-03
      0.435000          0.101568E-03
      0.440000          0.994270E-04
      0.445000          0.972898E-04
      0.450000          0.951576E-04
      0.455000          0.930330E-04
      0.460000          0.909192E-04
      0.465000          0.888196E-04
      0.470000          0.867384E-04
      0.475000          0.846804E-04
      0.480000          0.826519E-04
      0.485000          0.806616E-04
      0.490000          0.787206E-04
      0.495000          0.768426E-04
      0.500000          0.750439E-04
