 I_abs(s)[cm^-1]/c[mg/ml]
       0.00000          0.137575E-01
      0.500000E-02      0.136834E-01
      0.100000E-01      0.134639E-01
      0.150000E-01      0.131062E-01
      0.200000E-01      0.126221E-01
      0.250000E-01      0.120273E-01
      0.300000E-01      0.113408E-01
      0.350000E-01      0.105834E-01
      0.400000E-01      0.977731E-02
      0.450000E-01      0.894489E-02
      0.500000E-01      0.810764E-02
      0.550000E-01      0.728537E-02
      0.600000E-01      0.649547E-02
      0.650000E-01      0.575232E-02
      0.700000E-01      0.506699E-02
      0.750000E-01      0.444703E-02
      0.800000E-01      0.389654E-02
      0.850000E-01      0.341639E-02
      0.900000E-01      0.300463E-02
      0.950000E-01      0.265692E-02
      0.100000          0.236717E-02
      0.105000          0.212806E-02
      0.110000          0.193170E-02
      0.115000          0.177009E-02
      0.120000          0.163563E-02
      0.125000          0.152146E-02
      0.130000          0.142172E-02
      0.135000          0.133173E-02
      0.140000          0.124798E-02
      0.145000          0.116812E-02
      0.150000          0.109082E-02
      0.155000          0.101560E-02
      0.160000          0.942643E-03
      0.165000          0.872554E-03
      0.170000          0.806164E-03
      0.175000          0.744346E-03
      0.180000          0.687865E-03
      0.185000          0.637269E-03
      0.190000          0.592829E-03
      0.195000          0.554507E-03
      0.200000          0.521975E-03
      0.205000          0.494654E-03
      0.210000          0.471774E-03
      0.215000          0.452450E-03
      0.220000          0.435753E-03
      0.225000          0.420787E-03
      0.230000          0.406743E-03
      0.235000          0.392950E-03
      0.240000          0.378902E-03
      0.245000          0.364272E-03
      0.250000          0.348910E-03
      0.255000          0.332823E-03
      0.260000          0.316157E-03
      0.265000          0.299154E-03
      0.270000          0.282126E-03
      0.275000          0.265412E-03
      0.280000          0.249348E-03
      0.285000          0.234240E-03
      0.290000          0.220342E-03
      0.295000          0.207837E-03
      0.300000          0.196835E-03
      0.305000          0.187372E-03
      0.310000          0.179407E-03
      0.315000          0.172842E-03
      0.320000          0.167527E-03
      0.325000          0.163275E-03
      0.330000          0.159882E-03
      0.335000          0.157137E-03
      0.340000          0.154837E-03
      0.345000          0.152798E-03
      0.350000          0.150864E-03
      0.355000          0.148912E-03
      0.360000          0.146855E-03
      0.365000          0.144642E-03
      0.370000          0.142255E-03
      0.375000          0.139705E-03
      0.380000          0.137024E-03
      0.385000          0.134262E-03
      0.390000          0.131474E-03
      0.395000          0.128718E-03
      0.400000          0.126047E-03
      0.405000          0.123502E-03
      0.410000          0.121113E-03
      0.415000          0.118892E-03
      0.420000          0.116836E-03
      0.425000          0.114928E-03
      0.430000          0.113140E-03
      0.435000          0.111435E-03
      0.440000          0.109774E-03
      0.445000          0.108118E-03
      0.450000          0.106431E-03
      0.455000          0.104690E-03
      0.460000          0.102880E-03
      0.465000          0.101000E-03
      0.470000          0.990619E-04
      0.475000          0.970889E-04
      0.480000          0.951149E-04
      0.485000          0.931809E-04
      0.490000          0.913309E-04
      0.495000          0.896089E-04
      0.500000          0.880547E-04
