 I_abs(s)[cm^-1]/c[mg/ml]
       0.00000          0.141224E-01
      0.500000E-02      0.140530E-01
      0.100000E-01      0.138469E-01
      0.150000E-01      0.135105E-01
      0.200000E-01      0.130537E-01
      0.250000E-01      0.124903E-01
      0.300000E-01      0.118364E-01
      0.350000E-01      0.111103E-01
      0.400000E-01      0.103317E-01
      0.450000E-01      0.952035E-02
      0.500000E-01      0.869588E-02
      0.550000E-01      0.787667E-02
      0.600000E-01      0.707933E-02
      0.650000E-01      0.631819E-02
      0.700000E-01      0.560490E-02
      0.750000E-01      0.494828E-02
      0.800000E-01      0.435422E-02
      0.850000E-01      0.382579E-02
      0.900000E-01      0.336346E-02
      0.950000E-01      0.296540E-02
      0.100000          0.262790E-02
      0.105000          0.234575E-02
      0.110000          0.211275E-02
      0.115000          0.192208E-02
      0.120000          0.176677E-02
      0.125000          0.163999E-02
      0.130000          0.153535E-02
      0.135000          0.144713E-02
      0.140000          0.137040E-02
      0.145000          0.130112E-02
      0.150000          0.123612E-02
      0.155000          0.117311E-02
      0.160000          0.111056E-02
      0.165000          0.104765E-02
      0.170000          0.984089E-03
      0.175000          0.920049E-03
      0.180000          0.856010E-03
      0.185000          0.792653E-03
      0.190000          0.730761E-03
      0.195000          0.671133E-03
      0.200000          0.614513E-03
      0.205000          0.561539E-03
      0.210000          0.512712E-03
      0.215000          0.468369E-03
      0.220000          0.428679E-03
      0.225000          0.393646E-03
      0.230000          0.363124E-03
      0.235000          0.336829E-03
      0.240000          0.314372E-03
      0.245000          0.295283E-03
      0.250000          0.279042E-03
      0.255000          0.265108E-03
      0.260000          0.252950E-03
      0.265000          0.242072E-03
      0.270000          0.232032E-03
      0.275000          0.222465E-03
      0.280000          0.213091E-03
      0.285000          0.203720E-03
      0.290000          0.194252E-03
      0.295000          0.184672E-03
      0.300000          0.175036E-03
      0.305000          0.165459E-03
      0.310000          0.156094E-03
      0.315000          0.147117E-03
      0.320000          0.138705E-03
      0.325000          0.131021E-03
      0.330000          0.124202E-03
      0.335000          0.118341E-03
      0.340000          0.113489E-03
      0.345000          0.109649E-03
      0.350000          0.106776E-03
      0.355000          0.104783E-03
      0.360000          0.103552E-03
      0.365000          0.102940E-03
      0.370000          0.102789E-03
      0.375000          0.102940E-03
      0.380000          0.103242E-03
      0.385000          0.103556E-03
      0.390000          0.103768E-03
      0.395000          0.103788E-03
      0.400000          0.103551E-03
      0.405000          0.103024E-03
      0.410000          0.102194E-03
      0.415000          0.101074E-03
      0.420000          0.996925E-04
      0.425000          0.980901E-04
      0.430000          0.963166E-04
      0.435000          0.944256E-04
      0.440000          0.924705E-04
      0.445000          0.905021E-04
      0.450000          0.885666E-04
      0.455000          0.867037E-04
      0.460000          0.849467E-04
      0.465000          0.833222E-04
      0.470000          0.818503E-04
      0.475000          0.805455E-04
      0.480000          0.794170E-04
      0.485000          0.784696E-04
      0.490000          0.777038E-04
      0.495000          0.771165E-04
      0.500000          0.767010E-04
