 I_abs(s)[cm^-1]/c[mg/ml]
       0.00000          0.142085E-01
      0.500000E-02      0.141433E-01
      0.100000E-01      0.139498E-01
      0.150000E-01      0.136334E-01
      0.200000E-01      0.132033E-01
      0.250000E-01      0.126716E-01
      0.300000E-01      0.120527E-01
      0.350000E-01      0.113631E-01
      0.400000E-01      0.106204E-01
      0.450000E-01      0.984248E-02
      0.500000E-01      0.904703E-02
      0.550000E-01      0.825077E-02
      0.600000E-01      0.746895E-02
      0.650000E-01      0.671488E-02
      0.700000E-01      0.599960E-02
      0.750000E-01      0.533174E-02
      0.800000E-01      0.471741E-02
      0.850000E-01      0.416034E-02
      0.900000E-01      0.366197E-02
      0.950000E-01      0.322179E-02
      0.100000          0.283758E-02
      0.105000          0.250582E-02
      0.110000          0.222201E-02
      0.115000          0.198103E-02
      0.120000          0.177747E-02
      0.125000          0.160591E-02
      0.130000          0.146113E-02
      0.135000          0.133828E-02
      0.140000          0.123306E-02
      0.145000          0.114171E-02
      0.150000          0.106111E-02
      0.155000          0.988715E-03
      0.160000          0.922568E-03
      0.165000          0.861214E-03
      0.170000          0.803645E-03
      0.175000          0.749219E-03
      0.180000          0.697591E-03
      0.185000          0.648641E-03
      0.190000          0.602400E-03
      0.195000          0.559000E-03
      0.200000          0.518613E-03
      0.205000          0.481418E-03
      0.210000          0.447554E-03
      0.215000          0.417107E-03
      0.220000          0.390081E-03
      0.225000          0.366398E-03
      0.230000          0.345890E-03
      0.235000          0.328307E-03
      0.240000          0.313330E-03
      0.245000          0.300586E-03
      0.250000          0.289671E-03
      0.255000          0.280172E-03
      0.260000          0.271690E-03
      0.265000          0.263860E-03
      0.270000          0.256374E-03
      0.275000          0.248987E-03
      0.280000          0.241531E-03
      0.285000          0.233912E-03
      0.290000          0.226108E-03
      0.295000          0.218160E-03
      0.300000          0.210154E-03
      0.305000          0.202209E-03
      0.310000          0.194455E-03
      0.315000          0.187021E-03
      0.320000          0.180017E-03
      0.325000          0.173524E-03
      0.330000          0.167588E-03
      0.335000          0.162217E-03
      0.340000          0.157382E-03
      0.345000          0.153024E-03
      0.350000          0.149064E-03
      0.355000          0.145410E-03
      0.360000          0.141969E-03
      0.365000          0.138655E-03
      0.370000          0.135399E-03
      0.375000          0.132152E-03
      0.380000          0.128889E-03
      0.385000          0.125607E-03
      0.390000          0.122323E-03
      0.395000          0.119069E-03
      0.400000          0.115885E-03
      0.405000          0.112816E-03
      0.410000          0.109901E-03
      0.415000          0.107174E-03
      0.420000          0.104656E-03
      0.425000          0.102356E-03
      0.430000          0.100270E-03
      0.435000          0.983836E-04
      0.440000          0.966748E-04
      0.445000          0.951166E-04
      0.450000          0.936818E-04
      0.455000          0.923451E-04
      0.460000          0.910868E-04
      0.465000          0.898935E-04
      0.470000          0.887591E-04
      0.475000          0.876837E-04
      0.480000          0.866727E-04
      0.485000          0.857341E-04
      0.490000          0.848767E-04
      0.495000          0.841072E-04
      0.500000          0.834287E-04
