 I_abs(s)[cm^-1]/c[mg/ml]
       0.00000          0.142713E-01
      0.500000E-02      0.141938E-01
      0.100000E-01      0.139639E-01
      0.150000E-01      0.135893E-01
      0.200000E-01      0.130825E-01
      0.250000E-01      0.124597E-01
      0.300000E-01      0.117407E-01
      0.350000E-01      0.109473E-01
      0.400000E-01      0.101027E-01
      0.450000E-01      0.923011E-02
      0.500000E-01      0.835183E-02
      0.550000E-01      0.748850E-02
      0.600000E-01      0.665820E-02
      0.650000E-01      0.587593E-02
      0.700000E-01      0.515327E-02
      0.750000E-01      0.449824E-02
      0.800000E-01      0.391534E-02
      0.850000E-01      0.340582E-02
      0.900000E-01      0.296805E-02
      0.950000E-01      0.259804E-02
      0.100000          0.228996E-02
      0.105000          0.203673E-02
      0.110000          0.183059E-02
      0.115000          0.166361E-02
      0.120000          0.152811E-02
      0.125000          0.141701E-02
      0.130000          0.132409E-02
      0.135000          0.124410E-02
      0.140000          0.117285E-02
      0.145000          0.110717E-02
      0.150000          0.104485E-02
      0.155000          0.984489E-03
      0.160000          0.925357E-03
      0.165000          0.867244E-03
      0.170000          0.810297E-03
      0.175000          0.754886E-03
      0.180000          0.701488E-03
      0.185000          0.650596E-03
      0.190000          0.602649E-03
      0.195000          0.557997E-03
      0.200000          0.516879E-03
      0.205000          0.479414E-03
      0.210000          0.445615E-03
      0.215000          0.415400E-03
      0.220000          0.388615E-03
      0.225000          0.365048E-03
      0.230000          0.344455E-03
      0.235000          0.326570E-03
      0.240000          0.311124E-03
      0.245000          0.297849E-03
      0.250000          0.286492E-03
      0.255000          0.276812E-03
      0.260000          0.268587E-03
      0.265000          0.261615E-03
      0.270000          0.255707E-03
      0.275000          0.250692E-03
      0.280000          0.246410E-03
      0.285000          0.242710E-03
      0.290000          0.239450E-03
      0.295000          0.236491E-03
      0.300000          0.233698E-03
      0.305000          0.230941E-03
      0.310000          0.228095E-03
      0.315000          0.225044E-03
      0.320000          0.221684E-03
      0.325000          0.217929E-03
      0.330000          0.213719E-03
      0.335000          0.209021E-03
      0.340000          0.203834E-03
      0.345000          0.198195E-03
      0.350000          0.192176E-03
      0.355000          0.185882E-03
      0.360000          0.179448E-03
      0.365000          0.173025E-03
      0.370000          0.166777E-03
      0.375000          0.160866E-03
      0.380000          0.155436E-03
      0.385000          0.150610E-03
      0.390000          0.146471E-03
      0.395000          0.143059E-03
      0.400000          0.140369E-03
      0.405000          0.138347E-03
      0.410000          0.136895E-03
      0.415000          0.135880E-03
      0.420000          0.135145E-03
      0.425000          0.134518E-03
      0.430000          0.133832E-03
      0.435000          0.132934E-03
      0.440000          0.131698E-03
      0.445000          0.130036E-03
      0.450000          0.127903E-03
      0.455000          0.125303E-03
      0.460000          0.122280E-03
      0.465000          0.118922E-03
      0.470000          0.115345E-03
      0.475000          0.111687E-03
      0.480000          0.108093E-03
      0.485000          0.104703E-03
      0.490000          0.101643E-03
      0.495000          0.990096E-04
      0.500000          0.968690E-04
