 I_abs(s)[cm^-1]/c[mg/ml]
       0.00000          0.135653E-01
      0.500000E-02      0.134787E-01
      0.100000E-01      0.132228E-01
      0.150000E-01      0.128090E-01
      0.200000E-01      0.122551E-01
      0.250000E-01      0.115847E-01
      0.300000E-01      0.108249E-01
      0.350000E-01      0.100051E-01
      0.400000E-01      0.915463E-02
      0.450000E-01      0.830153E-02
      0.500000E-01      0.747068E-02
      0.550000E-01      0.668277E-02
      0.600000E-01      0.595356E-02
      0.650000E-01      0.529352E-02
      0.700000E-01      0.470798E-02
      0.750000E-01      0.419758E-02
      0.800000E-01      0.375899E-02
      0.850000E-01      0.338591E-02
      0.900000E-01      0.307007E-02
      0.950000E-01      0.280219E-02
      0.100000          0.257296E-02
      0.105000          0.237368E-02
      0.110000          0.219684E-02
      0.115000          0.203638E-02
      0.120000          0.188783E-02
      0.125000          0.174817E-02
      0.130000          0.161568E-02
      0.135000          0.148962E-02
      0.140000          0.136992E-02
      0.145000          0.125691E-02
      0.150000          0.115101E-02
      0.155000          0.105260E-02
      0.160000          0.961874E-03
      0.165000          0.878813E-03
      0.170000          0.803176E-03
      0.175000          0.734566E-03
      0.180000          0.672487E-03
      0.185000          0.616418E-03
      0.190000          0.565863E-03
      0.195000          0.520391E-03
      0.200000          0.479640E-03
      0.205000          0.443318E-03
      0.210000          0.411167E-03
      0.215000          0.382944E-03
      0.220000          0.358380E-03
      0.225000          0.337168E-03
      0.230000          0.318947E-03
      0.235000          0.303310E-03
      0.240000          0.289821E-03
      0.245000          0.278040E-03
      0.250000          0.267553E-03
      0.255000          0.258004E-03
      0.260000          0.249110E-03
      0.265000          0.240680E-03
      0.270000          0.232613E-03
      0.275000          0.224887E-03
      0.280000          0.217543E-03
      0.285000          0.210658E-03
      0.290000          0.204320E-03
      0.295000          0.198603E-03
      0.300000          0.193552E-03
      0.305000          0.189168E-03
      0.310000          0.185408E-03
      0.315000          0.182190E-03
      0.320000          0.179404E-03
      0.325000          0.176925E-03
      0.330000          0.174630E-03
      0.335000          0.172408E-03
      0.340000          0.170175E-03
      0.345000          0.167875E-03
      0.350000          0.165480E-03
      0.355000          0.162988E-03
      0.360000          0.160415E-03
      0.365000          0.157783E-03
      0.370000          0.155114E-03
      0.375000          0.152425E-03
      0.380000          0.149720E-03
      0.385000          0.146989E-03
      0.390000          0.144215E-03
      0.395000          0.141374E-03
      0.400000          0.138443E-03
      0.405000          0.135407E-03
      0.410000          0.132262E-03
      0.415000          0.129021E-03
      0.420000          0.125714E-03
      0.425000          0.122384E-03
      0.430000          0.119089E-03
      0.435000          0.115891E-03
      0.440000          0.112853E-03
      0.445000          0.110032E-03
      0.450000          0.107472E-03
      0.455000          0.105205E-03
      0.460000          0.103245E-03
      0.465000          0.101590E-03
      0.470000          0.100223E-03
      0.475000          0.991160E-04
      0.480000          0.982322E-04
      0.485000          0.975311E-04
      0.490000          0.969707E-04
      0.495000          0.965105E-04
      0.500000          0.961127E-04
