 I_abs(s)[cm^-1]/c[mg/ml]
       0.00000          0.140677E-01
      0.500000E-02      0.139991E-01
      0.100000E-01      0.137953E-01
      0.150000E-01      0.134625E-01
      0.200000E-01      0.130107E-01
      0.250000E-01      0.124530E-01
      0.300000E-01      0.118054E-01
      0.350000E-01      0.110859E-01
      0.400000E-01      0.103136E-01
      0.450000E-01      0.950810E-02
      0.500000E-01      0.868848E-02
      0.550000E-01      0.787283E-02
      0.600000E-01      0.707747E-02
      0.650000E-01      0.631652E-02
      0.700000E-01      0.560152E-02
      0.750000E-01      0.494125E-02
      0.800000E-01      0.434168E-02
      0.850000E-01      0.380606E-02
      0.900000E-01      0.333512E-02
      0.950000E-01      0.292739E-02
      0.100000          0.257955E-02
      0.105000          0.228689E-02
      0.110000          0.204366E-02
      0.115000          0.184358E-02
      0.120000          0.168011E-02
      0.125000          0.154685E-02
      0.130000          0.143777E-02
      0.135000          0.134742E-02
      0.140000          0.127106E-02
      0.145000          0.120470E-02
      0.150000          0.114518E-02
      0.155000          0.109005E-02
      0.160000          0.103758E-02
      0.165000          0.986632E-03
      0.170000          0.936554E-03
      0.175000          0.887094E-03
      0.180000          0.838278E-03
      0.185000          0.790324E-03
      0.190000          0.743554E-03
      0.195000          0.698328E-03
      0.200000          0.654990E-03
      0.205000          0.613831E-03
      0.210000          0.575063E-03
      0.215000          0.538807E-03
      0.220000          0.505093E-03
      0.225000          0.473863E-03
      0.230000          0.444984E-03
      0.235000          0.418266E-03
      0.240000          0.393479E-03
      0.245000          0.370373E-03
      0.250000          0.348700E-03
      0.255000          0.328228E-03
      0.260000          0.308759E-03
      0.265000          0.290138E-03
      0.270000          0.272263E-03
      0.275000          0.255084E-03
      0.280000          0.238606E-03
      0.285000          0.222879E-03
      0.290000          0.207989E-03
      0.295000          0.194045E-03
      0.300000          0.181167E-03
      0.305000          0.169469E-03
      0.310000          0.159047E-03
      0.315000          0.149965E-03
      0.320000          0.142246E-03
      0.325000          0.135870E-03
      0.330000          0.130767E-03
      0.335000          0.126823E-03
      0.340000          0.123887E-03
      0.345000          0.121776E-03
      0.350000          0.120290E-03
      0.355000          0.119224E-03
      0.360000          0.118378E-03
      0.365000          0.117571E-03
      0.370000          0.116649E-03
      0.375000          0.115496E-03
      0.380000          0.114032E-03
      0.385000          0.112219E-03
      0.390000          0.110060E-03
      0.395000          0.107589E-03
      0.400000          0.104871E-03
      0.405000          0.101990E-03
      0.410000          0.990429E-04
      0.415000          0.961295E-04
      0.420000          0.933457E-04
      0.425000          0.907769E-04
      0.430000          0.884925E-04
      0.435000          0.865427E-04
      0.440000          0.849571E-04
      0.445000          0.837442E-04
      0.450000          0.828934E-04
      0.455000          0.823773E-04
      0.460000          0.821550E-04
      0.465000          0.821758E-04
      0.470000          0.823831E-04
      0.475000          0.827182E-04
      0.480000          0.831234E-04
      0.485000          0.835449E-04
      0.490000          0.839347E-04
      0.495000          0.842523E-04
      0.500000          0.844655E-04
