 I_abs(s)[cm^-1]/c[mg/ml]
       0.00000          0.139354E-01
      0.500000E-02      0.138453E-01
      0.100000E-01      0.135787E-01
      0.150000E-01      0.131464E-01
      0.200000E-01      0.125657E-01
      0.250000E-01      0.118595E-01
      0.300000E-01      0.110546E-01
      0.350000E-01      0.101801E-01
      0.400000E-01      0.926602E-02
      0.450000E-01      0.834162E-02
      0.500000E-01      0.743365E-02
      0.550000E-01      0.656539E-02
      0.600000E-01      0.575563E-02
      0.650000E-01      0.501816E-02
      0.700000E-01      0.436160E-02
      0.750000E-01      0.378962E-02
      0.800000E-01      0.330137E-02
      0.850000E-01      0.289226E-02
      0.900000E-01      0.255485E-02
      0.950000E-01      0.227981E-02
      0.100000          0.205684E-02
      0.105000          0.187558E-02
      0.110000          0.172629E-02
      0.115000          0.160041E-02
      0.120000          0.149091E-02
      0.125000          0.139241E-02
      0.130000          0.130120E-02
      0.135000          0.121502E-02
      0.140000          0.113283E-02
      0.145000          0.105451E-02
      0.150000          0.980462E-03
      0.155000          0.911376E-03
      0.160000          0.847927E-03
      0.165000          0.790606E-03
      0.170000          0.739606E-03
      0.175000          0.694782E-03
      0.180000          0.655676E-03
      0.185000          0.621584E-03
      0.190000          0.591647E-03
      0.195000          0.564956E-03
      0.200000          0.540650E-03
      0.205000          0.517984E-03
      0.210000          0.496385E-03
      0.215000          0.475465E-03
      0.220000          0.455018E-03
      0.225000          0.434989E-03
      0.230000          0.415431E-03
      0.235000          0.396456E-03
      0.240000          0.378195E-03
      0.245000          0.360753E-03
      0.250000          0.344192E-03
      0.255000          0.328513E-03
      0.260000          0.313669E-03
      0.265000          0.299569E-03
      0.270000          0.286104E-03
      0.275000          0.273166E-03
      0.280000          0.260672E-03
      0.285000          0.248574E-03
      0.290000          0.236873E-03
      0.295000          0.225610E-03
      0.300000          0.214867E-03
      0.305000          0.204746E-03
      0.310000          0.195355E-03
      0.315000          0.186789E-03
      0.320000          0.179118E-03
      0.325000          0.172369E-03
      0.330000          0.166528E-03
      0.335000          0.161533E-03
      0.340000          0.157288E-03
      0.345000          0.153665E-03
      0.350000          0.150523E-03
      0.355000          0.147721E-03
      0.360000          0.145130E-03
      0.365000          0.142643E-03
      0.370000          0.140183E-03
      0.375000          0.137707E-03
      0.380000          0.135202E-03
      0.385000          0.132679E-03
      0.390000          0.130172E-03
      0.395000          0.127722E-03
      0.400000          0.125376E-03
      0.405000          0.123172E-03
      0.410000          0.121140E-03
      0.415000          0.119292E-03
      0.420000          0.117628E-03
      0.425000          0.116133E-03
      0.430000          0.114781E-03
      0.435000          0.113539E-03
      0.440000          0.112372E-03
      0.445000          0.111246E-03
      0.450000          0.110130E-03
      0.455000          0.109001E-03
      0.460000          0.107842E-03
      0.465000          0.106642E-03
      0.470000          0.105395E-03
      0.475000          0.104098E-03
      0.480000          0.102751E-03
      0.485000          0.101350E-03
      0.490000          0.998929E-04
      0.495000          0.983751E-04
      0.500000          0.967918E-04
