 I_abs(s)[cm^-1]/c[mg/ml]
       0.00000          0.128623E-01
      0.500000E-02      0.127367E-01
      0.100000E-01      0.123687E-01
      0.150000E-01      0.117834E-01
      0.200000E-01      0.110199E-01
      0.250000E-01      0.101272E-01
      0.300000E-01      0.915947E-02
      0.350000E-01      0.817072E-02
      0.400000E-01      0.721024E-02
      0.450000E-01      0.631859E-02
      0.500000E-01      0.552499E-02
      0.550000E-01      0.484611E-02
      0.600000E-01      0.428639E-02
      0.650000E-01      0.383957E-02
      0.700000E-01      0.349129E-02
      0.750000E-01      0.322208E-02
      0.800000E-01      0.301056E-02
      0.850000E-01      0.283622E-02
      0.900000E-01      0.268164E-02
      0.950000E-01      0.253385E-02
      0.100000          0.238489E-02
      0.105000          0.223148E-02
      0.110000          0.207427E-02
      0.115000          0.191653E-02
      0.120000          0.176287E-02
      0.125000          0.161803E-02
      0.130000          0.148586E-02
      0.135000          0.136880E-02
      0.140000          0.126760E-02
      0.145000          0.118148E-02
      0.150000          0.110845E-02
      0.155000          0.104583E-02
      0.160000          0.990728E-03
      0.165000          0.940471E-03
      0.170000          0.892926E-03
      0.175000          0.846643E-03
      0.180000          0.800863E-03
      0.185000          0.755424E-03
      0.190000          0.710588E-03
      0.195000          0.666864E-03
      0.200000          0.624835E-03
      0.205000          0.585039E-03
      0.210000          0.547895E-03
      0.215000          0.513675E-03
      0.220000          0.482520E-03
      0.225000          0.454463E-03
      0.230000          0.429461E-03
      0.235000          0.407415E-03
      0.240000          0.388181E-03
      0.245000          0.371565E-03
      0.250000          0.357313E-03
      0.255000          0.345111E-03
      0.260000          0.334578E-03
      0.265000          0.325289E-03
      0.270000          0.316799E-03
      0.275000          0.308682E-03
      0.280000          0.300563E-03
      0.285000          0.292161E-03
      0.290000          0.283303E-03
      0.295000          0.273933E-03
      0.300000          0.264103E-03
      0.305000          0.253951E-03
      0.310000          0.243661E-03
      0.315000          0.233437E-03
      0.320000          0.223465E-03
      0.325000          0.213890E-03
      0.330000          0.204808E-03
      0.335000          0.196261E-03
      0.340000          0.188250E-03
      0.345000          0.180744E-03
      0.350000          0.173701E-03
      0.355000          0.167080E-03
      0.360000          0.160847E-03
      0.365000          0.154984E-03
      0.370000          0.149481E-03
      0.375000          0.144331E-03
      0.380000          0.139523E-03
      0.385000          0.135036E-03
      0.390000          0.130834E-03
      0.395000          0.126870E-03
      0.400000          0.123090E-03
      0.405000          0.119439E-03
      0.410000          0.115872E-03
      0.415000          0.112360E-03
      0.420000          0.108895E-03
      0.425000          0.105490E-03
      0.430000          0.102175E-03
      0.435000          0.989914E-04
      0.440000          0.959809E-04
      0.445000          0.931787E-04
      0.450000          0.906059E-04
      0.455000          0.882659E-04
      0.460000          0.861442E-04
      0.465000          0.842118E-04
      0.470000          0.824307E-04
      0.475000          0.807608E-04
      0.480000          0.791661E-04
      0.485000          0.776193E-04
      0.490000          0.761036E-04
      0.495000          0.746121E-04
      0.500000          0.731448E-04
