 I_abs(s)[cm^-1]/c[mg/ml]
       0.00000          0.141772E-01
      0.500000E-02      0.141160E-01
      0.100000E-01      0.139340E-01
      0.150000E-01      0.136360E-01
      0.200000E-01      0.132299E-01
      0.250000E-01      0.127260E-01
      0.300000E-01      0.121369E-01
      0.350000E-01      0.114772E-01
      0.400000E-01      0.107624E-01
      0.450000E-01      0.100086E-01
      0.500000E-01      0.923211E-02
      0.550000E-01      0.844857E-02
      0.600000E-01      0.767261E-02
      0.650000E-01      0.691738E-02
      0.700000E-01      0.619426E-02
      0.750000E-01      0.551256E-02
      0.800000E-01      0.487945E-02
      0.850000E-01      0.429990E-02
      0.900000E-01      0.377676E-02
      0.950000E-01      0.331090E-02
      0.100000          0.290145E-02
      0.105000          0.254603E-02
      0.110000          0.224111E-02
      0.115000          0.198228E-02
      0.120000          0.176458E-02
      0.125000          0.158278E-02
      0.130000          0.143164E-02
      0.135000          0.130613E-02
      0.140000          0.120160E-02
      0.145000          0.111388E-02
      0.150000          0.103936E-02
      0.155000          0.975054E-03
      0.160000          0.918515E-03
      0.165000          0.867854E-03
      0.170000          0.821655E-03
      0.175000          0.778900E-03
      0.180000          0.738890E-03
      0.185000          0.701163E-03
      0.190000          0.665422E-03
      0.195000          0.631476E-03
      0.200000          0.599185E-03
      0.205000          0.568432E-03
      0.210000          0.539098E-03
      0.215000          0.511057E-03
      0.220000          0.484172E-03
      0.225000          0.458305E-03
      0.230000          0.433331E-03
      0.235000          0.409146E-03
      0.240000          0.385682E-03
      0.245000          0.362912E-03
      0.250000          0.340857E-03
      0.255000          0.319586E-03
      0.260000          0.299207E-03
      0.265000          0.279861E-03
      0.270000          0.261706E-03
      0.275000          0.244906E-03
      0.280000          0.229614E-03
      0.285000          0.215959E-03
      0.290000          0.204032E-03
      0.295000          0.193877E-03
      0.300000          0.185487E-03
      0.305000          0.178800E-03
      0.310000          0.173703E-03
      0.315000          0.170035E-03
      0.320000          0.167596E-03
      0.325000          0.166157E-03
      0.330000          0.165475E-03
      0.335000          0.165300E-03
      0.340000          0.165391E-03
      0.345000          0.165525E-03
      0.350000          0.165506E-03
      0.355000          0.165172E-03
      0.360000          0.164402E-03
      0.365000          0.163112E-03
      0.370000          0.161261E-03
      0.375000          0.158845E-03
      0.380000          0.155892E-03
      0.385000          0.152459E-03
      0.390000          0.148623E-03
      0.395000          0.144475E-03
      0.400000          0.140112E-03
      0.405000          0.135632E-03
      0.410000          0.131126E-03
      0.415000          0.126676E-03
      0.420000          0.122350E-03
      0.425000          0.118199E-03
      0.430000          0.114257E-03
      0.435000          0.110543E-03
      0.440000          0.107058E-03
      0.445000          0.103793E-03
      0.450000          0.100724E-03
      0.455000          0.978254E-04
      0.460000          0.950634E-04
      0.465000          0.924053E-04
      0.470000          0.898204E-04
      0.475000          0.872828E-04
      0.480000          0.847732E-04
      0.485000          0.822804E-04
      0.490000          0.798015E-04
      0.495000          0.773422E-04
      0.500000          0.749159E-04
