 I_abs(s)[cm^-1]/c[mg/ml]
       0.00000          0.135576E-01
      0.500000E-02      0.134517E-01
      0.100000E-01      0.131396E-01
      0.150000E-01      0.126383E-01
      0.200000E-01      0.119746E-01
      0.250000E-01      0.111827E-01
      0.300000E-01      0.103015E-01
      0.350000E-01      0.937172E-02
      0.400000E-01      0.843290E-02
      0.450000E-01      0.752051E-02
      0.500000E-01      0.666394E-02
      0.550000E-01      0.588498E-02
      0.600000E-01      0.519723E-02
      0.650000E-01      0.460617E-02
      0.700000E-01      0.411002E-02
      0.750000E-01      0.370104E-02
      0.800000E-01      0.336734E-02
      0.850000E-01      0.309459E-02
      0.900000E-01      0.286787E-02
      0.950000E-01      0.267316E-02
      0.100000          0.249847E-02
      0.105000          0.233459E-02
      0.110000          0.217539E-02
      0.115000          0.201767E-02
      0.120000          0.186078E-02
      0.125000          0.170600E-02
      0.130000          0.155580E-02
      0.135000          0.141315E-02
      0.140000          0.128095E-02
      0.145000          0.116148E-02
      0.150000          0.105620E-02
      0.155000          0.965594E-03
      0.160000          0.889231E-03
      0.165000          0.825909E-03
      0.170000          0.773885E-03
      0.175000          0.731121E-03
      0.180000          0.695514E-03
      0.185000          0.665093E-03
      0.190000          0.638153E-03
      0.195000          0.613326E-03
      0.200000          0.589611E-03
      0.205000          0.566348E-03
      0.210000          0.543170E-03
      0.215000          0.519942E-03
      0.220000          0.496698E-03
      0.225000          0.473579E-03
      0.230000          0.450791E-03
      0.235000          0.428565E-03
      0.240000          0.407136E-03
      0.245000          0.386719E-03
      0.250000          0.367502E-03
      0.255000          0.349629E-03
      0.260000          0.333198E-03
      0.265000          0.318248E-03
      0.270000          0.304757E-03
      0.275000          0.292646E-03
      0.280000          0.281779E-03
      0.285000          0.271975E-03
      0.290000          0.263027E-03
      0.295000          0.254713E-03
      0.300000          0.246822E-03
      0.305000          0.239167E-03
      0.310000          0.231600E-03
      0.315000          0.224022E-03
      0.320000          0.216383E-03
      0.325000          0.208682E-03
      0.330000          0.200958E-03
      0.335000          0.193277E-03
      0.340000          0.185720E-03
      0.345000          0.178372E-03
      0.350000          0.171307E-03
      0.355000          0.164587E-03
      0.360000          0.158251E-03
      0.365000          0.152320E-03
      0.370000          0.146792E-03
      0.375000          0.141654E-03
      0.380000          0.136880E-03
      0.385000          0.132437E-03
      0.390000          0.128293E-03
      0.395000          0.124415E-03
      0.400000          0.120774E-03
      0.405000          0.117343E-03
      0.410000          0.114103E-03
      0.415000          0.111036E-03
      0.420000          0.108130E-03
      0.425000          0.105376E-03
      0.430000          0.102772E-03
      0.435000          0.100316E-03
      0.440000          0.980140E-04
      0.445000          0.958718E-04
      0.450000          0.938989E-04
      0.455000          0.921044E-04
      0.460000          0.904955E-04
      0.465000          0.890747E-04
      0.470000          0.878378E-04
      0.475000          0.867717E-04
      0.480000          0.858537E-04
      0.485000          0.850513E-04
      0.490000          0.843240E-04
      0.495000          0.836252E-04
      0.500000          0.829060E-04
