 I_abs(s)[cm^-1]/c[mg/ml]
       0.00000          0.143894E-01
      0.500000E-02      0.143365E-01
      0.100000E-01      0.141792E-01
      0.150000E-01      0.139208E-01
      0.200000E-01      0.135670E-01
      0.250000E-01      0.131252E-01
      0.300000E-01      0.126049E-01
      0.350000E-01      0.120166E-01
      0.400000E-01      0.113723E-01
      0.450000E-01      0.106842E-01
      0.500000E-01      0.996532E-02
      0.550000E-01      0.922822E-02
      0.600000E-01      0.848524E-02
      0.650000E-01      0.774793E-02
      0.700000E-01      0.702681E-02
      0.750000E-01      0.633116E-02
      0.800000E-01      0.566884E-02
      0.850000E-01      0.504618E-02
      0.900000E-01      0.446793E-02
      0.950000E-01      0.393731E-02
      0.100000          0.345601E-02
      0.105000          0.302440E-02
      0.110000          0.264158E-02
      0.115000          0.230563E-02
      0.120000          0.201380E-02
      0.125000          0.176268E-02
      0.130000          0.154845E-02
      0.135000          0.136704E-02
      0.140000          0.121432E-02
      0.145000          0.108626E-02
      0.150000          0.979037E-03
      0.155000          0.889144E-03
      0.160000          0.813454E-03
      0.165000          0.749254E-03
      0.170000          0.694263E-03
      0.175000          0.646617E-03
      0.180000          0.604843E-03
      0.185000          0.567814E-03
      0.190000          0.534699E-03
      0.195000          0.504907E-03
      0.200000          0.478030E-03
      0.205000          0.453788E-03
      0.210000          0.431987E-03
      0.215000          0.412469E-03
      0.220000          0.395092E-03
      0.225000          0.379699E-03
      0.230000          0.366108E-03
      0.235000          0.354106E-03
      0.240000          0.343454E-03
      0.245000          0.333887E-03
      0.250000          0.325129E-03
      0.255000          0.316907E-03
      0.260000          0.308958E-03
      0.265000          0.301048E-03
      0.270000          0.292976E-03
      0.275000          0.284588E-03
      0.280000          0.275777E-03
      0.285000          0.266488E-03
      0.290000          0.256714E-03
      0.295000          0.246494E-03
      0.300000          0.235907E-03
      0.305000          0.225063E-03
      0.310000          0.214095E-03
      0.315000          0.203148E-03
      0.320000          0.192376E-03
      0.325000          0.181924E-03
      0.330000          0.171931E-03
      0.335000          0.162515E-03
      0.340000          0.153776E-03
      0.345000          0.145788E-03
      0.350000          0.138601E-03
      0.355000          0.132239E-03
      0.360000          0.126701E-03
      0.365000          0.121963E-03
      0.370000          0.117984E-03
      0.375000          0.114705E-03
      0.380000          0.112054E-03
      0.385000          0.109952E-03
      0.390000          0.108313E-03
      0.395000          0.107051E-03
      0.400000          0.106080E-03
      0.405000          0.105316E-03
      0.410000          0.104685E-03
      0.415000          0.104118E-03
      0.420000          0.103557E-03
      0.425000          0.102951E-03
      0.430000          0.102262E-03
      0.435000          0.101461E-03
      0.440000          0.100531E-03
      0.445000          0.994625E-04
      0.450000          0.982549E-04
      0.455000          0.969161E-04
      0.460000          0.954601E-04
      0.465000          0.939064E-04
      0.470000          0.922785E-04
      0.475000          0.906024E-04
      0.480000          0.889061E-04
      0.485000          0.872174E-04
      0.490000          0.855638E-04
      0.495000          0.839709E-04
      0.500000          0.824622E-04
