 I_abs(s)[cm^-1]/c[mg/ml]
       0.00000          0.138424E-01
      0.500000E-02      0.137769E-01
      0.100000E-01      0.135824E-01
      0.150000E-01      0.132651E-01
      0.200000E-01      0.128346E-01
      0.250000E-01      0.123042E-01
      0.300000E-01      0.116893E-01
      0.350000E-01      0.110074E-01
      0.400000E-01      0.102771E-01
      0.450000E-01      0.951687E-02
      0.500000E-01      0.874489E-02
      0.550000E-01      0.797793E-02
      0.600000E-01      0.723092E-02
      0.650000E-01      0.651647E-02
      0.700000E-01      0.584462E-02
      0.750000E-01      0.522270E-02
      0.800000E-01      0.465538E-02
      0.850000E-01      0.414480E-02
      0.900000E-01      0.369091E-02
      0.950000E-01      0.329175E-02
      0.100000          0.294392E-02
      0.105000          0.264296E-02
      0.110000          0.238374E-02
      0.115000          0.216087E-02
      0.120000          0.196898E-02
      0.125000          0.180297E-02
      0.130000          0.165824E-02
      0.135000          0.153072E-02
      0.140000          0.141699E-02
      0.145000          0.131426E-02
      0.150000          0.122032E-02
      0.155000          0.113351E-02
      0.160000          0.105259E-02
      0.165000          0.976702E-03
      0.170000          0.905252E-03
      0.175000          0.837863E-03
      0.180000          0.774303E-03
      0.185000          0.714435E-03
      0.190000          0.658188E-03
      0.195000          0.605525E-03
      0.200000          0.556432E-03
      0.205000          0.510904E-03
      0.210000          0.468937E-03
      0.215000          0.430520E-03
      0.220000          0.395631E-03
      0.225000          0.364228E-03
      0.230000          0.336243E-03
      0.235000          0.311576E-03
      0.240000          0.290090E-03
      0.245000          0.271609E-03
      0.250000          0.255917E-03
      0.255000          0.242763E-03
      0.260000          0.231865E-03
      0.265000          0.222922E-03
      0.270000          0.215621E-03
      0.275000          0.209651E-03
      0.280000          0.204714E-03
      0.285000          0.200534E-03
      0.290000          0.196869E-03
      0.295000          0.193513E-03
      0.300000          0.190304E-03
      0.305000          0.187122E-03
      0.310000          0.183886E-03
      0.315000          0.180553E-03
      0.320000          0.177111E-03
      0.325000          0.173573E-03
      0.330000          0.169965E-03
      0.335000          0.166327E-03
      0.340000          0.162702E-03
      0.345000          0.159129E-03
      0.350000          0.155643E-03
      0.355000          0.152270E-03
      0.360000          0.149027E-03
      0.365000          0.145919E-03
      0.370000          0.142942E-03
      0.375000          0.140086E-03
      0.380000          0.137333E-03
      0.385000          0.134661E-03
      0.390000          0.132049E-03
      0.395000          0.129475E-03
      0.400000          0.126921E-03
      0.405000          0.124371E-03
      0.410000          0.121818E-03
      0.415000          0.119256E-03
      0.420000          0.116687E-03
      0.425000          0.114117E-03
      0.430000          0.111557E-03
      0.435000          0.109018E-03
      0.440000          0.106514E-03
      0.445000          0.104060E-03
      0.450000          0.101669E-03
      0.455000          0.993513E-04
      0.460000          0.971142E-04
      0.465000          0.949624E-04
      0.470000          0.928971E-04
      0.475000          0.909161E-04
      0.480000          0.890149E-04
      0.485000          0.871869E-04
      0.490000          0.854248E-04
      0.495000          0.837210E-04
      0.500000          0.820688E-04
