 I_abs(s)[cm^-1]/c[mg/ml]
       0.00000          0.146111E-01
      0.500000E-02      0.145479E-01
      0.100000E-01      0.143602E-01
      0.150000E-01      0.140531E-01
      0.200000E-01      0.136349E-01
      0.250000E-01      0.131169E-01
      0.300000E-01      0.125127E-01
      0.350000E-01      0.118374E-01
      0.400000E-01      0.111077E-01
      0.450000E-01      0.103403E-01
      0.500000E-01      0.955202E-02
      0.550000E-01      0.875890E-02
      0.600000E-01      0.797562E-02
      0.650000E-01      0.721514E-02
      0.700000E-01      0.648843E-02
      0.750000E-01      0.580417E-02
      0.800000E-01      0.516877E-02
      0.850000E-01      0.458635E-02
      0.900000E-01      0.405888E-02
      0.950000E-01      0.358645E-02
      0.100000          0.316750E-02
      0.105000          0.279919E-02
      0.110000          0.247771E-02
      0.115000          0.219866E-02
      0.120000          0.195731E-02
      0.125000          0.174890E-02
      0.130000          0.156887E-02
      0.135000          0.141301E-02
      0.140000          0.127760E-02
      0.145000          0.115943E-02
      0.150000          0.105581E-02
      0.155000          0.964573E-03
      0.160000          0.883992E-03
      0.165000          0.812701E-03
      0.170000          0.749623E-03
      0.175000          0.693877E-03
      0.180000          0.644714E-03
      0.185000          0.601450E-03
      0.190000          0.563431E-03
      0.195000          0.530005E-03
      0.200000          0.500514E-03
      0.205000          0.474303E-03
      0.210000          0.450731E-03
      0.215000          0.429199E-03
      0.220000          0.409167E-03
      0.225000          0.390176E-03
      0.230000          0.371868E-03
      0.235000          0.353988E-03
      0.240000          0.336387E-03
      0.245000          0.319017E-03
      0.250000          0.301912E-03
      0.255000          0.285172E-03
      0.260000          0.268939E-03
      0.265000          0.253377E-03
      0.270000          0.238645E-03
      0.275000          0.224885E-03
      0.280000          0.212203E-03
      0.285000          0.200665E-03
      0.290000          0.190291E-03
      0.295000          0.181061E-03
      0.300000          0.172917E-03
      0.305000          0.165772E-03
      0.310000          0.159527E-03
      0.315000          0.154072E-03
      0.320000          0.149306E-03
      0.325000          0.145135E-03
      0.330000          0.141487E-03
      0.335000          0.138304E-03
      0.340000          0.135549E-03
      0.345000          0.133201E-03
      0.350000          0.131249E-03
      0.355000          0.129687E-03
      0.360000          0.128506E-03
      0.365000          0.127694E-03
      0.370000          0.127225E-03
      0.375000          0.127060E-03
      0.380000          0.127147E-03
      0.385000          0.127420E-03
      0.390000          0.127800E-03
      0.395000          0.128204E-03
      0.400000          0.128544E-03
      0.405000          0.128738E-03
      0.410000          0.128710E-03
      0.415000          0.128397E-03
      0.420000          0.127749E-03
      0.425000          0.126736E-03
      0.430000          0.125345E-03
      0.435000          0.123578E-03
      0.440000          0.121456E-03
      0.445000          0.119011E-03
      0.450000          0.116285E-03
      0.455000          0.113329E-03
      0.460000          0.110194E-03
      0.465000          0.106935E-03
      0.470000          0.103606E-03
      0.475000          0.100257E-03
      0.480000          0.969346E-04
      0.485000          0.936822E-04
      0.490000          0.905387E-04
      0.495000          0.875396E-04
      0.500000          0.847168E-04
