 I_abs(s)[cm^-1]/c[mg/ml]
       0.00000          0.135576E-01
      0.500000E-02      0.134603E-01
      0.100000E-01      0.131732E-01
      0.150000E-01      0.127109E-01
      0.200000E-01      0.120962E-01
      0.250000E-01      0.113586E-01
      0.300000E-01      0.105318E-01
      0.350000E-01      0.965122E-02
      0.400000E-01      0.875166E-02
      0.450000E-01      0.786485E-02
      0.500000E-01      0.701776E-02
      0.550000E-01      0.623128E-02
      0.600000E-01      0.551963E-02
      0.650000E-01      0.489038E-02
      0.700000E-01      0.434498E-02
      0.750000E-01      0.387976E-02
      0.800000E-01      0.348724E-02
      0.850000E-01      0.315747E-02
      0.900000E-01      0.287942E-02
      0.950000E-01      0.264215E-02
      0.100000          0.243571E-02
      0.105000          0.225177E-02
      0.110000          0.208390E-02
      0.115000          0.192764E-02
      0.120000          0.178027E-02
      0.125000          0.164046E-02
      0.130000          0.150793E-02
      0.135000          0.138297E-02
      0.140000          0.126614E-02
      0.145000          0.115795E-02
      0.150000          0.105876E-02
      0.155000          0.968618E-03
      0.160000          0.887290E-03
      0.165000          0.814311E-03
      0.170000          0.749047E-03
      0.175000          0.690774E-03
      0.180000          0.638745E-03
      0.185000          0.592244E-03
      0.190000          0.550614E-03
      0.195000          0.513266E-03
      0.200000          0.479679E-03
      0.205000          0.449398E-03
      0.210000          0.422021E-03
      0.215000          0.397201E-03
      0.220000          0.374640E-03
      0.225000          0.354094E-03
      0.230000          0.335373E-03
      0.235000          0.318337E-03
      0.240000          0.302889E-03
      0.245000          0.288965E-03
      0.250000          0.276514E-03
      0.255000          0.265484E-03
      0.260000          0.255807E-03
      0.265000          0.247383E-03
      0.270000          0.240082E-03
      0.275000          0.233744E-03
      0.280000          0.228191E-03
      0.285000          0.223236E-03
      0.290000          0.218708E-03
      0.295000          0.214459E-03
      0.300000          0.210376E-03
      0.305000          0.206390E-03
      0.310000          0.202469E-03
      0.315000          0.198614E-03
      0.320000          0.194849E-03
      0.325000          0.191207E-03
      0.330000          0.187719E-03
      0.335000          0.184407E-03
      0.340000          0.181280E-03
      0.345000          0.178330E-03
      0.350000          0.175540E-03
      0.355000          0.172885E-03
      0.360000          0.170337E-03
      0.365000          0.167875E-03
      0.370000          0.165480E-03
      0.375000          0.163141E-03
      0.380000          0.160848E-03
      0.385000          0.158593E-03
      0.390000          0.156364E-03
      0.395000          0.154141E-03
      0.400000          0.151896E-03
      0.405000          0.149595E-03
      0.410000          0.147196E-03
      0.415000          0.144660E-03
      0.420000          0.141951E-03
      0.425000          0.139043E-03
      0.430000          0.135925E-03
      0.435000          0.132599E-03
      0.440000          0.129088E-03
      0.445000          0.125429E-03
      0.450000          0.121672E-03
      0.455000          0.117876E-03
      0.460000          0.114107E-03
      0.465000          0.110435E-03
      0.470000          0.106928E-03
      0.475000          0.103648E-03
      0.480000          0.100656E-03
      0.485000          0.980003E-04
      0.490000          0.957185E-04
      0.495000          0.938336E-04
      0.500000          0.923508E-04
