 I_abs(s)[cm^-1]/c[mg/ml]
       0.00000          0.145317E-01
      0.500000E-02      0.144755E-01
      0.100000E-01      0.143081E-01
      0.150000E-01      0.140332E-01
      0.200000E-01      0.136568E-01
      0.250000E-01      0.131870E-01
      0.300000E-01      0.126338E-01
      0.350000E-01      0.120086E-01
      0.400000E-01      0.113241E-01
      0.450000E-01      0.105938E-01
      0.500000E-01      0.983137E-02
      0.550000E-01      0.905058E-02
      0.600000E-01      0.826473E-02
      0.650000E-01      0.748637E-02
      0.700000E-01      0.672695E-02
      0.750000E-01      0.599663E-02
      0.800000E-01      0.530402E-02
      0.850000E-01      0.465611E-02
      0.900000E-01      0.405820E-02
      0.950000E-01      0.351389E-02
      0.100000          0.302513E-02
      0.105000          0.259237E-02
      0.110000          0.221467E-02
      0.115000          0.188990E-02
      0.120000          0.161494E-02
      0.125000          0.138592E-02
      0.130000          0.119841E-02
      0.135000          0.104763E-02
      0.140000          0.928671E-03
      0.145000          0.836645E-03
      0.150000          0.766850E-03
      0.155000          0.714883E-03
      0.160000          0.676738E-03
      0.165000          0.648864E-03
      0.170000          0.628200E-03
      0.175000          0.612193E-03
      0.180000          0.598780E-03
      0.185000          0.586362E-03
      0.190000          0.573768E-03
      0.195000          0.560200E-03
      0.200000          0.545178E-03
      0.205000          0.528488E-03
      0.210000          0.510121E-03
      0.215000          0.490223E-03
      0.220000          0.469052E-03
      0.225000          0.446929E-03
      0.230000          0.424212E-03
      0.235000          0.401265E-03
      0.240000          0.378439E-03
      0.245000          0.356057E-03
      0.250000          0.334403E-03
      0.255000          0.313718E-03
      0.260000          0.294197E-03
      0.265000          0.275993E-03
      0.270000          0.259209E-03
      0.275000          0.243913E-03
      0.280000          0.230132E-03
      0.285000          0.217860E-03
      0.290000          0.207060E-03
      0.295000          0.197668E-03
      0.300000          0.189599E-03
      0.305000          0.182747E-03
      0.310000          0.176989E-03
      0.315000          0.172193E-03
      0.320000          0.168215E-03
      0.325000          0.164910E-03
      0.330000          0.162134E-03
      0.335000          0.159744E-03
      0.340000          0.157608E-03
      0.345000          0.155606E-03
      0.350000          0.153632E-03
      0.355000          0.151600E-03
      0.360000          0.149442E-03
      0.365000          0.147110E-03
      0.370000          0.144578E-03
      0.375000          0.141839E-03
      0.380000          0.138906E-03
      0.385000          0.135803E-03
      0.390000          0.132570E-03
      0.395000          0.129253E-03
      0.400000          0.125906E-03
      0.405000          0.122580E-03
      0.410000          0.119327E-03
      0.415000          0.116192E-03
      0.420000          0.113212E-03
      0.425000          0.110414E-03
      0.430000          0.107814E-03
      0.435000          0.105417E-03
      0.440000          0.103219E-03
      0.445000          0.101204E-03
      0.450000          0.993497E-04
      0.455000          0.976284E-04
      0.460000          0.960093E-04
      0.465000          0.944610E-04
      0.470000          0.929541E-04
      0.475000          0.914634E-04
      0.480000          0.899693E-04
      0.485000          0.884593E-04
      0.490000          0.869284E-04
      0.495000          0.853794E-04
      0.500000          0.838223E-04
