 I_abs(s)[cm^-1]/c[mg/ml]
       0.00000          0.137189E-01
      0.500000E-02      0.136296E-01
      0.100000E-01      0.133654E-01
      0.150000E-01      0.129379E-01
      0.200000E-01      0.123653E-01
      0.250000E-01      0.116715E-01
      0.300000E-01      0.108845E-01
      0.350000E-01      0.100347E-01
      0.400000E-01      0.915266E-02
      0.450000E-01      0.826806E-02
      0.500000E-01      0.740756E-02
      0.550000E-01      0.659371E-02
      0.600000E-01      0.584402E-02
      0.650000E-01      0.517051E-02
      0.700000E-01      0.457958E-02
      0.750000E-01      0.407237E-02
      0.800000E-01      0.364540E-02
      0.850000E-01      0.329149E-02
      0.900000E-01      0.300083E-02
      0.950000E-01      0.276205E-02
      0.100000          0.256334E-02
      0.105000          0.239337E-02
      0.110000          0.224205E-02
      0.115000          0.210112E-02
      0.120000          0.196439E-02
      0.125000          0.182787E-02
      0.130000          0.168962E-02
      0.135000          0.154950E-02
      0.140000          0.140875E-02
      0.145000          0.126955E-02
      0.150000          0.113458E-02
      0.155000          0.100661E-02
      0.160000          0.888149E-03
      0.165000          0.781172E-03
      0.170000          0.686992E-03
      0.175000          0.606179E-03
      0.180000          0.538592E-03
      0.185000          0.483464E-03
      0.190000          0.439538E-03
      0.195000          0.405225E-03
      0.200000          0.378770E-03
      0.205000          0.358401E-03
      0.210000          0.342456E-03
      0.215000          0.329477E-03
      0.220000          0.318269E-03
      0.225000          0.307928E-03
      0.230000          0.297839E-03
      0.235000          0.287648E-03
      0.240000          0.277225E-03
      0.245000          0.266608E-03
      0.250000          0.255958E-03
      0.255000          0.245503E-03
      0.260000          0.235495E-03
      0.265000          0.226178E-03
      0.270000          0.217757E-03
      0.275000          0.210380E-03
      0.280000          0.204134E-03
      0.285000          0.199037E-03
      0.290000          0.195044E-03
      0.295000          0.192056E-03
      0.300000          0.189928E-03
      0.305000          0.188483E-03
      0.310000          0.187528E-03
      0.315000          0.186860E-03
      0.320000          0.186290E-03
      0.325000          0.185643E-03
      0.330000          0.184775E-03
      0.335000          0.183577E-03
      0.340000          0.181977E-03
      0.345000          0.179946E-03
      0.350000          0.177493E-03
      0.355000          0.174661E-03
      0.360000          0.171523E-03
      0.365000          0.168167E-03
      0.370000          0.164696E-03
      0.375000          0.161212E-03
      0.380000          0.157809E-03
      0.385000          0.154566E-03
      0.390000          0.151541E-03
      0.395000          0.148767E-03
      0.400000          0.146252E-03
      0.405000          0.143983E-03
      0.410000          0.141923E-03
      0.415000          0.140023E-03
      0.420000          0.138225E-03
      0.425000          0.136468E-03
      0.430000          0.134698E-03
      0.435000          0.132868E-03
      0.440000          0.130949E-03
      0.445000          0.128924E-03
      0.450000          0.126795E-03
      0.455000          0.124578E-03
      0.460000          0.122301E-03
      0.465000          0.120000E-03
      0.470000          0.117714E-03
      0.475000          0.115479E-03
      0.480000          0.113326E-03
      0.485000          0.111273E-03
      0.490000          0.109327E-03
      0.495000          0.107484E-03
      0.500000          0.105723E-03
