 I_abs(s)[cm^-1]/c[mg/ml]
       0.00000          0.143736E-01
      0.500000E-02      0.143200E-01
      0.100000E-01      0.141605E-01
      0.150000E-01      0.138985E-01
      0.200000E-01      0.135397E-01
      0.250000E-01      0.130916E-01
      0.300000E-01      0.125637E-01
      0.350000E-01      0.119667E-01
      0.400000E-01      0.113126E-01
      0.450000E-01      0.106141E-01
      0.500000E-01      0.988407E-02
      0.550000E-01      0.913555E-02
      0.600000E-01      0.838110E-02
      0.650000E-01      0.763258E-02
      0.700000E-01      0.690086E-02
      0.750000E-01      0.619554E-02
      0.800000E-01      0.552480E-02
      0.850000E-01      0.489529E-02
      0.900000E-01      0.431203E-02
      0.950000E-01      0.377843E-02
      0.100000          0.329638E-02
      0.105000          0.286627E-02
      0.110000          0.248724E-02
      0.115000          0.215725E-02
      0.120000          0.187339E-02
      0.125000          0.163197E-02
      0.130000          0.142886E-02
      0.135000          0.125958E-02
      0.140000          0.111958E-02
      0.145000          0.100436E-02
      0.150000          0.909649E-03
      0.155000          0.831486E-03
      0.160000          0.766338E-03
      0.165000          0.711143E-03
      0.170000          0.663339E-03
      0.175000          0.620865E-03
      0.180000          0.582144E-03
      0.185000          0.546039E-03
      0.190000          0.511802E-03
      0.195000          0.479016E-03
      0.200000          0.447522E-03
      0.205000          0.417359E-03
      0.210000          0.388695E-03
      0.215000          0.361771E-03
      0.220000          0.336850E-03
      0.225000          0.314178E-03
      0.230000          0.293951E-03
      0.235000          0.276294E-03
      0.240000          0.261251E-03
      0.245000          0.248780E-03
      0.250000          0.238757E-03
      0.255000          0.230986E-03
      0.260000          0.225213E-03
      0.265000          0.221141E-03
      0.270000          0.218446E-03
      0.275000          0.216796E-03
      0.280000          0.215866E-03
      0.285000          0.215347E-03
      0.290000          0.214965E-03
      0.295000          0.214482E-03
      0.300000          0.213703E-03
      0.305000          0.212482E-03
      0.310000          0.210715E-03
      0.315000          0.208343E-03
      0.320000          0.205348E-03
      0.325000          0.201744E-03
      0.330000          0.197574E-03
      0.335000          0.192905E-03
      0.340000          0.187816E-03
      0.345000          0.182400E-03
      0.350000          0.176753E-03
      0.355000          0.170972E-03
      0.360000          0.165150E-03
      0.365000          0.159374E-03
      0.370000          0.153722E-03
      0.375000          0.148263E-03
      0.380000          0.143054E-03
      0.385000          0.138144E-03
      0.390000          0.133568E-03
      0.395000          0.129351E-03
      0.400000          0.125511E-03
      0.405000          0.122054E-03
      0.410000          0.118980E-03
      0.415000          0.116279E-03
      0.420000          0.113938E-03
      0.425000          0.111934E-03
      0.430000          0.110243E-03
      0.435000          0.108835E-03
      0.440000          0.107676E-03
      0.445000          0.106731E-03
      0.450000          0.105961E-03
      0.455000          0.105330E-03
      0.460000          0.104796E-03
      0.465000          0.104325E-03
      0.470000          0.103878E-03
      0.475000          0.103423E-03
      0.480000          0.102931E-03
      0.485000          0.102375E-03
      0.490000          0.101735E-03
      0.495000          0.100995E-03
      0.500000          0.100145E-03
