 I_abs(s)[cm^-1]/c[mg/ml]
       0.00000          0.146111E-01
      0.500000E-02      0.145577E-01
      0.100000E-01      0.143987E-01
      0.150000E-01      0.141374E-01
      0.200000E-01      0.137793E-01
      0.250000E-01      0.133317E-01
      0.300000E-01      0.128037E-01
      0.350000E-01      0.122058E-01
      0.400000E-01      0.115496E-01
      0.450000E-01      0.108472E-01
      0.500000E-01      0.101113E-01
      0.550000E-01      0.935446E-02
      0.600000E-01      0.858906E-02
      0.650000E-01      0.782667E-02
      0.700000E-01      0.707798E-02
      0.750000E-01      0.635252E-02
      0.800000E-01      0.565851E-02
      0.850000E-01      0.500271E-02
      0.900000E-01      0.439039E-02
      0.950000E-01      0.382534E-02
      0.100000          0.330989E-02
      0.105000          0.284500E-02
      0.110000          0.243043E-02
      0.115000          0.206488E-02
      0.120000          0.174614E-02
      0.125000          0.147133E-02
      0.130000          0.123703E-02
      0.135000          0.103953E-02
      0.140000          0.874924E-03
      0.145000          0.739304E-03
      0.150000          0.628874E-03
      0.155000          0.540047E-03
      0.160000          0.469516E-03
      0.165000          0.414305E-03
      0.170000          0.371793E-03
      0.175000          0.339715E-03
      0.180000          0.316153E-03
      0.185000          0.299503E-03
      0.190000          0.288447E-03
      0.195000          0.281903E-03
      0.200000          0.278987E-03
      0.205000          0.278972E-03
      0.210000          0.281246E-03
      0.215000          0.285281E-03
      0.220000          0.290607E-03
      0.225000          0.296793E-03
      0.230000          0.303434E-03
      0.235000          0.310145E-03
      0.240000          0.316561E-03
      0.245000          0.322342E-03
      0.250000          0.327175E-03
      0.255000          0.330784E-03
      0.260000          0.332939E-03
      0.265000          0.333463E-03
      0.270000          0.332234E-03
      0.275000          0.329192E-03
      0.280000          0.324340E-03
      0.285000          0.317737E-03
      0.290000          0.309500E-03
      0.295000          0.299792E-03
      0.300000          0.288817E-03
      0.305000          0.276808E-03
      0.310000          0.264019E-03
      0.315000          0.250712E-03
      0.320000          0.237151E-03
      0.325000          0.223588E-03
      0.330000          0.210259E-03
      0.335000          0.197378E-03
      0.340000          0.185128E-03
      0.345000          0.173662E-03
      0.350000          0.163100E-03
      0.355000          0.153530E-03
      0.360000          0.145005E-03
      0.365000          0.137550E-03
      0.370000          0.131161E-03
      0.375000          0.125811E-03
      0.380000          0.121451E-03
      0.385000          0.118016E-03
      0.390000          0.115428E-03
      0.395000          0.113599E-03
      0.400000          0.112435E-03
      0.405000          0.111839E-03
      0.410000          0.111710E-03
      0.415000          0.111954E-03
      0.420000          0.112477E-03
      0.425000          0.113190E-03
      0.430000          0.114011E-03
      0.435000          0.114866E-03
      0.440000          0.115689E-03
      0.445000          0.116421E-03
      0.450000          0.117015E-03
      0.455000          0.117429E-03
      0.460000          0.117635E-03
      0.465000          0.117610E-03
      0.470000          0.117341E-03
      0.475000          0.116824E-03
      0.480000          0.116064E-03
      0.485000          0.115068E-03
      0.490000          0.113856E-03
      0.495000          0.112447E-03
      0.500000          0.110870E-03
