 I_abs(s)[cm^-1]/c[mg/ml]
       0.00000          0.139277E-01
      0.500000E-02      0.138463E-01
      0.100000E-01      0.136048E-01
      0.150000E-01      0.132115E-01
      0.200000E-01      0.126798E-01
      0.250000E-01      0.120272E-01
      0.300000E-01      0.112748E-01
      0.350000E-01      0.104463E-01
      0.400000E-01      0.956643E-02
      0.450000E-01      0.866026E-02
      0.500000E-01      0.775189E-02
      0.550000E-01      0.686353E-02
      0.600000E-01      0.601465E-02
      0.650000E-01      0.522136E-02
      0.700000E-01      0.449602E-02
      0.750000E-01      0.384707E-02
      0.800000E-01      0.327908E-02
      0.850000E-01      0.279297E-02
      0.900000E-01      0.238648E-02
      0.950000E-01      0.205466E-02
      0.100000          0.179047E-02
      0.105000          0.158551E-02
      0.110000          0.143056E-02
      0.115000          0.131621E-02
      0.120000          0.123336E-02
      0.125000          0.117363E-02
      0.130000          0.112965E-02
      0.135000          0.109522E-02
      0.140000          0.106544E-02
      0.145000          0.103664E-02
      0.150000          0.100631E-02
      0.155000          0.972980E-03
      0.160000          0.936010E-03
      0.165000          0.895418E-03
      0.170000          0.851686E-03
      0.175000          0.805595E-03
      0.180000          0.758074E-03
      0.185000          0.710088E-03
      0.190000          0.662550E-03
      0.195000          0.616267E-03
      0.200000          0.571911E-03
      0.205000          0.530005E-03
      0.210000          0.490930E-03
      0.215000          0.454933E-03
      0.220000          0.422146E-03
      0.225000          0.392600E-03
      0.230000          0.366244E-03
      0.235000          0.342952E-03
      0.240000          0.322541E-03
      0.245000          0.304775E-03
      0.250000          0.289377E-03
      0.255000          0.276040E-03
      0.260000          0.264437E-03
      0.265000          0.254237E-03
      0.270000          0.245115E-03
      0.275000          0.236774E-03
      0.280000          0.228953E-03
      0.285000          0.221442E-03
      0.290000          0.214092E-03
      0.295000          0.206815E-03
      0.300000          0.199588E-03
      0.305000          0.192444E-03
      0.310000          0.185459E-03
      0.315000          0.178743E-03
      0.320000          0.172416E-03
      0.325000          0.166598E-03
      0.330000          0.161386E-03
      0.335000          0.156846E-03
      0.340000          0.152998E-03
      0.345000          0.149818E-03
      0.350000          0.147234E-03
      0.355000          0.145134E-03
      0.360000          0.143374E-03
      0.365000          0.141793E-03
      0.370000          0.140224E-03
      0.375000          0.138515E-03
      0.380000          0.136532E-03
      0.385000          0.134182E-03
      0.390000          0.131407E-03
      0.395000          0.128196E-03
      0.400000          0.124583E-03
      0.405000          0.120637E-03
      0.410000          0.116458E-03
      0.415000          0.112169E-03
      0.420000          0.107900E-03
      0.425000          0.103780E-03
      0.430000          0.999267E-04
      0.435000          0.964392E-04
      0.440000          0.933898E-04
      0.445000          0.908227E-04
      0.450000          0.887525E-04
      0.455000          0.871663E-04
      0.460000          0.860271E-04
      0.465000          0.852790E-04
      0.470000          0.848529E-04
      0.475000          0.846726E-04
      0.480000          0.846606E-04
      0.485000          0.847427E-04
      0.490000          0.848524E-04
      0.495000          0.849336E-04
      0.500000          0.849421E-04
