 I_abs(s)[cm^-1]/c[mg/ml]
       0.00000          0.144288E-01
      0.500000E-02      0.143585E-01
      0.100000E-01      0.141498E-01
      0.150000E-01      0.138092E-01
      0.200000E-01      0.133469E-01
      0.250000E-01      0.127769E-01
      0.300000E-01      0.121156E-01
      0.350000E-01      0.113817E-01
      0.400000E-01      0.105946E-01
      0.450000E-01      0.977430E-02
      0.500000E-01      0.894008E-02
      0.550000E-01      0.810992E-02
      0.600000E-01      0.729990E-02
      0.650000E-01      0.652369E-02
      0.700000E-01      0.579232E-02
      0.750000E-01      0.511397E-02
      0.800000E-01      0.449406E-02
      0.850000E-01      0.393541E-02
      0.900000E-01      0.343847E-02
      0.950000E-01      0.300174E-02
      0.100000          0.262214E-02
      0.105000          0.229542E-02
      0.110000          0.201662E-02
      0.115000          0.178038E-02
      0.120000          0.158127E-02
      0.125000          0.141406E-02
      0.130000          0.127385E-02
      0.135000          0.115623E-02
      0.140000          0.105732E-02
      0.145000          0.973743E-03
      0.150000          0.902637E-03
      0.155000          0.841591E-03
      0.160000          0.788587E-03
      0.165000          0.741941E-03
      0.170000          0.700255E-03
      0.175000          0.662371E-03
      0.180000          0.627348E-03
      0.185000          0.594436E-03
      0.190000          0.563070E-03
      0.195000          0.532859E-03
      0.200000          0.503575E-03
      0.205000          0.475143E-03
      0.210000          0.447620E-03
      0.215000          0.421168E-03
      0.220000          0.396027E-03
      0.225000          0.372473E-03
      0.230000          0.350783E-03
      0.235000          0.331199E-03
      0.240000          0.313896E-03
      0.245000          0.298959E-03
      0.250000          0.286369E-03
      0.255000          0.276003E-03
      0.260000          0.267638E-03
      0.265000          0.260970E-03
      0.270000          0.255640E-03
      0.275000          0.251258E-03
      0.280000          0.247438E-03
      0.285000          0.243821E-03
      0.290000          0.240104E-03
      0.295000          0.236054E-03
      0.300000          0.231517E-03
      0.305000          0.226424E-03
      0.310000          0.220780E-03
      0.315000          0.214658E-03
      0.320000          0.208181E-03
      0.325000          0.201500E-03
      0.330000          0.194782E-03
      0.335000          0.188188E-03
      0.340000          0.181860E-03
      0.345000          0.175909E-03
      0.350000          0.170413E-03
      0.355000          0.165414E-03
      0.360000          0.160918E-03
      0.365000          0.156906E-03
      0.370000          0.153336E-03
      0.375000          0.150156E-03
      0.380000          0.147313E-03
      0.385000          0.144754E-03
      0.390000          0.142440E-03
      0.395000          0.140341E-03
      0.400000          0.138443E-03
      0.405000          0.136743E-03
      0.410000          0.135245E-03
      0.415000          0.133960E-03
      0.420000          0.132896E-03
      0.425000          0.132056E-03
      0.430000          0.131433E-03
      0.435000          0.131009E-03
      0.440000          0.130749E-03
      0.445000          0.130606E-03
      0.450000          0.130523E-03
      0.455000          0.130429E-03
      0.460000          0.130253E-03
      0.465000          0.129921E-03
      0.470000          0.129365E-03
      0.475000          0.128524E-03
      0.480000          0.127353E-03
      0.485000          0.125820E-03
      0.490000          0.123912E-03
      0.495000          0.121633E-03
      0.500000          0.119005E-03
