 I_abs(s)[cm^-1]/c[mg/ml]
       0.00000          0.141537E-01
      0.500000E-02      0.140867E-01
      0.100000E-01      0.138878E-01
      0.150000E-01      0.135628E-01
      0.200000E-01      0.131210E-01
      0.250000E-01      0.125750E-01
      0.300000E-01      0.119399E-01
      0.350000E-01      0.112327E-01
      0.400000E-01      0.104717E-01
      0.450000E-01      0.967546E-02
      0.500000E-01      0.886249E-02
      0.550000E-01      0.805018E-02
      0.600000E-01      0.725445E-02
      0.650000E-01      0.648919E-02
      0.700000E-01      0.576596E-02
      0.750000E-01      0.509377E-02
      0.800000E-01      0.447902E-02
      0.850000E-01      0.392556E-02
      0.900000E-01      0.343486E-02
      0.950000E-01      0.300625E-02
      0.100000          0.263729E-02
      0.105000          0.232410E-02
      0.110000          0.206172E-02
      0.115000          0.184452E-02
      0.120000          0.166651E-02
      0.125000          0.152167E-02
      0.130000          0.140417E-02
      0.135000          0.130857E-02
      0.140000          0.123001E-02
      0.145000          0.116422E-02
      0.150000          0.110761E-02
      0.155000          0.105726E-02
      0.160000          0.101089E-02
      0.165000          0.966782E-03
      0.170000          0.923752E-03
      0.175000          0.881038E-03
      0.180000          0.838239E-03
      0.185000          0.795232E-03
      0.190000          0.752104E-03
      0.195000          0.709087E-03
      0.200000          0.666502E-03
      0.205000          0.624717E-03
      0.210000          0.584104E-03
      0.215000          0.545016E-03
      0.220000          0.507758E-03
      0.225000          0.472578E-03
      0.230000          0.439655E-03
      0.235000          0.409095E-03
      0.240000          0.380936E-03
      0.245000          0.355152E-03
      0.250000          0.331659E-03
      0.255000          0.310330E-03
      0.260000          0.291006E-03
      0.265000          0.273509E-03
      0.270000          0.257651E-03
      0.275000          0.243250E-03
      0.280000          0.230135E-03
      0.285000          0.218153E-03
      0.290000          0.207171E-03
      0.295000          0.197082E-03
      0.300000          0.187798E-03
      0.305000          0.179249E-03
      0.310000          0.171381E-03
      0.315000          0.164148E-03
      0.320000          0.157510E-03
      0.325000          0.151428E-03
      0.330000          0.145862E-03
      0.335000          0.140769E-03
      0.340000          0.136103E-03
      0.345000          0.131817E-03
      0.350000          0.127863E-03
      0.355000          0.124195E-03
      0.360000          0.120772E-03
      0.365000          0.117559E-03
      0.370000          0.114529E-03
      0.375000          0.111664E-03
      0.380000          0.108954E-03
      0.385000          0.106398E-03
      0.390000          0.103997E-03
      0.395000          0.101759E-03
      0.400000          0.996931E-04
      0.405000          0.978052E-04
      0.410000          0.960999E-04
      0.415000          0.945769E-04
      0.420000          0.932309E-04
      0.425000          0.920508E-04
      0.430000          0.910208E-04
      0.435000          0.901210E-04
      0.440000          0.893287E-04
      0.445000          0.886201E-04
      0.450000          0.879711E-04
      0.455000          0.873594E-04
      0.460000          0.867649E-04
      0.465000          0.861702E-04
      0.470000          0.855617E-04
      0.475000          0.849286E-04
      0.480000          0.842632E-04
      0.485000          0.835604E-04
      0.490000          0.828168E-04
      0.495000          0.820308E-04
      0.500000          0.812019E-04
