 I_abs(s)[cm^-1]/c[mg/ml]
       0.00000          0.137497E-01
      0.500000E-02      0.136614E-01
      0.100000E-01      0.134004E-01
      0.150000E-01      0.129781E-01
      0.200000E-01      0.124128E-01
      0.250000E-01      0.117282E-01
      0.300000E-01      0.109519E-01
      0.350000E-01      0.101140E-01
      0.400000E-01      0.924461E-02
      0.450000E-01      0.837266E-02
      0.500000E-01      0.752404E-02
      0.550000E-01      0.672048E-02
      0.600000E-01      0.597868E-02
      0.650000E-01      0.530994E-02
      0.700000E-01      0.472015E-02
      0.750000E-01      0.421022E-02
      0.800000E-01      0.377673E-02
      0.850000E-01      0.341290E-02
      0.900000E-01      0.310965E-02
      0.950000E-01      0.285658E-02
      0.100000          0.264306E-02
      0.105000          0.245898E-02
      0.110000          0.229544E-02
      0.115000          0.214519E-02
      0.120000          0.200276E-02
      0.125000          0.186454E-02
      0.130000          0.172859E-02
      0.135000          0.159433E-02
      0.140000          0.146224E-02
      0.145000          0.133348E-02
      0.150000          0.120954E-02
      0.155000          0.109197E-02
      0.160000          0.982103E-03
      0.165000          0.880992E-03
      0.170000          0.789280E-03
      0.175000          0.707217E-03
      0.180000          0.634698E-03
      0.185000          0.571332E-03
      0.190000          0.516524E-03
      0.195000          0.469558E-03
      0.200000          0.429664E-03
      0.205000          0.396066E-03
      0.210000          0.368018E-03
      0.215000          0.344819E-03
      0.220000          0.325809E-03
      0.225000          0.310369E-03
      0.230000          0.297913E-03
      0.235000          0.287880E-03
      0.240000          0.279734E-03
      0.245000          0.272969E-03
      0.250000          0.267118E-03
      0.255000          0.261766E-03
      0.260000          0.256561E-03
      0.265000          0.251227E-03
      0.270000          0.245571E-03
      0.275000          0.239483E-03
      0.280000          0.232934E-03
      0.285000          0.225966E-03
      0.290000          0.218678E-03
      0.295000          0.211210E-03
      0.300000          0.203727E-03
      0.305000          0.196399E-03
      0.310000          0.189394E-03
      0.315000          0.182857E-03
      0.320000          0.176911E-03
      0.325000          0.171643E-03
      0.330000          0.167109E-03
      0.335000          0.163330E-03
      0.340000          0.160290E-03
      0.345000          0.157946E-03
      0.350000          0.156224E-03
      0.355000          0.155026E-03
      0.360000          0.154233E-03
      0.365000          0.153715E-03
      0.370000          0.153330E-03
      0.375000          0.152938E-03
      0.380000          0.152404E-03
      0.385000          0.151610E-03
      0.390000          0.150456E-03
      0.395000          0.148876E-03
      0.400000          0.146834E-03
      0.405000          0.144329E-03
      0.410000          0.141397E-03
      0.415000          0.138105E-03
      0.420000          0.134544E-03
      0.425000          0.130827E-03
      0.430000          0.127070E-03
      0.435000          0.123392E-03
      0.440000          0.119899E-03
      0.445000          0.116678E-03
      0.450000          0.113790E-03
      0.455000          0.111270E-03
      0.460000          0.109122E-03
      0.465000          0.107321E-03
      0.470000          0.105822E-03
      0.475000          0.104562E-03
      0.480000          0.103469E-03
      0.485000          0.102467E-03
      0.490000          0.101485E-03
      0.495000          0.100461E-03
      0.500000          0.993453E-04
