 I_abs(s)[cm^-1]/c[mg/ml]
       0.00000          0.142085E-01
      0.500000E-02      0.141284E-01
      0.100000E-01      0.138912E-01
      0.150000E-01      0.135056E-01
      0.200000E-01      0.129857E-01
      0.250000E-01      0.123502E-01
      0.300000E-01      0.116209E-01
      0.350000E-01      0.108222E-01
      0.400000E-01      0.997924E-02
      0.450000E-01      0.911681E-02
      0.500000E-01      0.825822E-02
      0.550000E-01      0.742419E-02
      0.600000E-01      0.663208E-02
      0.650000E-01      0.589540E-02
      0.700000E-01      0.522348E-02
      0.750000E-01      0.462156E-02
      0.800000E-01      0.409107E-02
      0.850000E-01      0.363006E-02
      0.900000E-01      0.323392E-02
      0.950000E-01      0.289601E-02
      0.100000          0.260854E-02
      0.105000          0.236317E-02
      0.110000          0.215176E-02
      0.115000          0.196683E-02
      0.120000          0.180196E-02
      0.125000          0.165202E-02
      0.130000          0.151325E-02
      0.135000          0.138319E-02
      0.140000          0.126052E-02
      0.145000          0.114484E-02
      0.150000          0.103638E-02
      0.155000          0.935737E-03
      0.160000          0.843592E-03
      0.165000          0.760524E-03
      0.170000          0.686846E-03
      0.175000          0.622520E-03
      0.180000          0.567132E-03
      0.185000          0.519927E-03
      0.190000          0.479889E-03
      0.195000          0.445837E-03
      0.200000          0.416546E-03
      0.205000          0.390848E-03
      0.210000          0.367728E-03
      0.215000          0.346385E-03
      0.220000          0.326267E-03
      0.225000          0.307065E-03
      0.230000          0.288696E-03
      0.235000          0.271244E-03
      0.240000          0.254905E-03
      0.245000          0.239920E-03
      0.250000          0.226510E-03
      0.255000          0.214828E-03
      0.260000          0.204926E-03
      0.265000          0.196739E-03
      0.270000          0.190084E-03
      0.275000          0.184688E-03
      0.280000          0.180212E-03
      0.285000          0.176294E-03
      0.290000          0.172588E-03
      0.295000          0.168802E-03
      0.300000          0.164725E-03
      0.305000          0.160246E-03
      0.310000          0.155359E-03
      0.315000          0.150154E-03
      0.320000          0.144799E-03
      0.325000          0.139516E-03
      0.330000          0.134548E-03
      0.335000          0.130126E-03
      0.340000          0.126444E-03
      0.345000          0.123633E-03
      0.350000          0.121745E-03
      0.355000          0.120752E-03
      0.360000          0.120545E-03
      0.365000          0.120946E-03
      0.370000          0.121732E-03
      0.375000          0.122653E-03
      0.380000          0.123460E-03
      0.385000          0.123926E-03
      0.390000          0.123871E-03
      0.395000          0.123174E-03
      0.400000          0.121782E-03
      0.405000          0.119715E-03
      0.410000          0.117057E-03
      0.415000          0.113948E-03
      0.420000          0.110570E-03
      0.425000          0.107124E-03
      0.430000          0.103814E-03
      0.435000          0.100830E-03
      0.440000          0.983264E-04
      0.445000          0.964168E-04
      0.450000          0.951613E-04
      0.455000          0.945661E-04
      0.460000          0.945850E-04
      0.465000          0.951265E-04
      0.470000          0.960634E-04
      0.475000          0.972456E-04
      0.480000          0.985136E-04
      0.485000          0.997116E-04
      0.490000          0.100700E-03
      0.495000          0.101366E-03
      0.500000          0.101628E-03
