 I_abs(s)[cm^-1]/c[mg/ml]
       0.00000          0.133365E-01
      0.500000E-02      0.132300E-01
      0.100000E-01      0.129163E-01
      0.150000E-01      0.124117E-01
      0.200000E-01      0.117423E-01
      0.250000E-01      0.109418E-01
      0.300000E-01      0.100487E-01
      0.350000E-01      0.910378E-02
      0.400000E-01      0.814727E-02
      0.450000E-01      0.721595E-02
      0.500000E-01      0.634110E-02
      0.550000E-01      0.554685E-02
      0.600000E-01      0.484926E-02
      0.650000E-01      0.425613E-02
      0.700000E-01      0.376750E-02
      0.750000E-01      0.337674E-02
      0.800000E-01      0.307203E-02
      0.850000E-01      0.283812E-02
      0.900000E-01      0.265816E-02
      0.950000E-01      0.251535E-02
      0.100000          0.239440E-02
      0.105000          0.228258E-02
      0.110000          0.217043E-02
      0.115000          0.205195E-02
      0.120000          0.192449E-02
      0.125000          0.178831E-02
      0.130000          0.164593E-02
      0.135000          0.150131E-02
      0.140000          0.135913E-02
      0.145000          0.122404E-02
      0.150000          0.110007E-02
      0.155000          0.990240E-03
      0.160000          0.896311E-03
      0.165000          0.818758E-03
      0.170000          0.756866E-03
      0.175000          0.708945E-03
      0.180000          0.672626E-03
      0.185000          0.645172E-03
      0.190000          0.623782E-03
      0.195000          0.605853E-03
      0.200000          0.589180E-03
      0.205000          0.572086E-03
      0.210000          0.553471E-03
      0.215000          0.532803E-03
      0.220000          0.510055E-03
      0.225000          0.485597E-03
      0.230000          0.460078E-03
      0.235000          0.434288E-03
      0.240000          0.409045E-03
      0.245000          0.385084E-03
      0.250000          0.362980E-03
      0.255000          0.343103E-03
      0.260000          0.325598E-03
      0.265000          0.310389E-03
      0.270000          0.297219E-03
      0.275000          0.285693E-03
      0.280000          0.275338E-03
      0.285000          0.265665E-03
      0.290000          0.256224E-03
      0.295000          0.246655E-03
      0.300000          0.236716E-03
      0.305000          0.226304E-03
      0.310000          0.215450E-03
      0.315000          0.204304E-03
      0.320000          0.193108E-03
      0.325000          0.182159E-03
      0.330000          0.171765E-03
      0.335000          0.162214E-03
      0.340000          0.153734E-03
      0.345000          0.146478E-03
      0.350000          0.140506E-03
      0.355000          0.135789E-03
      0.360000          0.132216E-03
      0.365000          0.129616E-03
      0.370000          0.127779E-03
      0.375000          0.126478E-03
      0.380000          0.125498E-03
      0.385000          0.124649E-03
      0.390000          0.123783E-03
      0.395000          0.122794E-03
      0.400000          0.121626E-03
      0.405000          0.120259E-03
      0.410000          0.118706E-03
      0.415000          0.116997E-03
      0.420000          0.115171E-03
      0.425000          0.113266E-03
      0.430000          0.111315E-03
      0.435000          0.109338E-03
      0.440000          0.107346E-03
      0.445000          0.105338E-03
      0.450000          0.103314E-03
      0.455000          0.101267E-03
      0.460000          0.991959E-04
      0.465000          0.971047E-04
      0.470000          0.950028E-04
      0.475000          0.929052E-04
      0.480000          0.908312E-04
      0.485000          0.888010E-04
      0.490000          0.868332E-04
      0.495000          0.849425E-04
      0.500000          0.831377E-04
