 I_abs(s)[cm^-1]/c[mg/ml]
       0.00000          0.142634E-01
      0.500000E-02      0.142030E-01
      0.100000E-01      0.140235E-01
      0.150000E-01      0.137297E-01
      0.200000E-01      0.133295E-01
      0.250000E-01      0.128331E-01
      0.300000E-01      0.122534E-01
      0.350000E-01      0.116047E-01
      0.400000E-01      0.109022E-01
      0.450000E-01      0.101618E-01
      0.500000E-01      0.939921E-02
      0.550000E-01      0.862952E-02
      0.600000E-01      0.786661E-02
      0.650000E-01      0.712284E-02
      0.700000E-01      0.640873E-02
      0.750000E-01      0.573284E-02
      0.800000E-01      0.510162E-02
      0.850000E-01      0.451950E-02
      0.900000E-01      0.398899E-02
      0.950000E-01      0.351087E-02
      0.100000          0.308443E-02
      0.105000          0.270774E-02
      0.110000          0.237795E-02
      0.115000          0.209155E-02
      0.120000          0.184461E-02
      0.125000          0.163304E-02
      0.130000          0.145276E-02
      0.135000          0.129980E-02
      0.140000          0.117047E-02
      0.145000          0.106134E-02
      0.150000          0.969320E-03
      0.155000          0.891654E-03
      0.160000          0.825886E-03
      0.165000          0.769854E-03
      0.170000          0.721654E-03
      0.175000          0.679619E-03
      0.180000          0.642298E-03
      0.185000          0.608441E-03
      0.190000          0.576995E-03
      0.195000          0.547100E-03
      0.200000          0.518089E-03
      0.205000          0.489489E-03
      0.210000          0.461015E-03
      0.215000          0.432568E-03
      0.220000          0.404213E-03
      0.225000          0.376157E-03
      0.230000          0.348726E-03
      0.235000          0.322322E-03
      0.240000          0.297388E-03
      0.245000          0.274369E-03
      0.250000          0.253672E-03
      0.255000          0.235635E-03
      0.260000          0.220499E-03
      0.265000          0.208390E-03
      0.270000          0.199312E-03
      0.275000          0.193144E-03
      0.280000          0.189653E-03
      0.285000          0.188512E-03
      0.290000          0.189317E-03
      0.295000          0.191619E-03
      0.300000          0.194949E-03
      0.305000          0.198844E-03
      0.310000          0.202869E-03
      0.315000          0.206640E-03
      0.320000          0.209836E-03
      0.325000          0.212204E-03
      0.330000          0.213566E-03
      0.335000          0.213817E-03
      0.340000          0.212913E-03
      0.345000          0.210871E-03
      0.350000          0.207748E-03
      0.355000          0.203639E-03
      0.360000          0.198660E-03
      0.365000          0.192940E-03
      0.370000          0.186615E-03
      0.375000          0.179822E-03
      0.380000          0.172691E-03
      0.385000          0.165349E-03
      0.390000          0.157914E-03
      0.395000          0.150498E-03
      0.400000          0.143205E-03
      0.405000          0.136134E-03
      0.410000          0.129375E-03
      0.415000          0.123010E-03
      0.420000          0.117112E-03
      0.425000          0.111744E-03
      0.430000          0.106953E-03
      0.435000          0.102771E-03
      0.440000          0.992123E-04
      0.445000          0.962726E-04
      0.450000          0.939289E-04
      0.455000          0.921402E-04
      0.460000          0.908495E-04
      0.465000          0.899869E-04
      0.470000          0.894733E-04
      0.475000          0.892244E-04
      0.480000          0.891558E-04
      0.485000          0.891866E-04
      0.490000          0.892436E-04
      0.495000          0.892639E-04
      0.500000          0.891973E-04
