 I_abs(s)[cm^-1]/c[mg/ml]
       0.00000          0.147865E-01
      0.500000E-02      0.147284E-01
      0.100000E-01      0.145554E-01
      0.150000E-01      0.142715E-01
      0.200000E-01      0.138831E-01
      0.250000E-01      0.133992E-01
      0.300000E-01      0.128303E-01
      0.350000E-01      0.121888E-01
      0.400000E-01      0.114881E-01
      0.450000E-01      0.107424E-01
      0.500000E-01      0.996609E-02
      0.550000E-01      0.917337E-02
      0.600000E-01      0.837785E-02
      0.650000E-01      0.759217E-02
      0.700000E-01      0.682768E-02
      0.750000E-01      0.609425E-02
      0.800000E-01      0.540002E-02
      0.850000E-01      0.475140E-02
      0.900000E-01      0.415300E-02
      0.950000E-01      0.360772E-02
      0.100000          0.311681E-02
      0.105000          0.268009E-02
      0.110000          0.229611E-02
      0.115000          0.196236E-02
      0.120000          0.167555E-02
      0.125000          0.143177E-02
      0.130000          0.122677E-02
      0.135000          0.105613E-02
      0.140000          0.915441E-03
      0.145000          0.800448E-03
      0.150000          0.707159E-03
      0.155000          0.631927E-03
      0.160000          0.571498E-03
      0.165000          0.523037E-03
      0.170000          0.484118E-03
      0.175000          0.452715E-03
      0.180000          0.427160E-03
      0.185000          0.406107E-03
      0.190000          0.388483E-03
      0.195000          0.373447E-03
      0.200000          0.360340E-03
      0.205000          0.348649E-03
      0.210000          0.337979E-03
      0.215000          0.328017E-03
      0.220000          0.318519E-03
      0.225000          0.309296E-03
      0.230000          0.300199E-03
      0.235000          0.291118E-03
      0.240000          0.281975E-03
      0.245000          0.272725E-03
      0.250000          0.263350E-03
      0.255000          0.253862E-03
      0.260000          0.244296E-03
      0.265000          0.234706E-03
      0.270000          0.225165E-03
      0.275000          0.215755E-03
      0.280000          0.206564E-03
      0.285000          0.197680E-03
      0.290000          0.189183E-03
      0.295000          0.181148E-03
      0.300000          0.173634E-03
      0.305000          0.166684E-03
      0.310000          0.160326E-03
      0.315000          0.154573E-03
      0.320000          0.149419E-03
      0.325000          0.144848E-03
      0.330000          0.140830E-03
      0.335000          0.137328E-03
      0.340000          0.134299E-03
      0.345000          0.131694E-03
      0.350000          0.129464E-03
      0.355000          0.127558E-03
      0.360000          0.125929E-03
      0.365000          0.124530E-03
      0.370000          0.123315E-03
      0.375000          0.122244E-03
      0.380000          0.121276E-03
      0.385000          0.120376E-03
      0.390000          0.119510E-03
      0.395000          0.118646E-03
      0.400000          0.117757E-03
      0.405000          0.116817E-03
      0.410000          0.115806E-03
      0.415000          0.114709E-03
      0.420000          0.113514E-03
      0.425000          0.112217E-03
      0.430000          0.110819E-03
      0.435000          0.109327E-03
      0.440000          0.107755E-03
      0.445000          0.106124E-03
      0.450000          0.104458E-03
      0.455000          0.102786E-03
      0.460000          0.101142E-03
      0.465000          0.995590E-04
      0.470000          0.980712E-04
      0.475000          0.967112E-04
      0.480000          0.955080E-04
      0.485000          0.944861E-04
      0.490000          0.936638E-04
      0.495000          0.930523E-04
      0.500000          0.926550E-04
