 I_abs(s)[cm^-1]/c[mg/ml]
       0.00000          0.143578E-01
      0.500000E-02      0.142996E-01
      0.100000E-01      0.141265E-01
      0.150000E-01      0.138422E-01
      0.200000E-01      0.134534E-01
      0.250000E-01      0.129688E-01
      0.300000E-01      0.123990E-01
      0.350000E-01      0.117565E-01
      0.400000E-01      0.110547E-01
      0.450000E-01      0.103082E-01
      0.500000E-01      0.953149E-02
      0.550000E-01      0.873933E-02
      0.600000E-01      0.794581E-02
      0.650000E-01      0.716412E-02
      0.700000E-01      0.640626E-02
      0.750000E-01      0.568270E-02
      0.800000E-01      0.500222E-02
      0.850000E-01      0.437174E-02
      0.900000E-01      0.379629E-02
      0.950000E-01      0.327901E-02
      0.100000          0.282122E-02
      0.105000          0.242256E-02
      0.110000          0.208119E-02
      0.115000          0.179397E-02
      0.120000          0.155674E-02
      0.125000          0.136458E-02
      0.130000          0.121204E-02
      0.135000          0.109342E-02
      0.140000          0.100298E-02
      0.145000          0.935180E-03
      0.150000          0.884805E-03
      0.155000          0.847140E-03
      0.160000          0.818053E-03
      0.165000          0.794064E-03
      0.170000          0.772366E-03
      0.175000          0.750822E-03
      0.180000          0.727930E-03
      0.185000          0.702769E-03
      0.190000          0.674921E-03
      0.195000          0.644390E-03
      0.200000          0.611510E-03
      0.205000          0.576855E-03
      0.210000          0.541153E-03
      0.215000          0.505205E-03
      0.220000          0.469816E-03
      0.225000          0.435741E-03
      0.230000          0.403639E-03
      0.235000          0.374045E-03
      0.240000          0.347349E-03
      0.245000          0.323793E-03
      0.250000          0.303475E-03
      0.255000          0.286356E-03
      0.260000          0.272283E-03
      0.265000          0.261012E-03
      0.270000          0.252224E-03
      0.275000          0.245557E-03
      0.280000          0.240627E-03
      0.285000          0.237048E-03
      0.290000          0.234449E-03
      0.295000          0.232492E-03
      0.300000          0.230880E-03
      0.305000          0.229361E-03
      0.310000          0.227738E-03
      0.315000          0.225863E-03
      0.320000          0.223636E-03
      0.325000          0.221000E-03
      0.330000          0.217935E-03
      0.335000          0.214454E-03
      0.340000          0.210588E-03
      0.345000          0.206387E-03
      0.350000          0.201907E-03
      0.355000          0.197209E-03
      0.360000          0.192351E-03
      0.365000          0.187385E-03
      0.370000          0.182358E-03
      0.375000          0.177304E-03
      0.380000          0.172250E-03
      0.385000          0.167216E-03
      0.390000          0.162211E-03
      0.395000          0.157241E-03
      0.400000          0.152307E-03
      0.405000          0.147411E-03
      0.410000          0.142552E-03
      0.415000          0.137732E-03
      0.420000          0.132957E-03
      0.425000          0.128237E-03
      0.430000          0.123583E-03
      0.435000          0.119013E-03
      0.440000          0.114548E-03
      0.445000          0.110209E-03
      0.450000          0.106021E-03
      0.455000          0.102005E-03
      0.460000          0.981837E-04
      0.465000          0.945738E-04
      0.470000          0.911892E-04
      0.475000          0.880380E-04
      0.480000          0.851229E-04
      0.485000          0.824404E-04
      0.490000          0.799815E-04
      0.495000          0.777320E-04
      0.500000          0.756737E-04
