 I_abs(s)[cm^-1]/c[mg/ml]
       0.00000          0.139432E-01
      0.500000E-02      0.138707E-01
      0.100000E-01      0.136554E-01
      0.150000E-01      0.133044E-01
      0.200000E-01      0.128289E-01
      0.250000E-01      0.122439E-01
      0.300000E-01      0.115674E-01
      0.350000E-01      0.108194E-01
      0.400000E-01      0.100213E-01
      0.450000E-01      0.919452E-02
      0.500000E-01      0.835998E-02
      0.550000E-01      0.753701E-02
      0.600000E-01      0.674273E-02
      0.650000E-01      0.599154E-02
      0.700000E-01      0.529471E-02
      0.750000E-01      0.466023E-02
      0.800000E-01      0.409286E-02
      0.850000E-01      0.359425E-02
      0.900000E-01      0.316328E-02
      0.950000E-01      0.279652E-02
      0.100000          0.248872E-02
      0.105000          0.223332E-02
      0.110000          0.202303E-02
      0.115000          0.185027E-02
      0.120000          0.170765E-02
      0.125000          0.158833E-02
      0.130000          0.148624E-02
      0.135000          0.139629E-02
      0.140000          0.131442E-02
      0.145000          0.123763E-02
      0.150000          0.116387E-02
      0.155000          0.109197E-02
      0.160000          0.102141E-02
      0.165000          0.952243E-03
      0.170000          0.884856E-03
      0.175000          0.819849E-03
      0.180000          0.757890E-03
      0.185000          0.699613E-03
      0.190000          0.645544E-03
      0.195000          0.596052E-03
      0.200000          0.551331E-03
      0.205000          0.511404E-03
      0.210000          0.476138E-03
      0.215000          0.445278E-03
      0.220000          0.418476E-03
      0.225000          0.395325E-03
      0.230000          0.375394E-03
      0.235000          0.358247E-03
      0.240000          0.343465E-03
      0.245000          0.330659E-03
      0.250000          0.319473E-03
      0.255000          0.309589E-03
      0.260000          0.300721E-03
      0.265000          0.292619E-03
      0.270000          0.285062E-03
      0.275000          0.277855E-03
      0.280000          0.270832E-03
      0.285000          0.263851E-03
      0.290000          0.256800E-03
      0.295000          0.249595E-03
      0.300000          0.242184E-03
      0.305000          0.234545E-03
      0.310000          0.226689E-03
      0.315000          0.218656E-03
      0.320000          0.210513E-03
      0.325000          0.202346E-03
      0.330000          0.194257E-03
      0.335000          0.186354E-03
      0.340000          0.178748E-03
      0.345000          0.171541E-03
      0.350000          0.164821E-03
      0.355000          0.158661E-03
      0.360000          0.153111E-03
      0.365000          0.148196E-03
      0.370000          0.143920E-03
      0.375000          0.140264E-03
      0.380000          0.137189E-03
      0.385000          0.134642E-03
      0.390000          0.132557E-03
      0.395000          0.130859E-03
      0.400000          0.129472E-03
      0.405000          0.128319E-03
      0.410000          0.127327E-03
      0.415000          0.126429E-03
      0.420000          0.125563E-03
      0.425000          0.124679E-03
      0.430000          0.123732E-03
      0.435000          0.122689E-03
      0.440000          0.121522E-03
      0.445000          0.120212E-03
      0.450000          0.118745E-03
      0.455000          0.117115E-03
      0.460000          0.115319E-03
      0.465000          0.113360E-03
      0.470000          0.111244E-03
      0.475000          0.108982E-03
      0.480000          0.106590E-03
      0.485000          0.104085E-03
      0.490000          0.101491E-03
      0.495000          0.988344E-04
      0.500000          0.961436E-04
