 I_abs(s)[cm^-1]/c[mg/ml]
       0.00000          0.137883E-01
      0.500000E-02      0.137031E-01
      0.100000E-01      0.134509E-01
      0.150000E-01      0.130421E-01
      0.200000E-01      0.124932E-01
      0.250000E-01      0.118259E-01
      0.300000E-01      0.110656E-01
      0.350000E-01      0.102400E-01
      0.400000E-01      0.937753E-02
      0.450000E-01      0.850562E-02
      0.500000E-01      0.764944E-02
      0.550000E-01      0.683069E-02
      0.600000E-01      0.606676E-02
      0.650000E-01      0.537020E-02
      0.700000E-01      0.474865E-02
      0.750000E-01      0.420501E-02
      0.800000E-01      0.373794E-02
      0.850000E-01      0.334265E-02
      0.900000E-01      0.301170E-02
      0.950000E-01      0.273597E-02
      0.100000          0.250560E-02
      0.105000          0.231078E-02
      0.110000          0.214243E-02
      0.115000          0.199272E-02
      0.120000          0.185538E-02
      0.125000          0.172581E-02
      0.130000          0.160103E-02
      0.135000          0.147950E-02
      0.140000          0.136087E-02
      0.145000          0.124561E-02
      0.150000          0.113473E-02
      0.155000          0.102943E-02
      0.160000          0.930890E-03
      0.165000          0.840041E-03
      0.170000          0.757489E-03
      0.175000          0.683455E-03
      0.180000          0.617798E-03
      0.185000          0.560071E-03
      0.190000          0.509611E-03
      0.195000          0.465630E-03
      0.200000          0.427304E-03
      0.205000          0.393847E-03
      0.210000          0.364561E-03
      0.215000          0.338857E-03
      0.220000          0.316263E-03
      0.225000          0.296405E-03
      0.230000          0.278986E-03
      0.235000          0.263753E-03
      0.240000          0.250477E-03
      0.245000          0.238927E-03
      0.250000          0.228864E-03
      0.255000          0.220042E-03
      0.260000          0.212214E-03
      0.265000          0.205146E-03
      0.270000          0.198635E-03
      0.275000          0.192522E-03
      0.280000          0.186703E-03
      0.285000          0.181129E-03
      0.290000          0.175807E-03
      0.295000          0.170787E-03
      0.300000          0.166144E-03
      0.305000          0.161963E-03
      0.310000          0.158319E-03
      0.315000          0.155262E-03
      0.320000          0.152804E-03
      0.325000          0.150915E-03
      0.330000          0.149522E-03
      0.335000          0.148517E-03
      0.340000          0.147768E-03
      0.345000          0.147133E-03
      0.350000          0.146473E-03
      0.355000          0.145668E-03
      0.360000          0.144625E-03
      0.365000          0.143287E-03
      0.370000          0.141632E-03
      0.375000          0.139674E-03
      0.380000          0.137455E-03
      0.385000          0.135038E-03
      0.390000          0.132495E-03
      0.395000          0.129898E-03
      0.400000          0.127315E-03
      0.405000          0.124798E-03
      0.410000          0.122382E-03
      0.415000          0.120087E-03
      0.420000          0.117915E-03
      0.425000          0.115858E-03
      0.430000          0.113902E-03
      0.435000          0.112030E-03
      0.440000          0.110229E-03
      0.445000          0.108492E-03
      0.450000          0.106823E-03
      0.455000          0.105230E-03
      0.460000          0.103731E-03
      0.465000          0.102347E-03
      0.470000          0.101102E-03
      0.475000          0.100014E-03
      0.480000          0.990975E-04
      0.485000          0.983556E-04
      0.490000          0.977829E-04
      0.495000          0.973628E-04
      0.500000          0.970691E-04
