 I_abs(s)[cm^-1]/c[mg/ml]
       0.00000          0.145634E-01
      0.500000E-02      0.145052E-01
      0.100000E-01      0.143318E-01
      0.150000E-01      0.140474E-01
      0.200000E-01      0.136583E-01
      0.250000E-01      0.131735E-01
      0.300000E-01      0.126038E-01
      0.350000E-01      0.119615E-01
      0.400000E-01      0.112602E-01
      0.450000E-01      0.105144E-01
      0.500000E-01      0.973856E-02
      0.550000E-01      0.894726E-02
      0.600000E-01      0.815438E-02
      0.650000E-01      0.737285E-02
      0.700000E-01      0.661432E-02
      0.750000E-01      0.588891E-02
      0.800000E-01      0.520501E-02
      0.850000E-01      0.456917E-02
      0.900000E-01      0.398608E-02
      0.950000E-01      0.345859E-02
      0.100000          0.298785E-02
      0.105000          0.257341E-02
      0.110000          0.221344E-02
      0.115000          0.190499E-02
      0.120000          0.164420E-02
      0.125000          0.142655E-02
      0.130000          0.124716E-02
      0.135000          0.110094E-02
      0.140000          0.982856E-03
      0.145000          0.888091E-03
      0.150000          0.812169E-03
      0.155000          0.751071E-03
      0.160000          0.701296E-03
      0.165000          0.659898E-03
      0.170000          0.624483E-03
      0.175000          0.593189E-03
      0.180000          0.564636E-03
      0.185000          0.537870E-03
      0.190000          0.512292E-03
      0.195000          0.487589E-03
      0.200000          0.463657E-03
      0.205000          0.440539E-03
      0.210000          0.418365E-03
      0.215000          0.397303E-03
      0.220000          0.377518E-03
      0.225000          0.359149E-03
      0.230000          0.342290E-03
      0.235000          0.326980E-03
      0.240000          0.313205E-03
      0.245000          0.300901E-03
      0.250000          0.289967E-03
      0.255000          0.280271E-03
      0.260000          0.271667E-03
      0.265000          0.264000E-03
      0.270000          0.257124E-03
      0.275000          0.250901E-03
      0.280000          0.245211E-03
      0.285000          0.239953E-03
      0.290000          0.235045E-03
      0.295000          0.230421E-03
      0.300000          0.226033E-03
      0.305000          0.221841E-03
      0.310000          0.217813E-03
      0.315000          0.213920E-03
      0.320000          0.210136E-03
      0.325000          0.206430E-03
      0.330000          0.202772E-03
      0.335000          0.199127E-03
      0.340000          0.195462E-03
      0.345000          0.191740E-03
      0.350000          0.187929E-03
      0.355000          0.184000E-03
      0.360000          0.179930E-03
      0.365000          0.175705E-03
      0.370000          0.171321E-03
      0.375000          0.166783E-03
      0.380000          0.162108E-03
      0.385000          0.157320E-03
      0.390000          0.152456E-03
      0.395000          0.147556E-03
      0.400000          0.142666E-03
      0.405000          0.137834E-03
      0.410000          0.133109E-03
      0.415000          0.128537E-03
      0.420000          0.124157E-03
      0.425000          0.120004E-03
      0.430000          0.116106E-03
      0.435000          0.112479E-03
      0.440000          0.109133E-03
      0.445000          0.106068E-03
      0.450000          0.103275E-03
      0.455000          0.100739E-03
      0.460000          0.984396E-04
      0.465000          0.963498E-04
      0.470000          0.944413E-04
      0.475000          0.926844E-04
      0.480000          0.910496E-04
      0.485000          0.895091E-04
      0.490000          0.880382E-04
      0.495000          0.866160E-04
      0.500000          0.852261E-04
