 I_abs(s)[cm^-1]/c[mg/ml]
       0.00000          0.136958E-01
      0.500000E-02      0.136223E-01
      0.100000E-01      0.134044E-01
      0.150000E-01      0.130499E-01
      0.200000E-01      0.125712E-01
      0.250000E-01      0.119848E-01
      0.300000E-01      0.113101E-01
      0.350000E-01      0.105686E-01
      0.400000E-01      0.978279E-02
      0.450000E-01      0.897489E-02
      0.500000E-01      0.816592E-02
      0.550000E-01      0.737484E-02
      0.600000E-01      0.661780E-02
      0.650000E-01      0.590777E-02
      0.700000E-01      0.525420E-02
      0.750000E-01      0.466311E-02
      0.800000E-01      0.413721E-02
      0.850000E-01      0.367631E-02
      0.900000E-01      0.327774E-02
      0.950000E-01      0.293697E-02
      0.100000          0.264813E-02
      0.105000          0.240455E-02
      0.110000          0.219934E-02
      0.115000          0.202570E-02
      0.120000          0.187737E-02
      0.125000          0.174872E-02
      0.130000          0.163502E-02
      0.135000          0.153237E-02
      0.140000          0.143775E-02
      0.145000          0.134894E-02
      0.150000          0.126437E-02
      0.155000          0.118306E-02
      0.160000          0.110445E-02
      0.165000          0.102832E-02
      0.170000          0.954689E-03
      0.175000          0.883699E-03
      0.180000          0.815593E-03
      0.185000          0.750652E-03
      0.190000          0.689161E-03
      0.195000          0.631392E-03
      0.200000          0.577580E-03
      0.205000          0.527915E-03
      0.210000          0.482530E-03
      0.215000          0.441495E-03
      0.220000          0.404808E-03
      0.225000          0.372392E-03
      0.230000          0.344096E-03
      0.235000          0.319697E-03
      0.240000          0.298906E-03
      0.245000          0.281378E-03
      0.250000          0.266728E-03
      0.255000          0.254548E-03
      0.260000          0.244420E-03
      0.265000          0.235937E-03
      0.270000          0.228716E-03
      0.275000          0.222411E-03
      0.280000          0.216723E-03
      0.285000          0.211407E-03
      0.290000          0.206271E-03
      0.295000          0.201181E-03
      0.300000          0.196048E-03
      0.305000          0.190831E-03
      0.310000          0.185526E-03
      0.315000          0.180157E-03
      0.320000          0.174769E-03
      0.325000          0.169422E-03
      0.330000          0.164183E-03
      0.335000          0.159117E-03
      0.340000          0.154287E-03
      0.345000          0.149748E-03
      0.350000          0.145542E-03
      0.355000          0.141698E-03
      0.360000          0.138230E-03
      0.365000          0.135138E-03
      0.370000          0.132404E-03
      0.375000          0.130001E-03
      0.380000          0.127888E-03
      0.385000          0.126015E-03
      0.390000          0.124328E-03
      0.395000          0.122770E-03
      0.400000          0.121285E-03
      0.405000          0.119821E-03
      0.410000          0.118335E-03
      0.415000          0.116791E-03
      0.420000          0.115165E-03
      0.425000          0.113444E-03
      0.430000          0.111623E-03
      0.435000          0.109709E-03
      0.440000          0.107715E-03
      0.445000          0.105660E-03
      0.450000          0.103563E-03
      0.455000          0.101448E-03
      0.460000          0.993343E-04
      0.465000          0.972402E-04
      0.470000          0.951794E-04
      0.475000          0.931621E-04
      0.480000          0.911946E-04
      0.485000          0.892801E-04
      0.490000          0.874200E-04
      0.495000          0.856147E-04
      0.500000          0.838651E-04
