 I_abs(s)[cm^-1]/c[mg/ml]
       0.00000          0.146509E-01
      0.500000E-02      0.145905E-01
      0.100000E-01      0.144110E-01
      0.150000E-01      0.141171E-01
      0.200000E-01      0.137164E-01
      0.250000E-01      0.132191E-01
      0.300000E-01      0.126376E-01
      0.350000E-01      0.119858E-01
      0.400000E-01      0.112789E-01
      0.450000E-01      0.105323E-01
      0.500000E-01      0.976146E-02
      0.550000E-01      0.898134E-02
      0.600000E-01      0.820568E-02
      0.650000E-01      0.744687E-02
      0.700000E-01      0.671554E-02
      0.750000E-01      0.602044E-02
      0.800000E-01      0.536835E-02
      0.850000E-01      0.476410E-02
      0.900000E-01      0.421065E-02
      0.950000E-01      0.370926E-02
      0.100000          0.325972E-02
      0.105000          0.286054E-02
      0.110000          0.250927E-02
      0.115000          0.220268E-02
      0.120000          0.193707E-02
      0.125000          0.170842E-02
      0.130000          0.151260E-02
      0.135000          0.134555E-02
      0.140000          0.120335E-02
      0.145000          0.108236E-02
      0.150000          0.979213E-03
      0.155000          0.890940E-03
      0.160000          0.814919E-03
      0.165000          0.748905E-03
      0.170000          0.691019E-03
      0.175000          0.639724E-03
      0.180000          0.593799E-03
      0.185000          0.552312E-03
      0.190000          0.514575E-03
      0.195000          0.480112E-03
      0.200000          0.448614E-03
      0.205000          0.419897E-03
      0.210000          0.393865E-03
      0.215000          0.370466E-03
      0.220000          0.349662E-03
      0.225000          0.331398E-03
      0.230000          0.315582E-03
      0.235000          0.302068E-03
      0.240000          0.290654E-03
      0.245000          0.281080E-03
      0.250000          0.273041E-03
      0.255000          0.266201E-03
      0.260000          0.260210E-03
      0.265000          0.254727E-03
      0.270000          0.249440E-03
      0.275000          0.244085E-03
      0.280000          0.238457E-03
      0.285000          0.232421E-03
      0.290000          0.225918E-03
      0.295000          0.218957E-03
      0.300000          0.211608E-03
      0.305000          0.203991E-03
      0.310000          0.196263E-03
      0.315000          0.188594E-03
      0.320000          0.181155E-03
      0.325000          0.174105E-03
      0.330000          0.167573E-03
      0.335000          0.161653E-03
      0.340000          0.156400E-03
      0.345000          0.151827E-03
      0.350000          0.147909E-03
      0.355000          0.144589E-03
      0.360000          0.141785E-03
      0.365000          0.139401E-03
      0.370000          0.137334E-03
      0.375000          0.135482E-03
      0.380000          0.133754E-03
      0.385000          0.132071E-03
      0.390000          0.130373E-03
      0.395000          0.128616E-03
      0.400000          0.126777E-03
      0.405000          0.124846E-03
      0.410000          0.122828E-03
      0.415000          0.120736E-03
      0.420000          0.118591E-03
      0.425000          0.116417E-03
      0.430000          0.114236E-03
      0.435000          0.112072E-03
      0.440000          0.109943E-03
      0.445000          0.107867E-03
      0.450000          0.105855E-03
      0.455000          0.103919E-03
      0.460000          0.102064E-03
      0.465000          0.100296E-03
      0.470000          0.986193E-04
      0.475000          0.970356E-04
      0.480000          0.955467E-04
      0.485000          0.941531E-04
      0.490000          0.928547E-04
      0.495000          0.916500E-04
      0.500000          0.905364E-04
