 I_abs(s)[cm^-1]/c[mg/ml]
       0.00000          0.144684E-01
      0.500000E-02      0.144091E-01
      0.100000E-01      0.142329E-01
      0.150000E-01      0.139438E-01
      0.200000E-01      0.135486E-01
      0.250000E-01      0.130565E-01
      0.300000E-01      0.124786E-01
      0.350000E-01      0.118279E-01
      0.400000E-01      0.111184E-01
      0.450000E-01      0.103649E-01
      0.500000E-01      0.958243E-02
      0.550000E-01      0.878580E-02
      0.600000E-01      0.798922E-02
      0.650000E-01      0.720583E-02
      0.700000E-01      0.644739E-02
      0.750000E-01      0.572404E-02
      0.800000E-01      0.504408E-02
      0.850000E-01      0.441394E-02
      0.900000E-01      0.383806E-02
      0.950000E-01      0.331905E-02
      0.100000          0.285772E-02
      0.105000          0.245331E-02
      0.110000          0.210368E-02
      0.115000          0.180555E-02
      0.120000          0.155481E-02
      0.125000          0.134670E-02
      0.130000          0.117615E-02
      0.135000          0.103796E-02
      0.140000          0.927018E-03
      0.145000          0.838479E-03
      0.150000          0.767896E-03
      0.155000          0.711312E-03
      0.160000          0.665323E-03
      0.165000          0.627094E-03
      0.170000          0.594357E-03
      0.175000          0.565376E-03
      0.180000          0.538889E-03
      0.185000          0.514051E-03
      0.190000          0.490351E-03
      0.195000          0.467541E-03
      0.200000          0.445563E-03
      0.205000          0.424480E-03
      0.210000          0.404419E-03
      0.215000          0.385525E-03
      0.220000          0.367925E-03
      0.225000          0.351705E-03
      0.230000          0.336895E-03
      0.235000          0.323468E-03
      0.240000          0.311341E-03
      0.245000          0.300383E-03
      0.250000          0.290433E-03
      0.255000          0.281309E-03
      0.260000          0.272824E-03
      0.265000          0.264799E-03
      0.270000          0.257077E-03
      0.275000          0.249526E-03
      0.280000          0.242050E-03
      0.285000          0.234586E-03
      0.290000          0.227106E-03
      0.295000          0.219614E-03
      0.300000          0.212139E-03
      0.305000          0.204733E-03
      0.310000          0.197458E-03
      0.315000          0.190385E-03
      0.320000          0.183584E-03
      0.325000          0.177120E-03
      0.330000          0.171048E-03
      0.335000          0.165410E-03
      0.340000          0.160234E-03
      0.345000          0.155529E-03
      0.350000          0.151293E-03
      0.355000          0.147507E-03
      0.360000          0.144140E-03
      0.365000          0.141153E-03
      0.370000          0.138500E-03
      0.375000          0.136129E-03
      0.380000          0.133990E-03
      0.385000          0.132033E-03
      0.390000          0.130208E-03
      0.395000          0.128475E-03
      0.400000          0.126794E-03
      0.405000          0.125136E-03
      0.410000          0.123477E-03
      0.415000          0.121796E-03
      0.420000          0.120084E-03
      0.425000          0.118331E-03
      0.430000          0.116536E-03
      0.435000          0.114698E-03
      0.440000          0.112822E-03
      0.445000          0.110913E-03
      0.450000          0.108976E-03
      0.455000          0.107021E-03
      0.460000          0.105056E-03
      0.465000          0.103088E-03
      0.470000          0.101127E-03
      0.475000          0.991838E-04
      0.480000          0.972676E-04
      0.485000          0.953898E-04
      0.490000          0.935624E-04
      0.495000          0.917983E-04
      0.500000          0.901116E-04
