 I_abs(s)[cm^-1]/c[mg/ml]
       0.00000          0.138270E-01
      0.500000E-02      0.137536E-01
      0.100000E-01      0.135358E-01
      0.150000E-01      0.131809E-01
      0.200000E-01      0.127007E-01
      0.250000E-01      0.121107E-01
      0.300000E-01      0.114294E-01
      0.350000E-01      0.106775E-01
      0.400000E-01      0.987675E-02
      0.450000E-01      0.904898E-02
      0.500000E-01      0.821519E-02
      0.550000E-01      0.739464E-02
      0.600000E-01      0.660420E-02
      0.650000E-01      0.585782E-02
      0.700000E-01      0.516622E-02
      0.750000E-01      0.453683E-02
      0.800000E-01      0.397380E-02
      0.850000E-01      0.347830E-02
      0.900000E-01      0.304890E-02
      0.950000E-01      0.268203E-02
      0.100000          0.237255E-02
      0.105000          0.211421E-02
      0.110000          0.190023E-02
      0.115000          0.172373E-02
      0.120000          0.157809E-02
      0.125000          0.145725E-02
      0.130000          0.135591E-02
      0.135000          0.126961E-02
      0.140000          0.119473E-02
      0.145000          0.112849E-02
      0.150000          0.106883E-02
      0.155000          0.101427E-02
      0.160000          0.963812E-03
      0.165000          0.916774E-03
      0.170000          0.872698E-03
      0.175000          0.831242E-03
      0.180000          0.792115E-03
      0.185000          0.755032E-03
      0.190000          0.719697E-03
      0.195000          0.685798E-03
      0.200000          0.653020E-03
      0.205000          0.621068E-03
      0.210000          0.589683E-03
      0.215000          0.558663E-03
      0.220000          0.527876E-03
      0.225000          0.497272E-03
      0.230000          0.466873E-03
      0.235000          0.436777E-03
      0.240000          0.407138E-03
      0.245000          0.378156E-03
      0.250000          0.350057E-03
      0.255000          0.323078E-03
      0.260000          0.297453E-03
      0.265000          0.273399E-03
      0.270000          0.251104E-03
      0.275000          0.230724E-03
      0.280000          0.212372E-03
      0.285000          0.196119E-03
      0.290000          0.181991E-03
      0.295000          0.169968E-03
      0.300000          0.159986E-03
      0.305000          0.151936E-03
      0.310000          0.145672E-03
      0.315000          0.141013E-03
      0.320000          0.137746E-03
      0.325000          0.135640E-03
      0.330000          0.134450E-03
      0.335000          0.133926E-03
      0.340000          0.133829E-03
      0.345000          0.133935E-03
      0.350000          0.134045E-03
      0.355000          0.133998E-03
      0.360000          0.133669E-03
      0.365000          0.132976E-03
      0.370000          0.131881E-03
      0.375000          0.130384E-03
      0.380000          0.128520E-03
      0.385000          0.126351E-03
      0.390000          0.123956E-03
      0.395000          0.121427E-03
      0.400000          0.118854E-03
      0.405000          0.116319E-03
      0.410000          0.113895E-03
      0.415000          0.111632E-03
      0.420000          0.109566E-03
      0.425000          0.107708E-03
      0.430000          0.106057E-03
      0.435000          0.104591E-03
      0.440000          0.103283E-03
      0.445000          0.102096E-03
      0.450000          0.100994E-03
      0.455000          0.999415E-04
      0.460000          0.989080E-04
      0.465000          0.978700E-04
      0.470000          0.968112E-04
      0.475000          0.957222E-04
      0.480000          0.945999E-04
      0.485000          0.934453E-04
      0.490000          0.922619E-04
      0.495000          0.910541E-04
      0.500000          0.898255E-04
