 I_abs(s)[cm^-1]/c[mg/ml]
       0.00000          0.140599E-01
      0.500000E-02      0.140030E-01
      0.100000E-01      0.138337E-01
      0.150000E-01      0.135563E-01
      0.200000E-01      0.131778E-01
      0.250000E-01      0.127076E-01
      0.300000E-01      0.121572E-01
      0.350000E-01      0.115397E-01
      0.400000E-01      0.108691E-01
      0.450000E-01      0.101601E-01
      0.500000E-01      0.942755E-02
      0.550000E-01      0.868571E-02
      0.600000E-01      0.794804E-02
      0.650000E-01      0.722670E-02
      0.700000E-01      0.653229E-02
      0.750000E-01      0.587362E-02
      0.800000E-01      0.525758E-02
      0.850000E-01      0.468911E-02
      0.900000E-01      0.417126E-02
      0.950000E-01      0.370529E-02
      0.100000          0.329084E-02
      0.105000          0.292621E-02
      0.110000          0.260856E-02
      0.115000          0.233422E-02
      0.120000          0.209893E-02
      0.125000          0.189813E-02
      0.130000          0.172714E-02
      0.135000          0.158142E-02
      0.140000          0.145667E-02
      0.145000          0.134899E-02
      0.150000          0.125493E-02
      0.155000          0.117156E-02
      0.160000          0.109645E-02
      0.165000          0.102769E-02
      0.170000          0.963804E-03
      0.175000          0.903738E-03
      0.180000          0.846777E-03
      0.185000          0.792481E-03
      0.190000          0.740625E-03
      0.195000          0.691134E-03
      0.200000          0.644034E-03
      0.205000          0.599402E-03
      0.210000          0.557337E-03
      0.215000          0.517927E-03
      0.220000          0.481234E-03
      0.225000          0.447281E-03
      0.230000          0.416047E-03
      0.235000          0.387469E-03
      0.240000          0.361441E-03
      0.245000          0.337823E-03
      0.250000          0.316446E-03
      0.255000          0.297122E-03
      0.260000          0.279649E-03
      0.265000          0.263824E-03
      0.270000          0.249445E-03
      0.275000          0.236322E-03
      0.280000          0.224279E-03
      0.285000          0.213163E-03
      0.290000          0.202842E-03
      0.295000          0.193213E-03
      0.300000          0.184197E-03
      0.305000          0.175741E-03
      0.310000          0.167816E-03
      0.315000          0.160413E-03
      0.320000          0.153540E-03
      0.325000          0.147215E-03
      0.330000          0.141463E-03
      0.335000          0.136310E-03
      0.340000          0.131776E-03
      0.345000          0.127874E-03
      0.350000          0.124605E-03
      0.355000          0.121955E-03
      0.360000          0.119893E-03
      0.365000          0.118376E-03
      0.370000          0.117342E-03
      0.375000          0.116720E-03
      0.380000          0.116427E-03
      0.385000          0.116377E-03
      0.390000          0.116480E-03
      0.395000          0.116651E-03
      0.400000          0.116808E-03
      0.405000          0.116881E-03
      0.410000          0.116809E-03
      0.415000          0.116548E-03
      0.420000          0.116066E-03
      0.425000          0.115347E-03
      0.430000          0.114389E-03
      0.435000          0.113202E-03
      0.440000          0.111809E-03
      0.445000          0.110238E-03
      0.450000          0.108527E-03
      0.455000          0.106715E-03
      0.460000          0.104841E-03
      0.465000          0.102946E-03
      0.470000          0.101063E-03
      0.475000          0.992229E-04
      0.480000          0.974487E-04
      0.485000          0.957562E-04
      0.490000          0.941535E-04
      0.495000          0.926412E-04
      0.500000          0.912128E-04
