 I_abs(s)[cm^-1]/c[mg/ml]
       0.00000          0.138347E-01
      0.500000E-02      0.137682E-01
      0.100000E-01      0.135708E-01
      0.150000E-01      0.132480E-01
      0.200000E-01      0.128093E-01
      0.250000E-01      0.122669E-01
      0.300000E-01      0.116359E-01
      0.350000E-01      0.109332E-01
      0.400000E-01      0.101771E-01
      0.450000E-01      0.938640E-02
      0.500000E-01      0.857959E-02
      0.550000E-01      0.777446E-02
      0.600000E-01      0.698728E-02
      0.650000E-01      0.623232E-02
      0.700000E-01      0.552155E-02
      0.750000E-01      0.486430E-02
      0.800000E-01      0.426719E-02
      0.850000E-01      0.373414E-02
      0.900000E-01      0.326650E-02
      0.950000E-01      0.286329E-02
      0.100000          0.252155E-02
      0.105000          0.223667E-02
      0.110000          0.200286E-02
      0.115000          0.181351E-02
      0.120000          0.166167E-02
      0.125000          0.154033E-02
      0.130000          0.144281E-02
      0.135000          0.136300E-02
      0.140000          0.129550E-02
      0.145000          0.123582E-02
      0.150000          0.118037E-02
      0.155000          0.112648E-02
      0.160000          0.107234E-02
      0.165000          0.101693E-02
      0.170000          0.959854E-03
      0.175000          0.901240E-03
      0.180000          0.841593E-03
      0.185000          0.781659E-03
      0.190000          0.722307E-03
      0.195000          0.664428E-03
      0.200000          0.608851E-03
      0.205000          0.556290E-03
      0.210000          0.507302E-03
      0.215000          0.462279E-03
      0.220000          0.421441E-03
      0.225000          0.384853E-03
      0.230000          0.352446E-03
      0.235000          0.324047E-03
      0.240000          0.299401E-03
      0.245000          0.278207E-03
      0.250000          0.260134E-03
      0.255000          0.244847E-03
      0.260000          0.232019E-03
      0.265000          0.221339E-03
      0.270000          0.212522E-03
      0.275000          0.205305E-03
      0.280000          0.199447E-03
      0.285000          0.194729E-03
      0.290000          0.190948E-03
      0.295000          0.187913E-03
      0.300000          0.185446E-03
      0.305000          0.183378E-03
      0.310000          0.181551E-03
      0.315000          0.179818E-03
      0.320000          0.178046E-03
      0.325000          0.176121E-03
      0.330000          0.173946E-03
      0.335000          0.171449E-03
      0.340000          0.168583E-03
      0.345000          0.165325E-03
      0.350000          0.161680E-03
      0.355000          0.157678E-03
      0.360000          0.153369E-03
      0.365000          0.148826E-03
      0.370000          0.144133E-03
      0.375000          0.139388E-03
      0.380000          0.134691E-03
      0.385000          0.130145E-03
      0.390000          0.125847E-03
      0.395000          0.121885E-03
      0.400000          0.118336E-03
      0.405000          0.115260E-03
      0.410000          0.112699E-03
      0.415000          0.110676E-03
      0.420000          0.109197E-03
      0.425000          0.108245E-03
      0.430000          0.107785E-03
      0.435000          0.107768E-03
      0.440000          0.108128E-03
      0.445000          0.108787E-03
      0.450000          0.109659E-03
      0.455000          0.110652E-03
      0.460000          0.111672E-03
      0.465000          0.112627E-03
      0.470000          0.113428E-03
      0.475000          0.113996E-03
      0.480000          0.114261E-03
      0.485000          0.114169E-03
      0.490000          0.113678E-03
      0.495000          0.112764E-03
      0.500000          0.111420E-03
