 I_abs(s)[cm^-1]/c[mg/ml]
       0.00000          0.142399E-01
      0.500000E-02      0.141763E-01
      0.100000E-01      0.139873E-01
      0.150000E-01      0.136779E-01
      0.200000E-01      0.132565E-01
      0.250000E-01      0.127341E-01
      0.300000E-01      0.121242E-01
      0.350000E-01      0.114421E-01
      0.400000E-01      0.107044E-01
      0.450000E-01      0.992820E-02
      0.500000E-01      0.913080E-02
      0.550000E-01      0.832875E-02
      0.600000E-01      0.753748E-02
      0.650000E-01      0.677081E-02
      0.700000E-01      0.604061E-02
      0.750000E-01      0.535649E-02
      0.800000E-01      0.472568E-02
      0.850000E-01      0.415301E-02
      0.900000E-01      0.364093E-02
      0.950000E-01      0.318977E-02
      0.100000          0.279789E-02
      0.105000          0.246205E-02
      0.110000          0.217773E-02
      0.115000          0.193951E-02
      0.120000          0.174142E-02
      0.125000          0.157726E-02
      0.130000          0.144095E-02
      0.135000          0.132676E-02
      0.140000          0.122953E-02
      0.145000          0.114476E-02
      0.150000          0.106878E-02
      0.155000          0.998708E-03
      0.160000          0.932446E-03
      0.165000          0.868632E-03
      0.170000          0.806534E-03
      0.175000          0.745937E-03
      0.180000          0.687017E-03
      0.185000          0.630217E-03
      0.190000          0.576129E-03
      0.195000          0.525385E-03
      0.200000          0.478575E-03
      0.205000          0.436177E-03
      0.210000          0.398520E-03
      0.215000          0.365753E-03
      0.220000          0.337852E-03
      0.225000          0.314621E-03
      0.230000          0.295726E-03
      0.235000          0.280724E-03
      0.240000          0.269095E-03
      0.245000          0.260286E-03
      0.250000          0.253740E-03
      0.255000          0.248928E-03
      0.260000          0.245371E-03
      0.265000          0.242654E-03
      0.270000          0.240437E-03
      0.275000          0.238457E-03
      0.280000          0.236522E-03
      0.285000          0.234505E-03
      0.290000          0.232333E-03
      0.295000          0.229974E-03
      0.300000          0.227424E-03
      0.305000          0.224698E-03
      0.310000          0.221815E-03
      0.315000          0.218797E-03
      0.320000          0.215659E-03
      0.325000          0.212408E-03
      0.330000          0.209042E-03
      0.335000          0.205552E-03
      0.340000          0.201925E-03
      0.345000          0.198145E-03
      0.350000          0.194202E-03
      0.355000          0.190089E-03
      0.360000          0.185808E-03
      0.365000          0.181371E-03
      0.370000          0.176802E-03
      0.375000          0.172136E-03
      0.380000          0.167416E-03
      0.385000          0.162694E-03
      0.390000          0.158027E-03
      0.395000          0.153472E-03
      0.400000          0.149084E-03
      0.405000          0.144916E-03
      0.410000          0.141011E-03
      0.415000          0.137402E-03
      0.420000          0.134112E-03
      0.425000          0.131151E-03
      0.430000          0.128516E-03
      0.435000          0.126193E-03
      0.440000          0.124157E-03
      0.445000          0.122375E-03
      0.450000          0.120805E-03
      0.455000          0.119402E-03
      0.460000          0.118120E-03
      0.465000          0.116911E-03
      0.470000          0.115732E-03
      0.475000          0.114543E-03
      0.480000          0.113312E-03
      0.485000          0.112012E-03
      0.490000          0.110624E-03
      0.495000          0.109140E-03
      0.500000          0.107556E-03
