 I_abs(s)[cm^-1]/c[mg/ml]
       0.00000          0.144209E-01
      0.500000E-02      0.143685E-01
      0.100000E-01      0.142125E-01
      0.150000E-01      0.139563E-01
      0.200000E-01      0.136057E-01
      0.250000E-01      0.131682E-01
      0.300000E-01      0.126532E-01
      0.350000E-01      0.120715E-01
      0.400000E-01      0.114350E-01
      0.450000E-01      0.107559E-01
      0.500000E-01      0.100471E-01
      0.550000E-01      0.932115E-02
      0.600000E-01      0.859013E-02
      0.650000E-01      0.786537E-02
      0.700000E-01      0.715709E-02
      0.750000E-01      0.647424E-02
      0.800000E-01      0.582434E-02
      0.850000E-01      0.521337E-02
      0.900000E-01      0.464574E-02
      0.950000E-01      0.412437E-02
      0.100000          0.365072E-02
      0.105000          0.322494E-02
      0.110000          0.284603E-02
      0.115000          0.251203E-02
      0.120000          0.222020E-02
      0.125000          0.196723E-02
      0.130000          0.174943E-02
      0.135000          0.156292E-02
      0.140000          0.140375E-02
      0.145000          0.126812E-02
      0.150000          0.115239E-02
      0.155000          0.105324E-02
      0.160000          0.967699E-03
      0.165000          0.893156E-03
      0.170000          0.827409E-03
      0.175000          0.768633E-03
      0.180000          0.715365E-03
      0.185000          0.666466E-03
      0.190000          0.621088E-03
      0.195000          0.578622E-03
      0.200000          0.538659E-03
      0.205000          0.500946E-03
      0.210000          0.465343E-03
      0.215000          0.431794E-03
      0.220000          0.400291E-03
      0.225000          0.370855E-03
      0.230000          0.343513E-03
      0.235000          0.318289E-03
      0.240000          0.295188E-03
      0.245000          0.274197E-03
      0.250000          0.255277E-03
      0.255000          0.238364E-03
      0.260000          0.223373E-03
      0.265000          0.210197E-03
      0.270000          0.198712E-03
      0.275000          0.188782E-03
      0.280000          0.180259E-03
      0.285000          0.172993E-03
      0.290000          0.166830E-03
      0.295000          0.161621E-03
      0.300000          0.157220E-03
      0.305000          0.153491E-03
      0.310000          0.150306E-03
      0.315000          0.147553E-03
      0.320000          0.145129E-03
      0.325000          0.142948E-03
      0.330000          0.140937E-03
      0.335000          0.139035E-03
      0.340000          0.137197E-03
      0.345000          0.135387E-03
      0.350000          0.133581E-03
      0.355000          0.131763E-03
      0.360000          0.129924E-03
      0.365000          0.128060E-03
      0.370000          0.126174E-03
      0.375000          0.124269E-03
      0.380000          0.122350E-03
      0.385000          0.120422E-03
      0.390000          0.118493E-03
      0.395000          0.116567E-03
      0.400000          0.114649E-03
      0.405000          0.112742E-03
      0.410000          0.110848E-03
      0.415000          0.108969E-03
      0.420000          0.107106E-03
      0.425000          0.105259E-03
      0.430000          0.103428E-03
      0.435000          0.101615E-03
      0.440000          0.998207E-04
      0.445000          0.980470E-04
      0.450000          0.962971E-04
      0.455000          0.945755E-04
      0.460000          0.928878E-04
      0.465000          0.912408E-04
      0.470000          0.896428E-04
      0.475000          0.881028E-04
      0.480000          0.866307E-04
      0.485000          0.852365E-04
      0.490000          0.839302E-04
      0.495000          0.827212E-04
      0.500000          0.816174E-04
