 I_abs(s)[cm^-1]/c[mg/ml]
       0.00000          0.140677E-01
      0.500000E-02      0.140036E-01
      0.100000E-01      0.138130E-01
      0.150000E-01      0.135015E-01
      0.200000E-01      0.130781E-01
      0.250000E-01      0.125547E-01
      0.300000E-01      0.119456E-01
      0.350000E-01      0.112671E-01
      0.400000E-01      0.105366E-01
      0.450000E-01      0.977177E-02
      0.500000E-01      0.899007E-02
      0.550000E-01      0.820802E-02
      0.600000E-01      0.744063E-02
      0.650000E-01      0.670099E-02
      0.700000E-01      0.599987E-02
      0.750000E-01      0.534562E-02
      0.800000E-01      0.474408E-02
      0.850000E-01      0.419863E-02
      0.900000E-01      0.371041E-02
      0.950000E-01      0.327860E-02
      0.100000          0.290071E-02
      0.105000          0.257299E-02
      0.110000          0.229080E-02
      0.115000          0.204898E-02
      0.120000          0.184218E-02
      0.125000          0.166517E-02
      0.130000          0.151306E-02
      0.135000          0.138143E-02
      0.140000          0.126648E-02
      0.145000          0.116507E-02
      0.150000          0.107465E-02
      0.155000          0.993291E-03
      0.160000          0.919540E-03
      0.165000          0.852363E-03
      0.170000          0.791025E-03
      0.175000          0.735006E-03
      0.180000          0.683903E-03
      0.185000          0.637374E-03
      0.190000          0.595084E-03
      0.195000          0.556674E-03
      0.200000          0.521756E-03
      0.205000          0.489916E-03
      0.210000          0.460725E-03
      0.215000          0.433765E-03
      0.220000          0.408650E-03
      0.225000          0.385047E-03
      0.230000          0.362691E-03
      0.235000          0.341399E-03
      0.240000          0.321066E-03
      0.245000          0.301663E-03
      0.250000          0.283223E-03
      0.255000          0.265825E-03
      0.260000          0.249573E-03
      0.265000          0.234577E-03
      0.270000          0.220933E-03
      0.275000          0.208707E-03
      0.280000          0.197925E-03
      0.285000          0.188563E-03
      0.290000          0.180551E-03
      0.295000          0.173773E-03
      0.300000          0.168074E-03
      0.305000          0.163274E-03
      0.310000          0.159178E-03
      0.315000          0.155592E-03
      0.320000          0.152330E-03
      0.325000          0.149231E-03
      0.330000          0.146161E-03
      0.335000          0.143025E-03
      0.340000          0.139761E-03
      0.345000          0.136349E-03
      0.350000          0.132798E-03
      0.355000          0.129145E-03
      0.360000          0.125451E-03
      0.365000          0.121787E-03
      0.370000          0.118228E-03
      0.375000          0.114851E-03
      0.380000          0.111721E-03
      0.385000          0.108890E-03
      0.390000          0.106395E-03
      0.395000          0.104250E-03
      0.400000          0.102456E-03
      0.405000          0.100992E-03
      0.410000          0.998246E-04
      0.415000          0.989070E-04
      0.420000          0.981855E-04
      0.425000          0.976021E-04
      0.430000          0.970989E-04
      0.435000          0.966215E-04
      0.440000          0.961222E-04
      0.445000          0.955623E-04
      0.450000          0.949136E-04
      0.455000          0.941591E-04
      0.460000          0.932933E-04
      0.465000          0.923212E-04
      0.470000          0.912575E-04
      0.475000          0.901244E-04
      0.480000          0.889500E-04
      0.485000          0.877659E-04
      0.490000          0.866050E-04
      0.495000          0.854993E-04
      0.500000          0.844783E-04
