 I_abs(s)[cm^-1]/c[mg/ml]
       0.00000          0.145317E-01
      0.500000E-02      0.144719E-01
      0.100000E-01      0.142943E-01
      0.150000E-01      0.140033E-01
      0.200000E-01      0.136068E-01
      0.250000E-01      0.131148E-01
      0.300000E-01      0.125396E-01
      0.350000E-01      0.118954E-01
      0.400000E-01      0.111970E-01
      0.450000E-01      0.104600E-01
      0.500000E-01      0.969997E-02
      0.550000E-01      0.893163E-02
      0.600000E-01      0.816876E-02
      0.650000E-01      0.742364E-02
      0.700000E-01      0.670679E-02
      0.750000E-01      0.602676E-02
      0.800000E-01      0.539009E-02
      0.850000E-01      0.480128E-02
      0.900000E-01      0.426291E-02
      0.950000E-01      0.377583E-02
      0.100000          0.333937E-02
      0.105000          0.295163E-02
      0.110000          0.260972E-02
      0.115000          0.231009E-02
      0.120000          0.204877E-02
      0.125000          0.182160E-02
      0.130000          0.162448E-02
      0.135000          0.145344E-02
      0.140000          0.130483E-02
      0.145000          0.117538E-02
      0.150000          0.106222E-02
      0.155000          0.962878E-03
      0.160000          0.875297E-03
      0.165000          0.797766E-03
      0.170000          0.728886E-03
      0.175000          0.667521E-03
      0.180000          0.612741E-03
      0.185000          0.563782E-03
      0.190000          0.520005E-03
      0.195000          0.480864E-03
      0.200000          0.445881E-03
      0.205000          0.414630E-03
      0.210000          0.386730E-03
      0.215000          0.361832E-03
      0.220000          0.339617E-03
      0.225000          0.319795E-03
      0.230000          0.302105E-03
      0.235000          0.286306E-03
      0.240000          0.272182E-03
      0.245000          0.259535E-03
      0.250000          0.248184E-03
      0.255000          0.237963E-03
      0.260000          0.228717E-03
      0.265000          0.220301E-03
      0.270000          0.212583E-03
      0.275000          0.205441E-03
      0.280000          0.198769E-03
      0.285000          0.192473E-03
      0.290000          0.186481E-03
      0.295000          0.180738E-03
      0.300000          0.175213E-03
      0.305000          0.169894E-03
      0.310000          0.164792E-03
      0.315000          0.159933E-03
      0.320000          0.155360E-03
      0.325000          0.151123E-03
      0.330000          0.147276E-03
      0.335000          0.143872E-03
      0.340000          0.140952E-03
      0.345000          0.138549E-03
      0.350000          0.136675E-03
      0.355000          0.135324E-03
      0.360000          0.134467E-03
      0.365000          0.134056E-03
      0.370000          0.134023E-03
      0.375000          0.134287E-03
      0.380000          0.134753E-03
      0.385000          0.135320E-03
      0.390000          0.135888E-03
      0.395000          0.136360E-03
      0.400000          0.136648E-03
      0.405000          0.136676E-03
      0.410000          0.136386E-03
      0.415000          0.135737E-03
      0.420000          0.134705E-03
      0.425000          0.133287E-03
      0.430000          0.131495E-03
      0.435000          0.129354E-03
      0.440000          0.126905E-03
      0.445000          0.124192E-03
      0.450000          0.121268E-03
      0.455000          0.118186E-03
      0.460000          0.114996E-03
      0.465000          0.111747E-03
      0.470000          0.108481E-03
      0.475000          0.105233E-03
      0.480000          0.102031E-03
      0.485000          0.988957E-04
      0.490000          0.958415E-04
      0.495000          0.928776E-04
      0.500000          0.900095E-04
