 I_abs(s)[cm^-1]/c[mg/ml]
       0.00000          0.141615E-01
      0.500000E-02      0.140716E-01
      0.100000E-01      0.138055E-01
      0.150000E-01      0.133740E-01
      0.200000E-01      0.127942E-01
      0.250000E-01      0.120885E-01
      0.300000E-01      0.112834E-01
      0.350000E-01      0.104079E-01
      0.400000E-01      0.949166E-02
      0.450000E-01      0.856376E-02
      0.500000E-01      0.765094E-02
      0.550000E-01      0.677652E-02
      0.600000E-01      0.595947E-02
      0.650000E-01      0.521384E-02
      0.700000E-01      0.454858E-02
      0.750000E-01      0.396770E-02
      0.800000E-01      0.347073E-02
      0.850000E-01      0.305339E-02
      0.900000E-01      0.270846E-02
      0.950000E-01      0.242676E-02
      0.100000          0.219800E-02
      0.105000          0.201172E-02
      0.110000          0.185801E-02
      0.115000          0.172802E-02
      0.120000          0.161439E-02
      0.125000          0.151144E-02
      0.130000          0.141513E-02
      0.135000          0.132296E-02
      0.140000          0.123376E-02
      0.145000          0.114732E-02
      0.150000          0.106414E-02
      0.155000          0.985053E-03
      0.160000          0.910982E-03
      0.165000          0.842726E-03
      0.170000          0.780815E-03
      0.175000          0.725437E-03
      0.180000          0.676435E-03
      0.185000          0.633345E-03
      0.190000          0.595479E-03
      0.195000          0.562016E-03
      0.200000          0.532107E-03
      0.205000          0.504953E-03
      0.210000          0.479878E-03
      0.215000          0.456364E-03
      0.220000          0.434071E-03
      0.225000          0.412822E-03
      0.230000          0.392577E-03
      0.235000          0.373392E-03
      0.240000          0.355375E-03
      0.245000          0.338638E-03
      0.250000          0.323266E-03
      0.255000          0.309285E-03
      0.260000          0.296651E-03
      0.265000          0.285251E-03
      0.270000          0.274907E-03
      0.275000          0.265399E-03
      0.280000          0.256486E-03
      0.285000          0.247929E-03
      0.290000          0.239516E-03
      0.295000          0.231079E-03
      0.300000          0.222510E-03
      0.305000          0.213765E-03
      0.310000          0.204860E-03
      0.315000          0.195872E-03
      0.320000          0.186918E-03
      0.325000          0.178148E-03
      0.330000          0.169721E-03
      0.335000          0.161791E-03
      0.340000          0.154494E-03
      0.345000          0.147931E-03
      0.350000          0.142165E-03
      0.355000          0.137210E-03
      0.360000          0.133040E-03
      0.365000          0.129585E-03
      0.370000          0.126748E-03
      0.375000          0.124405E-03
      0.380000          0.122427E-03
      0.385000          0.120686E-03
      0.390000          0.119066E-03
      0.395000          0.117476E-03
      0.400000          0.115855E-03
      0.405000          0.114173E-03
      0.410000          0.112435E-03
      0.415000          0.110672E-03
      0.420000          0.108941E-03
      0.425000          0.107312E-03
      0.430000          0.105862E-03
      0.435000          0.104659E-03
      0.440000          0.103763E-03
      0.445000          0.103207E-03
      0.450000          0.103002E-03
      0.455000          0.103129E-03
      0.460000          0.103541E-03
      0.465000          0.104170E-03
      0.470000          0.104926E-03
      0.475000          0.105713E-03
      0.480000          0.106431E-03
      0.485000          0.106987E-03
      0.490000          0.107303E-03
      0.495000          0.107322E-03
      0.500000          0.107011E-03
