 I_abs(s)[cm^-1]/c[mg/ml]
       0.00000          0.137420E-01
      0.500000E-02      0.136496E-01
      0.100000E-01      0.133760E-01
      0.150000E-01      0.129322E-01
      0.200000E-01      0.123357E-01
      0.250000E-01      0.116095E-01
      0.300000E-01      0.107809E-01
      0.350000E-01      0.987972E-02
      0.400000E-01      0.893680E-02
      0.450000E-01      0.798240E-02
      0.500000E-01      0.704469E-02
      0.550000E-01      0.614847E-02
      0.600000E-01      0.531422E-02
      0.650000E-01      0.455746E-02
      0.700000E-01      0.388849E-02
      0.750000E-01      0.331246E-02
      0.800000E-01      0.282972E-02
      0.850000E-01      0.243642E-02
      0.900000E-01      0.212536E-02
      0.950000E-01      0.188683E-02
      0.100000          0.170957E-02
      0.105000          0.158162E-02
      0.110000          0.149117E-02
      0.115000          0.142719E-02
      0.120000          0.137992E-02
      0.125000          0.134122E-02
      0.130000          0.130472E-02
      0.135000          0.126588E-02
      0.140000          0.122185E-02
      0.145000          0.117127E-02
      0.150000          0.111405E-02
      0.155000          0.105104E-02
      0.160000          0.983767E-03
      0.165000          0.914129E-03
      0.170000          0.844160E-03
      0.175000          0.775822E-03
      0.180000          0.710845E-03
      0.185000          0.650619E-03
      0.190000          0.596136E-03
      0.195000          0.547961E-03
      0.200000          0.506259E-03
      0.205000          0.470828E-03
      0.210000          0.441165E-03
      0.215000          0.416543E-03
      0.220000          0.396092E-03
      0.225000          0.378879E-03
      0.230000          0.363982E-03
      0.235000          0.350556E-03
      0.240000          0.337880E-03
      0.245000          0.325397E-03
      0.250000          0.312725E-03
      0.255000          0.299667E-03
      0.260000          0.286190E-03
      0.265000          0.272407E-03
      0.270000          0.258538E-03
      0.275000          0.244873E-03
      0.280000          0.231734E-03
      0.285000          0.219430E-03
      0.290000          0.208232E-03
      0.295000          0.198343E-03
      0.300000          0.189880E-03
      0.305000          0.182874E-03
      0.310000          0.177265E-03
      0.315000          0.172916E-03
      0.320000          0.169628E-03
      0.325000          0.167159E-03
      0.330000          0.165247E-03
      0.335000          0.163629E-03
      0.340000          0.162058E-03
      0.345000          0.160323E-03
      0.350000          0.158255E-03
      0.355000          0.155734E-03
      0.360000          0.152694E-03
      0.365000          0.149118E-03
      0.370000          0.145035E-03
      0.375000          0.140512E-03
      0.380000          0.135647E-03
      0.385000          0.130561E-03
      0.390000          0.125387E-03
      0.395000          0.120262E-03
      0.400000          0.115321E-03
      0.405000          0.110686E-03
      0.410000          0.106465E-03
      0.415000          0.102740E-03
      0.420000          0.995702E-04
      0.425000          0.969834E-04
      0.430000          0.949789E-04
      0.435000          0.935266E-04
      0.440000          0.925708E-04
      0.445000          0.920337E-04
      0.450000          0.918220E-04
      0.455000          0.918341E-04
      0.460000          0.919676E-04
      0.465000          0.921272E-04
      0.470000          0.922321E-04
      0.475000          0.922208E-04
      0.480000          0.920555E-04
      0.485000          0.917231E-04
      0.490000          0.912339E-04
      0.495000          0.906186E-04
      0.500000          0.899223E-04
