 I_abs(s)[cm^-1]/c[mg/ml]
       0.00000          0.133517E-01
      0.500000E-02      0.132683E-01
      0.100000E-01      0.130218E-01
      0.150000E-01      0.126231E-01
      0.200000E-01      0.120897E-01
      0.250000E-01      0.114439E-01
      0.300000E-01      0.107117E-01
      0.350000E-01      0.992100E-02
      0.400000E-01      0.909955E-02
      0.450000E-01      0.827354E-02
      0.500000E-01      0.746614E-02
      0.550000E-01      0.669649E-02
      0.600000E-01      0.597912E-02
      0.650000E-01      0.532374E-02
      0.700000E-01      0.473546E-02
      0.750000E-01      0.421529E-02
      0.800000E-01      0.376089E-02
      0.850000E-01      0.336742E-02
      0.900000E-01      0.302844E-02
      0.950000E-01      0.273671E-02
      0.100000          0.248488E-02
      0.105000          0.226608E-02
      0.110000          0.207422E-02
      0.115000          0.190424E-02
      0.120000          0.175210E-02
      0.125000          0.161478E-02
      0.130000          0.149010E-02
      0.135000          0.137657E-02
      0.140000          0.127317E-02
      0.145000          0.117925E-02
      0.150000          0.109429E-02
      0.155000          0.101788E-02
      0.160000          0.949557E-03
      0.165000          0.888821E-03
      0.170000          0.835059E-03
      0.175000          0.787561E-03
      0.180000          0.745528E-03
      0.185000          0.708092E-03
      0.190000          0.674354E-03
      0.195000          0.643423E-03
      0.200000          0.614465E-03
      0.205000          0.586747E-03
      0.210000          0.559677E-03
      0.215000          0.532832E-03
      0.220000          0.505976E-03
      0.225000          0.479055E-03
      0.230000          0.452176E-03
      0.235000          0.425575E-03
      0.240000          0.399567E-03
      0.245000          0.374495E-03
      0.250000          0.350684E-03
      0.255000          0.328394E-03
      0.260000          0.307800E-03
      0.265000          0.288976E-03
      0.270000          0.271903E-03
      0.275000          0.256484E-03
      0.280000          0.242576E-03
      0.285000          0.230018E-03
      0.290000          0.218658E-03
      0.295000          0.208377E-03
      0.300000          0.199100E-03
      0.305000          0.190790E-03
      0.310000          0.183441E-03
      0.315000          0.177063E-03
      0.320000          0.171655E-03
      0.325000          0.167192E-03
      0.330000          0.163607E-03
      0.335000          0.160789E-03
      0.340000          0.158588E-03
      0.345000          0.156819E-03
      0.350000          0.155287E-03
      0.355000          0.153801E-03
      0.360000          0.152197E-03
      0.365000          0.150347E-03
      0.370000          0.148174E-03
      0.375000          0.145647E-03
      0.380000          0.142781E-03
      0.385000          0.139626E-03
      0.390000          0.136251E-03
      0.395000          0.132734E-03
      0.400000          0.129151E-03
      0.405000          0.125565E-03
      0.410000          0.122022E-03
      0.415000          0.118555E-03
      0.420000          0.115181E-03
      0.425000          0.111912E-03
      0.430000          0.108754E-03
      0.435000          0.105718E-03
      0.440000          0.102816E-03
      0.445000          0.100064E-03
      0.450000          0.974820E-04
      0.455000          0.950857E-04
      0.460000          0.928870E-04
      0.465000          0.908888E-04
      0.470000          0.890833E-04
      0.475000          0.874515E-04
      0.480000          0.859656E-04
      0.485000          0.845912E-04
      0.490000          0.832918E-04
      0.495000          0.820331E-04
      0.500000          0.807861E-04
