 I_abs(s)[cm^-1]/c[mg/ml]
       0.00000          0.140366E-01
      0.500000E-02      0.139750E-01
      0.100000E-01      0.137921E-01
      0.150000E-01      0.134931E-01
      0.200000E-01      0.130863E-01
      0.250000E-01      0.125829E-01
      0.300000E-01      0.119964E-01
      0.350000E-01      0.113421E-01
      0.400000E-01      0.106364E-01
      0.450000E-01      0.989585E-02
      0.500000E-01      0.913711E-02
      0.550000E-01      0.837579E-02
      0.600000E-01      0.762622E-02
      0.650000E-01      0.690090E-02
      0.700000E-01      0.621028E-02
      0.750000E-01      0.556251E-02
      0.800000E-01      0.496341E-02
      0.850000E-01      0.441655E-02
      0.900000E-01      0.392337E-02
      0.950000E-01      0.348346E-02
      0.100000          0.309485E-02
      0.105000          0.275435E-02
      0.110000          0.245790E-02
      0.115000          0.220094E-02
      0.120000          0.197868E-02
      0.125000          0.178638E-02
      0.130000          0.161958E-02
      0.135000          0.147424E-02
      0.140000          0.134684E-02
      0.145000          0.123441E-02
      0.150000          0.113453E-02
      0.155000          0.104530E-02
      0.160000          0.965230E-03
      0.165000          0.893189E-03
      0.170000          0.828301E-03
      0.175000          0.769863E-03
      0.180000          0.717268E-03
      0.185000          0.669956E-03
      0.190000          0.627368E-03
      0.195000          0.588937E-03
      0.200000          0.554081E-03
      0.205000          0.522218E-03
      0.210000          0.492785E-03
      0.215000          0.465269E-03
      0.220000          0.439226E-03
      0.225000          0.414308E-03
      0.230000          0.390274E-03
      0.235000          0.366997E-03
      0.240000          0.344458E-03
      0.245000          0.322735E-03
      0.250000          0.301980E-03
      0.255000          0.282393E-03
      0.260000          0.264194E-03
      0.265000          0.247594E-03
      0.270000          0.232767E-03
      0.275000          0.219833E-03
      0.280000          0.208837E-03
      0.285000          0.199749E-03
      0.290000          0.192459E-03
      0.295000          0.186785E-03
      0.300000          0.182491E-03
      0.305000          0.179298E-03
      0.310000          0.176909E-03
      0.315000          0.175025E-03
      0.320000          0.173370E-03
      0.325000          0.171703E-03
      0.330000          0.169834E-03
      0.335000          0.167626E-03
      0.340000          0.165005E-03
      0.345000          0.161952E-03
      0.350000          0.158498E-03
      0.355000          0.154718E-03
      0.360000          0.150710E-03
      0.365000          0.146593E-03
      0.370000          0.142482E-03
      0.375000          0.138489E-03
      0.380000          0.134702E-03
      0.385000          0.131188E-03
      0.390000          0.127980E-03
      0.395000          0.125087E-03
      0.400000          0.122488E-03
      0.405000          0.120142E-03
      0.410000          0.117992E-03
      0.415000          0.115974E-03
      0.420000          0.114026E-03
      0.425000          0.112092E-03
      0.430000          0.110130E-03
      0.435000          0.108118E-03
      0.440000          0.106050E-03
      0.445000          0.103944E-03
      0.450000          0.101834E-03
      0.455000          0.997664E-04
      0.460000          0.977988E-04
      0.465000          0.959902E-04
      0.470000          0.943962E-04
      0.475000          0.930631E-04
      0.480000          0.920232E-04
      0.485000          0.912907E-04
      0.490000          0.908600E-04
      0.495000          0.907055E-04
      0.500000          0.907827E-04
