 I_abs(s)[cm^-1]/c[mg/ml]
       0.00000          0.139743E-01
      0.500000E-02      0.139085E-01
      0.100000E-01      0.137131E-01
      0.150000E-01      0.133939E-01
      0.200000E-01      0.129604E-01
      0.250000E-01      0.124250E-01
      0.300000E-01      0.118027E-01
      0.350000E-01      0.111104E-01
      0.400000E-01      0.103661E-01
      0.450000E-01      0.958797E-02
      0.500000E-01      0.879390E-02
      0.550000E-01      0.800069E-02
      0.600000E-01      0.722352E-02
      0.650000E-01      0.647553E-02
      0.700000E-01      0.576757E-02
      0.750000E-01      0.510799E-02
      0.800000E-01      0.450268E-02
      0.850000E-01      0.395515E-02
      0.900000E-01      0.346672E-02
      0.950000E-01      0.303684E-02
      0.100000          0.266335E-02
      0.105000          0.234285E-02
      0.110000          0.207103E-02
      0.115000          0.184299E-02
      0.120000          0.165351E-02
      0.125000          0.149730E-02
      0.130000          0.136922E-02
      0.135000          0.126440E-02
      0.140000          0.117836E-02
      0.145000          0.110707E-02
      0.150000          0.104701E-02
      0.155000          0.995202E-03
      0.160000          0.949146E-03
      0.165000          0.906853E-03
      0.170000          0.866794E-03
      0.175000          0.827860E-03
      0.180000          0.789321E-03
      0.185000          0.750771E-03
      0.190000          0.712074E-03
      0.195000          0.673309E-03
      0.200000          0.634712E-03
      0.205000          0.596618E-03
      0.210000          0.559414E-03
      0.215000          0.523491E-03
      0.220000          0.489201E-03
      0.225000          0.456835E-03
      0.230000          0.426598E-03
      0.235000          0.398601E-03
      0.240000          0.372861E-03
      0.245000          0.349312E-03
      0.250000          0.327815E-03
      0.255000          0.308179E-03
      0.260000          0.290186E-03
      0.265000          0.273608E-03
      0.270000          0.258225E-03
      0.275000          0.243845E-03
      0.280000          0.230312E-03
      0.285000          0.217510E-03
      0.290000          0.205370E-03
      0.295000          0.193862E-03
      0.300000          0.182990E-03
      0.305000          0.172787E-03
      0.310000          0.163300E-03
      0.315000          0.154587E-03
      0.320000          0.146703E-03
      0.325000          0.139695E-03
      0.330000          0.133594E-03
      0.335000          0.128414E-03
      0.340000          0.124145E-03
      0.345000          0.120757E-03
      0.350000          0.118197E-03
      0.355000          0.116391E-03
      0.360000          0.115249E-03
      0.365000          0.114664E-03
      0.370000          0.114521E-03
      0.375000          0.114699E-03
      0.380000          0.115077E-03
      0.385000          0.115535E-03
      0.390000          0.115964E-03
      0.395000          0.116269E-03
      0.400000          0.116370E-03
      0.405000          0.116207E-03
      0.410000          0.115740E-03
      0.415000          0.114952E-03
      0.420000          0.113846E-03
      0.425000          0.112442E-03
      0.430000          0.110776E-03
      0.435000          0.108894E-03
      0.440000          0.106851E-03
      0.445000          0.104703E-03
      0.450000          0.102503E-03
      0.455000          0.100300E-03
      0.460000          0.981372E-04
      0.465000          0.960466E-04
      0.470000          0.940520E-04
      0.475000          0.921687E-04
      0.480000          0.904046E-04
      0.485000          0.887625E-04
      0.490000          0.872416E-04
      0.495000          0.858397E-04
      0.500000          0.845544E-04
