 I_abs(s)[cm^-1]/c[mg/ml]
       0.00000          0.141928E-01
      0.500000E-02      0.141050E-01
      0.100000E-01      0.138456E-01
      0.150000E-01      0.134255E-01
      0.200000E-01      0.128627E-01
      0.250000E-01      0.121803E-01
      0.300000E-01      0.114053E-01
      0.350000E-01      0.105666E-01
      0.400000E-01      0.969359E-02
      0.450000E-01      0.881411E-02
      0.500000E-01      0.795304E-02
      0.550000E-01      0.713122E-02
      0.600000E-01      0.636463E-02
      0.650000E-01      0.566412E-02
      0.700000E-01      0.503546E-02
      0.750000E-01      0.447983E-02
      0.800000E-01      0.399452E-02
      0.850000E-01      0.357394E-02
      0.900000E-01      0.321055E-02
      0.950000E-01      0.289590E-02
      0.100000          0.262153E-02
      0.105000          0.237963E-02
      0.110000          0.216359E-02
      0.115000          0.196822E-02
      0.120000          0.178986E-02
      0.125000          0.162621E-02
      0.130000          0.147607E-02
      0.135000          0.133906E-02
      0.140000          0.121520E-02
      0.145000          0.110462E-02
      0.150000          0.100728E-02
      0.155000          0.922792E-03
      0.160000          0.850380E-03
      0.165000          0.788840E-03
      0.170000          0.736655E-03
      0.175000          0.692116E-03
      0.180000          0.653479E-03
      0.185000          0.619112E-03
      0.190000          0.587617E-03
      0.195000          0.557910E-03
      0.200000          0.529260E-03
      0.205000          0.501272E-03
      0.210000          0.473844E-03
      0.215000          0.447084E-03
      0.220000          0.421232E-03
      0.225000          0.396567E-03
      0.230000          0.373342E-03
      0.235000          0.351729E-03
      0.240000          0.331801E-03
      0.245000          0.313524E-03
      0.250000          0.296781E-03
      0.255000          0.281401E-03
      0.260000          0.267198E-03
      0.265000          0.253998E-03
      0.270000          0.241672E-03
      0.275000          0.230144E-03
      0.280000          0.219389E-03
      0.285000          0.209423E-03
      0.290000          0.200282E-03
      0.295000          0.191999E-03
      0.300000          0.184579E-03
      0.305000          0.177985E-03
      0.310000          0.172131E-03
      0.315000          0.166884E-03
      0.320000          0.162074E-03
      0.325000          0.157521E-03
      0.330000          0.153049E-03
      0.335000          0.148517E-03
      0.340000          0.143833E-03
      0.345000          0.138968E-03
      0.350000          0.133959E-03
      0.355000          0.128902E-03
      0.360000          0.123937E-03
      0.365000          0.119224E-03
      0.370000          0.114925E-03
      0.375000          0.111175E-03
      0.380000          0.108066E-03
      0.385000          0.105635E-03
      0.390000          0.103854E-03
      0.395000          0.102645E-03
      0.400000          0.101881E-03
      0.405000          0.101411E-03
      0.410000          0.101078E-03
      0.415000          0.100740E-03
      0.420000          0.100288E-03
      0.425000          0.996563E-04
      0.430000          0.988316E-04
      0.435000          0.978481E-04
      0.440000          0.967797E-04
      0.445000          0.957265E-04
      0.450000          0.947972E-04
      0.455000          0.940915E-04
      0.460000          0.936842E-04
      0.465000          0.936132E-04
      0.470000          0.938727E-04
      0.475000          0.944132E-04
      0.480000          0.951465E-04
      0.485000          0.959563E-04
      0.490000          0.967122E-04
      0.495000          0.972851E-04
      0.500000          0.975620E-04
