 I_abs(s)[cm^-1]/c[mg/ml]
       0.00000          0.141850E-01
      0.500000E-02      0.141192E-01
      0.100000E-01      0.139238E-01
      0.150000E-01      0.136042E-01
      0.200000E-01      0.131695E-01
      0.250000E-01      0.126316E-01
      0.300000E-01      0.120051E-01
      0.350000E-01      0.113064E-01
      0.400000E-01      0.105531E-01
      0.450000E-01      0.976364E-02
      0.500000E-01      0.895596E-02
      0.550000E-01      0.814735E-02
      0.600000E-01      0.735373E-02
      0.650000E-01      0.658909E-02
      0.700000E-01      0.586524E-02
      0.750000E-01      0.519147E-02
      0.800000E-01      0.457449E-02
      0.850000E-01      0.401846E-02
      0.900000E-01      0.352506E-02
      0.950000E-01      0.309378E-02
      0.100000          0.272218E-02
      0.105000          0.240629E-02
      0.110000          0.214097E-02
      0.115000          0.192033E-02
      0.120000          0.173808E-02
      0.125000          0.158788E-02
      0.130000          0.146368E-02
      0.135000          0.135988E-02
      0.140000          0.127155E-02
      0.145000          0.119452E-02
      0.150000          0.112544E-02
      0.155000          0.106173E-02
      0.160000          0.100156E-02
      0.165000          0.943758E-03
      0.170000          0.887672E-03
      0.175000          0.833082E-03
      0.180000          0.780061E-03
      0.185000          0.728863E-03
      0.190000          0.679827E-03
      0.195000          0.633294E-03
      0.200000          0.589554E-03
      0.205000          0.548806E-03
      0.210000          0.511138E-03
      0.215000          0.476531E-03
      0.220000          0.444868E-03
      0.225000          0.415956E-03
      0.230000          0.389553E-03
      0.235000          0.365389E-03
      0.240000          0.343200E-03
      0.245000          0.322738E-03
      0.250000          0.303794E-03
      0.255000          0.286200E-03
      0.260000          0.269835E-03
      0.265000          0.254620E-03
      0.270000          0.240511E-03
      0.275000          0.227489E-03
      0.280000          0.215553E-03
      0.285000          0.204703E-03
      0.290000          0.194935E-03
      0.295000          0.186233E-03
      0.300000          0.178565E-03
      0.305000          0.171879E-03
      0.310000          0.166108E-03
      0.315000          0.161168E-03
      0.320000          0.156964E-03
      0.325000          0.153398E-03
      0.330000          0.150368E-03
      0.335000          0.147781E-03
      0.340000          0.145547E-03
      0.345000          0.143590E-03
      0.350000          0.141847E-03
      0.355000          0.140265E-03
      0.360000          0.138806E-03
      0.365000          0.137439E-03
      0.370000          0.136142E-03
      0.375000          0.134900E-03
      0.380000          0.133696E-03
      0.385000          0.132519E-03
      0.390000          0.131354E-03
      0.395000          0.130185E-03
      0.400000          0.128995E-03
      0.405000          0.127764E-03
      0.410000          0.126471E-03
      0.415000          0.125098E-03
      0.420000          0.123625E-03
      0.425000          0.122039E-03
      0.430000          0.120327E-03
      0.435000          0.118485E-03
      0.440000          0.116511E-03
      0.445000          0.114413E-03
      0.450000          0.112200E-03
      0.455000          0.109888E-03
      0.460000          0.107496E-03
      0.465000          0.105047E-03
      0.470000          0.102564E-03
      0.475000          0.100070E-03
      0.480000          0.975882E-04
      0.485000          0.951393E-04
      0.490000          0.927421E-04
      0.495000          0.904126E-04
      0.500000          0.881639E-04
