 I_abs(s)[cm^-1]/c[mg/ml]
       0.00000          0.140366E-01
      0.500000E-02      0.139701E-01
      0.100000E-01      0.137728E-01
      0.150000E-01      0.134510E-01
      0.200000E-01      0.130148E-01
      0.250000E-01      0.124776E-01
      0.300000E-01      0.118553E-01
      0.350000E-01      0.111658E-01
      0.400000E-01      0.104279E-01
      0.450000E-01      0.966043E-02
      0.500000E-01      0.888153E-02
      0.550000E-01      0.810802E-02
      0.600000E-01      0.735471E-02
      0.650000E-01      0.663404E-02
      0.700000E-01      0.595585E-02
      0.750000E-01      0.532725E-02
      0.800000E-01      0.475275E-02
      0.850000E-01      0.423440E-02
      0.900000E-01      0.377214E-02
      0.950000E-01      0.336411E-02
      0.100000          0.300707E-02
      0.105000          0.269680E-02
      0.110000          0.242846E-02
      0.115000          0.219692E-02
      0.120000          0.199706E-02
      0.125000          0.182398E-02
      0.130000          0.167315E-02
      0.135000          0.154054E-02
      0.140000          0.142266E-02
      0.145000          0.131659E-02
      0.150000          0.121996E-02
      0.155000          0.113090E-02
      0.160000          0.104803E-02
      0.165000          0.970348E-03
      0.170000          0.897218E-03
      0.175000          0.828269E-03
      0.180000          0.763346E-03
      0.185000          0.702443E-03
      0.190000          0.645649E-03
      0.195000          0.593092E-03
      0.200000          0.544894E-03
      0.205000          0.501133E-03
      0.210000          0.461817E-03
      0.215000          0.426864E-03
      0.220000          0.396092E-03
      0.225000          0.369229E-03
      0.230000          0.345920E-03
      0.235000          0.325751E-03
      0.240000          0.308270E-03
      0.245000          0.293015E-03
      0.250000          0.279542E-03
      0.255000          0.267447E-03
      0.260000          0.256381E-03
      0.265000          0.246062E-03
      0.270000          0.236277E-03
      0.275000          0.226883E-03
      0.280000          0.217792E-03
      0.285000          0.208965E-03
      0.290000          0.200393E-03
      0.295000          0.192084E-03
      0.300000          0.184054E-03
      0.305000          0.176317E-03
      0.310000          0.168878E-03
      0.315000          0.161733E-03
      0.320000          0.154873E-03
      0.325000          0.148286E-03
      0.330000          0.141962E-03
      0.335000          0.135901E-03
      0.340000          0.130113E-03
      0.345000          0.124619E-03
      0.350000          0.119455E-03
      0.355000          0.114664E-03
      0.360000          0.110292E-03
      0.365000          0.106382E-03
      0.370000          0.102967E-03
      0.375000          0.100065E-03
      0.380000          0.976735E-04
      0.385000          0.957687E-04
      0.390000          0.943062E-04
      0.395000          0.932238E-04
      0.400000          0.924467E-04
      0.405000          0.918937E-04
      0.410000          0.914841E-04
      0.415000          0.911447E-04
      0.420000          0.908149E-04
      0.425000          0.904505E-04
      0.430000          0.900257E-04
      0.435000          0.895330E-04
      0.440000          0.889805E-04
      0.445000          0.883888E-04
      0.450000          0.877863E-04
      0.455000          0.872047E-04
      0.460000          0.866740E-04
      0.465000          0.862195E-04
      0.470000          0.858588E-04
      0.475000          0.856009E-04
      0.480000          0.854459E-04
      0.485000          0.853861E-04
      0.490000          0.854080E-04
      0.495000          0.854942E-04
      0.500000          0.856252E-04
