 I_abs(s)[cm^-1]/c[mg/ml]
       0.00000          0.140990E-01
      0.500000E-02      0.140124E-01
      0.100000E-01      0.137566E-01
      0.150000E-01      0.133429E-01
      0.200000E-01      0.127891E-01
      0.250000E-01      0.121185E-01
      0.300000E-01      0.113581E-01
      0.350000E-01      0.105371E-01
      0.400000E-01      0.968456E-02
      0.450000E-01      0.882815E-02
      0.500000E-01      0.799237E-02
      0.550000E-01      0.719752E-02
      0.600000E-01      0.645892E-02
      0.650000E-01      0.578662E-02
      0.700000E-01      0.518555E-02
      0.750000E-01      0.465600E-02
      0.800000E-01      0.419442E-02
      0.850000E-01      0.379440E-02
      0.900000E-01      0.344771E-02
      0.950000E-01      0.314533E-02
      0.100000          0.287839E-02
      0.105000          0.263883E-02
      0.110000          0.241998E-02
      0.115000          0.221676E-02
      0.120000          0.202579E-02
      0.125000          0.184519E-02
      0.130000          0.167435E-02
      0.135000          0.151358E-02
      0.140000          0.136368E-02
      0.145000          0.122562E-02
      0.150000          0.110026E-02
      0.155000          0.988089E-03
      0.160000          0.889154E-03
      0.165000          0.803010E-03
      0.170000          0.728777E-03
      0.175000          0.665241E-03
      0.180000          0.610985E-03
      0.185000          0.564528E-03
      0.190000          0.524451E-03
      0.195000          0.489490E-03
      0.200000          0.458600E-03
      0.205000          0.430975E-03
      0.210000          0.406039E-03
      0.215000          0.383414E-03
      0.220000          0.362866E-03
      0.225000          0.344259E-03
      0.230000          0.327497E-03
      0.235000          0.312492E-03
      0.240000          0.299136E-03
      0.245000          0.287291E-03
      0.250000          0.276792E-03
      0.255000          0.267456E-03
      0.260000          0.259101E-03
      0.265000          0.251559E-03
      0.270000          0.244691E-03
      0.275000          0.238393E-03
      0.280000          0.232599E-03
      0.285000          0.227271E-03
      0.290000          0.222396E-03
      0.295000          0.217971E-03
      0.300000          0.213991E-03
      0.305000          0.210439E-03
      0.310000          0.207280E-03
      0.315000          0.204462E-03
      0.320000          0.201910E-03
      0.325000          0.199537E-03
      0.330000          0.197250E-03
      0.335000          0.194956E-03
      0.340000          0.192570E-03
      0.345000          0.190022E-03
      0.350000          0.187259E-03
      0.355000          0.184246E-03
      0.360000          0.180968E-03
      0.365000          0.177423E-03
      0.370000          0.173624E-03
      0.375000          0.169590E-03
      0.380000          0.165344E-03
      0.385000          0.160914E-03
      0.390000          0.156328E-03
      0.395000          0.151615E-03
      0.400000          0.146805E-03
      0.405000          0.141930E-03
      0.410000          0.137027E-03
      0.415000          0.132135E-03
      0.420000          0.127296E-03
      0.425000          0.122555E-03
      0.430000          0.117957E-03
      0.435000          0.113544E-03
      0.440000          0.109354E-03
      0.445000          0.105417E-03
      0.450000          0.101754E-03
      0.455000          0.983763E-04
      0.460000          0.952854E-04
      0.465000          0.924741E-04
      0.470000          0.899290E-04
      0.475000          0.876333E-04
      0.480000          0.855696E-04
      0.485000          0.837231E-04
      0.490000          0.820836E-04
      0.495000          0.806468E-04
      0.500000          0.794140E-04
