 I_abs(s)[cm^-1]/c[mg/ml]
       0.00000          0.134583E-01
      0.500000E-02      0.133564E-01
      0.100000E-01      0.130559E-01
      0.150000E-01      0.125719E-01
      0.200000E-01      0.119284E-01
      0.250000E-01      0.111564E-01
      0.300000E-01      0.102914E-01
      0.350000E-01      0.937141E-02
      0.400000E-01      0.843370E-02
      0.450000E-01      0.751280E-02
      0.500000E-01      0.663836E-02
      0.550000E-01      0.583363E-02
      0.600000E-01      0.511461E-02
      0.650000E-01      0.448986E-02
      0.700000E-01      0.396090E-02
      0.750000E-01      0.352315E-02
      0.800000E-01      0.316727E-02
      0.850000E-01      0.288068E-02
      0.900000E-01      0.264920E-02
      0.950000E-01      0.245855E-02
      0.100000          0.229559E-02
      0.105000          0.214932E-02
      0.110000          0.201138E-02
      0.115000          0.187631E-02
      0.120000          0.174136E-02
      0.125000          0.160612E-02
      0.130000          0.147189E-02
      0.135000          0.134105E-02
      0.140000          0.121638E-02
      0.145000          0.110048E-02
      0.150000          0.995366E-03
      0.155000          0.902200E-03
      0.160000          0.821196E-03
      0.165000          0.751699E-03
      0.170000          0.692368E-03
      0.175000          0.641433E-03
      0.180000          0.596978E-03
      0.185000          0.557199E-03
      0.190000          0.520613E-03
      0.195000          0.486183E-03
      0.200000          0.453362E-03
      0.205000          0.422066E-03
      0.210000          0.392569E-03
      0.215000          0.365371E-03
      0.220000          0.341048E-03
      0.225000          0.320108E-03
      0.230000          0.302880E-03
      0.235000          0.289442E-03
      0.240000          0.279598E-03
      0.245000          0.272900E-03
      0.250000          0.268701E-03
      0.255000          0.266239E-03
      0.260000          0.264727E-03
      0.265000          0.263440E-03
      0.270000          0.261786E-03
      0.275000          0.259351E-03
      0.280000          0.255924E-03
      0.285000          0.251485E-03
      0.290000          0.246179E-03
      0.295000          0.240268E-03
      0.300000          0.234080E-03
      0.305000          0.227952E-03
      0.310000          0.222181E-03
      0.315000          0.216993E-03
      0.320000          0.212515E-03
      0.325000          0.208773E-03
      0.330000          0.205698E-03
      0.335000          0.203142E-03
      0.340000          0.200906E-03
      0.345000          0.198769E-03
      0.350000          0.196514E-03
      0.355000          0.193951E-03
      0.360000          0.190940E-03
      0.365000          0.187397E-03
      0.370000          0.183300E-03
      0.375000          0.178687E-03
      0.380000          0.173645E-03
      0.385000          0.168298E-03
      0.390000          0.162793E-03
      0.395000          0.157283E-03
      0.400000          0.151917E-03
      0.405000          0.146818E-03
      0.410000          0.142082E-03
      0.415000          0.137767E-03
      0.420000          0.133893E-03
      0.425000          0.130441E-03
      0.430000          0.127360E-03
      0.435000          0.124575E-03
      0.440000          0.121996E-03
      0.445000          0.119531E-03
      0.450000          0.117096E-03
      0.455000          0.114627E-03
      0.460000          0.112087E-03
      0.465000          0.109468E-03
      0.470000          0.106796E-03
      0.475000          0.104124E-03
      0.480000          0.101528E-03
      0.485000          0.990942E-04
      0.490000          0.969063E-04
      0.495000          0.950359E-04
      0.500000          0.935293E-04
