 I_abs(s)[cm^-1]/c[mg/ml]
       0.00000          0.145634E-01
      0.500000E-02      0.145069E-01
      0.100000E-01      0.143386E-01
      0.150000E-01      0.140626E-01
      0.200000E-01      0.136857E-01
      0.250000E-01      0.132168E-01
      0.300000E-01      0.126668E-01
      0.350000E-01      0.120482E-01
      0.400000E-01      0.113745E-01
      0.450000E-01      0.106598E-01
      0.500000E-01      0.991822E-02
      0.550000E-01      0.916373E-02
      0.600000E-01      0.840934E-02
      0.650000E-01      0.766696E-02
      0.700000E-01      0.694706E-02
      0.750000E-01      0.625848E-02
      0.800000E-01      0.560827E-02
      0.850000E-01      0.500169E-02
      0.900000E-01      0.444222E-02
      0.950000E-01      0.393167E-02
      0.100000          0.347036E-02
      0.105000          0.305733E-02
      0.110000          0.269055E-02
      0.115000          0.236717E-02
      0.120000          0.208377E-02
      0.125000          0.183663E-02
      0.130000          0.162185E-02
      0.135000          0.143561E-02
      0.140000          0.127426E-02
      0.145000          0.113446E-02
      0.150000          0.101319E-02
      0.155000          0.907841E-03
      0.160000          0.816187E-03
      0.165000          0.736367E-03
      0.170000          0.666847E-03
      0.175000          0.606378E-03
      0.180000          0.553933E-03
      0.185000          0.508659E-03
      0.190000          0.469828E-03
      0.195000          0.436792E-03
      0.200000          0.408952E-03
      0.205000          0.385735E-03
      0.210000          0.366581E-03
      0.215000          0.350937E-03
      0.220000          0.338258E-03
      0.225000          0.328016E-03
      0.230000          0.319706E-03
      0.235000          0.312859E-03
      0.240000          0.307051E-03
      0.245000          0.301909E-03
      0.250000          0.297117E-03
      0.255000          0.292422E-03
      0.260000          0.287626E-03
      0.265000          0.282589E-03
      0.270000          0.277219E-03
      0.275000          0.271468E-03
      0.280000          0.265321E-03
      0.285000          0.258791E-03
      0.290000          0.251907E-03
      0.295000          0.244712E-03
      0.300000          0.237257E-03
      0.305000          0.229590E-03
      0.310000          0.221765E-03
      0.315000          0.213828E-03
      0.320000          0.205827E-03
      0.325000          0.197803E-03
      0.330000          0.189797E-03
      0.335000          0.181850E-03
      0.340000          0.174000E-03
      0.345000          0.166287E-03
      0.350000          0.158750E-03
      0.355000          0.151429E-03
      0.360000          0.144367E-03
      0.365000          0.137604E-03
      0.370000          0.131178E-03
      0.375000          0.125128E-03
      0.380000          0.119488E-03
      0.385000          0.114286E-03
      0.390000          0.109547E-03
      0.395000          0.105288E-03
      0.400000          0.101518E-03
      0.405000          0.982375E-04
      0.410000          0.954402E-04
      0.415000          0.931102E-04
      0.420000          0.912236E-04
      0.425000          0.897491E-04
      0.430000          0.886491E-04
      0.435000          0.878804E-04
      0.440000          0.873960E-04
      0.445000          0.871466E-04
      0.450000          0.870824E-04
      0.455000          0.871548E-04
      0.460000          0.873177E-04
      0.465000          0.875294E-04
      0.470000          0.877535E-04
      0.475000          0.879597E-04
      0.480000          0.881246E-04
      0.485000          0.882314E-04
      0.490000          0.882699E-04
      0.495000          0.882355E-04
      0.500000          0.881284E-04
