 I_abs(s)[cm^-1]/c[mg/ml]
       0.00000          0.142949E-01
      0.500000E-02      0.142228E-01
      0.100000E-01      0.140088E-01
      0.150000E-01      0.136595E-01
      0.200000E-01      0.131855E-01
      0.250000E-01      0.126009E-01
      0.300000E-01      0.119228E-01
      0.350000E-01      0.111703E-01
      0.400000E-01      0.103638E-01
      0.450000E-01      0.952427E-02
      0.500000E-01      0.867198E-02
      0.550000E-01      0.782610E-02
      0.600000E-01      0.700390E-02
      0.650000E-01      0.622018E-02
      0.700000E-01      0.548692E-02
      0.750000E-01      0.481308E-02
      0.800000E-01      0.420450E-02
      0.850000E-01      0.366405E-02
      0.900000E-01      0.319187E-02
      0.950000E-01      0.278569E-02
      0.100000          0.244131E-02
      0.105000          0.215304E-02
      0.110000          0.191421E-02
      0.115000          0.171766E-02
      0.120000          0.155614E-02
      0.125000          0.142273E-02
      0.130000          0.131112E-02
      0.135000          0.121579E-02
      0.140000          0.113220E-02
      0.145000          0.105678E-02
      0.150000          0.986957E-03
      0.155000          0.921030E-03
      0.160000          0.858073E-03
      0.165000          0.797770E-03
      0.170000          0.740255E-03
      0.175000          0.685947E-03
      0.180000          0.635396E-03
      0.185000          0.589160E-03
      0.190000          0.547699E-03
      0.195000          0.511307E-03
      0.200000          0.480066E-03
      0.205000          0.453841E-03
      0.210000          0.432283E-03
      0.215000          0.414866E-03
      0.220000          0.400929E-03
      0.225000          0.389722E-03
      0.230000          0.380469E-03
      0.235000          0.372410E-03
      0.240000          0.364850E-03
      0.245000          0.357193E-03
      0.250000          0.348968E-03
      0.255000          0.339841E-03
      0.260000          0.329623E-03
      0.265000          0.318260E-03
      0.270000          0.305819E-03
      0.275000          0.292470E-03
      0.280000          0.278461E-03
      0.285000          0.264090E-03
      0.290000          0.249684E-03
      0.295000          0.235567E-03
      0.300000          0.222041E-03
      0.305000          0.209372E-03
      0.310000          0.197769E-03
      0.315000          0.187383E-03
      0.320000          0.178295E-03
      0.325000          0.170524E-03
      0.330000          0.164027E-03
      0.335000          0.158710E-03
      0.340000          0.154435E-03
      0.345000          0.151035E-03
      0.350000          0.148325E-03
      0.355000          0.146114E-03
      0.360000          0.144218E-03
      0.365000          0.142470E-03
      0.370000          0.140723E-03
      0.375000          0.138864E-03
      0.380000          0.136807E-03
      0.385000          0.134504E-03
      0.390000          0.131934E-03
      0.395000          0.129107E-03
      0.400000          0.126053E-03
      0.405000          0.122822E-03
      0.410000          0.119476E-03
      0.415000          0.116081E-03
      0.420000          0.112704E-03
      0.425000          0.109407E-03
      0.430000          0.106246E-03
      0.435000          0.103262E-03
      0.440000          0.100489E-03
      0.445000          0.979449E-04
      0.450000          0.956368E-04
      0.455000          0.935614E-04
      0.460000          0.917067E-04
      0.465000          0.900542E-04
      0.470000          0.885812E-04
      0.475000          0.872630E-04
      0.480000          0.860752E-04
      0.485000          0.849946E-04
      0.490000          0.840011E-04
      0.495000          0.830781E-04
      0.500000          0.822131E-04
