 I_abs(s)[cm^-1]/c[mg/ml]
       0.00000          0.146907E-01
      0.500000E-02      0.146354E-01
      0.100000E-01      0.144707E-01
      0.150000E-01      0.142003E-01
      0.200000E-01      0.138301E-01
      0.250000E-01      0.133684E-01
      0.300000E-01      0.128251E-01
      0.350000E-01      0.122116E-01
      0.400000E-01      0.115406E-01
      0.450000E-01      0.108253E-01
      0.500000E-01      0.100794E-01
      0.550000E-01      0.931646E-02
      0.600000E-01      0.854956E-02
      0.650000E-01      0.779093E-02
      0.700000E-01      0.705169E-02
      0.750000E-01      0.634156E-02
      0.800000E-01      0.566871E-02
      0.850000E-01      0.503962E-02
      0.900000E-01      0.445907E-02
      0.950000E-01      0.393010E-02
      0.100000          0.345415E-02
      0.105000          0.303114E-02
      0.110000          0.265966E-02
      0.115000          0.233720E-02
      0.120000          0.206031E-02
      0.125000          0.182491E-02
      0.130000          0.162646E-02
      0.135000          0.146021E-02
      0.140000          0.132139E-02
      0.145000          0.120540E-02
      0.150000          0.110794E-02
      0.155000          0.102511E-02
      0.160000          0.953513E-03
      0.165000          0.890284E-03
      0.170000          0.833099E-03
      0.175000          0.780165E-03
      0.180000          0.730182E-03
      0.185000          0.682290E-03
      0.190000          0.636000E-03
      0.195000          0.591124E-03
      0.200000          0.547699E-03
      0.205000          0.505916E-03
      0.210000          0.466055E-03
      0.215000          0.428427E-03
      0.220000          0.393325E-03
      0.225000          0.360995E-03
      0.230000          0.331607E-03
      0.235000          0.305246E-03
      0.240000          0.281905E-03
      0.245000          0.261491E-03
      0.250000          0.243838E-03
      0.255000          0.228719E-03
      0.260000          0.215865E-03
      0.265000          0.204985E-03
      0.270000          0.195778E-03
      0.275000          0.187956E-03
      0.280000          0.181250E-03
      0.285000          0.175424E-03
      0.290000          0.170277E-03
      0.295000          0.165651E-03
      0.300000          0.161423E-03
      0.305000          0.157511E-03
      0.310000          0.153861E-03
      0.315000          0.150447E-03
      0.320000          0.147259E-03
      0.325000          0.144300E-03
      0.330000          0.141579E-03
      0.335000          0.139105E-03
      0.340000          0.136881E-03
      0.345000          0.134904E-03
      0.350000          0.133161E-03
      0.355000          0.131629E-03
      0.360000          0.130277E-03
      0.365000          0.129067E-03
      0.370000          0.127952E-03
      0.375000          0.126888E-03
      0.380000          0.125825E-03
      0.385000          0.124721E-03
      0.390000          0.123537E-03
      0.395000          0.122240E-03
      0.400000          0.120807E-03
      0.405000          0.119225E-03
      0.410000          0.117489E-03
      0.415000          0.115605E-03
      0.420000          0.113586E-03
      0.425000          0.111452E-03
      0.430000          0.109231E-03
      0.435000          0.106952E-03
      0.440000          0.104647E-03
      0.445000          0.102348E-03
      0.450000          0.100084E-03
      0.455000          0.978836E-04
      0.460000          0.957687E-04
      0.465000          0.937573E-04
      0.470000          0.918617E-04
      0.475000          0.900886E-04
      0.480000          0.884396E-04
      0.485000          0.869114E-04
      0.490000          0.854967E-04
      0.495000          0.841855E-04
      0.500000          0.829659E-04
