 I_abs(s)[cm^-1]/c[mg/ml]
       0.00000          0.137497E-01
      0.500000E-02      0.136724E-01
      0.100000E-01      0.134433E-01
      0.150000E-01      0.130709E-01
      0.200000E-01      0.125687E-01
      0.250000E-01      0.119544E-01
      0.300000E-01      0.112491E-01
      0.350000E-01      0.104759E-01
      0.400000E-01      0.965873E-02
      0.450000E-01      0.882106E-02
      0.500000E-01      0.798496E-02
      0.550000E-01      0.717008E-02
      0.600000E-01      0.639299E-02
      0.650000E-01      0.566671E-02
      0.700000E-01      0.500059E-02
      0.750000E-01      0.440031E-02
      0.800000E-01      0.386822E-02
      0.850000E-01      0.340370E-02
      0.900000E-01      0.300376E-02
      0.950000E-01      0.266358E-02
      0.100000          0.237715E-02
      0.105000          0.213776E-02
      0.110000          0.193850E-02
      0.115000          0.177267E-02
      0.120000          0.163400E-02
      0.125000          0.151690E-02
      0.130000          0.141653E-02
      0.135000          0.132881E-02
      0.140000          0.125046E-02
      0.145000          0.117889E-02
      0.150000          0.111214E-02
      0.155000          0.104881E-02
      0.160000          0.987958E-03
      0.165000          0.929040E-03
      0.170000          0.871818E-03
      0.175000          0.816299E-03
      0.180000          0.762670E-03
      0.185000          0.711235E-03
      0.190000          0.662356E-03
      0.195000          0.616402E-03
      0.200000          0.573696E-03
      0.205000          0.534483E-03
      0.210000          0.498894E-03
      0.215000          0.466937E-03
      0.220000          0.438493E-03
      0.225000          0.413327E-03
      0.230000          0.391114E-03
      0.235000          0.371466E-03
      0.240000          0.353972E-03
      0.245000          0.338226E-03
      0.250000          0.323862E-03
      0.255000          0.310575E-03
      0.260000          0.298135E-03
      0.265000          0.286390E-03
      0.270000          0.275258E-03
      0.275000          0.264718E-03
      0.280000          0.254788E-03
      0.285000          0.245506E-03
      0.290000          0.236912E-03
      0.295000          0.229034E-03
      0.300000          0.221873E-03
      0.305000          0.215401E-03
      0.310000          0.209563E-03
      0.315000          0.204275E-03
      0.320000          0.199440E-03
      0.325000          0.194950E-03
      0.330000          0.190698E-03
      0.335000          0.186584E-03
      0.340000          0.182523E-03
      0.345000          0.178444E-03
      0.350000          0.174292E-03
      0.355000          0.170030E-03
      0.360000          0.165634E-03
      0.365000          0.161093E-03
      0.370000          0.156408E-03
      0.375000          0.151588E-03
      0.380000          0.146655E-03
      0.385000          0.141640E-03
      0.390000          0.136585E-03
      0.395000          0.131541E-03
      0.400000          0.126568E-03
      0.405000          0.121733E-03
      0.410000          0.117104E-03
      0.415000          0.112747E-03
      0.420000          0.108720E-03
      0.425000          0.105069E-03
      0.430000          0.101821E-03
      0.435000          0.989853E-04
      0.440000          0.965480E-04
      0.445000          0.944760E-04
      0.450000          0.927184E-04
      0.455000          0.912116E-04
      0.460000          0.898846E-04
      0.465000          0.886656E-04
      0.470000          0.874870E-04
      0.475000          0.862915E-04
      0.480000          0.850347E-04
      0.485000          0.836882E-04
      0.490000          0.822392E-04
      0.495000          0.806900E-04
      0.500000          0.790558E-04
