 I_abs(s)[cm^-1]/c[mg/ml]
       0.00000          0.141302E-01
      0.500000E-02      0.140626E-01
      0.100000E-01      0.138615E-01
      0.150000E-01      0.135327E-01
      0.200000E-01      0.130851E-01
      0.250000E-01      0.125310E-01
      0.300000E-01      0.118852E-01
      0.350000E-01      0.111645E-01
      0.400000E-01      0.103872E-01
      0.450000E-01      0.957203E-02
      0.500000E-01      0.873792E-02
      0.550000E-01      0.790304E-02
      0.600000E-01      0.708425E-02
      0.650000E-01      0.629661E-02
      0.700000E-01      0.555296E-02
      0.750000E-01      0.486359E-02
      0.800000E-01      0.423609E-02
      0.850000E-01      0.367532E-02
      0.900000E-01      0.318348E-02
      0.950000E-01      0.276028E-02
      0.100000          0.240323E-02
      0.105000          0.210799E-02
      0.110000          0.186877E-02
      0.115000          0.167876E-02
      0.120000          0.153051E-02
      0.125000          0.141639E-02
      0.130000          0.132894E-02
      0.135000          0.126114E-02
      0.140000          0.120672E-02
      0.145000          0.116029E-02
      0.150000          0.111751E-02
      0.155000          0.107503E-02
      0.160000          0.103060E-02
      0.165000          0.982861E-03
      0.170000          0.931343E-03
      0.175000          0.876253E-03
      0.180000          0.818335E-03
      0.185000          0.758702E-03
      0.190000          0.698672E-03
      0.195000          0.639624E-03
      0.200000          0.582874E-03
      0.205000          0.529571E-03
      0.210000          0.480631E-03
      0.215000          0.436697E-03
      0.220000          0.398118E-03
      0.225000          0.364965E-03
      0.230000          0.337056E-03
      0.235000          0.314000E-03
      0.240000          0.295247E-03
      0.245000          0.280146E-03
      0.250000          0.267998E-03
      0.255000          0.258109E-03
      0.260000          0.249829E-03
      0.265000          0.242587E-03
      0.270000          0.235915E-03
      0.275000          0.229457E-03
      0.280000          0.222972E-03
      0.285000          0.216328E-03
      0.290000          0.209489E-03
      0.295000          0.202495E-03
      0.300000          0.195441E-03
      0.305000          0.188458E-03
      0.310000          0.181689E-03
      0.315000          0.175274E-03
      0.320000          0.169333E-03
      0.325000          0.163957E-03
      0.330000          0.159199E-03
      0.335000          0.155073E-03
      0.340000          0.151556E-03
      0.345000          0.148592E-03
      0.350000          0.146098E-03
      0.355000          0.143972E-03
      0.360000          0.142101E-03
      0.365000          0.140372E-03
      0.370000          0.138678E-03
      0.375000          0.136922E-03
      0.380000          0.135027E-03
      0.385000          0.132939E-03
      0.390000          0.130622E-03
      0.395000          0.128065E-03
      0.400000          0.125279E-03
      0.405000          0.122292E-03
      0.410000          0.119146E-03
      0.415000          0.115897E-03
      0.420000          0.112606E-03
      0.425000          0.109336E-03
      0.430000          0.106151E-03
      0.435000          0.103109E-03
      0.440000          0.100263E-03
      0.445000          0.976555E-04
      0.450000          0.953186E-04
      0.455000          0.932738E-04
      0.460000          0.915313E-04
      0.465000          0.900906E-04
      0.470000          0.889410E-04
      0.475000          0.880634E-04
      0.480000          0.874311E-04
      0.485000          0.870117E-04
      0.490000          0.867687E-04
      0.495000          0.866628E-04
      0.500000          0.866538E-04
