 I_abs(s)[cm^-1]/c[mg/ml]
       0.00000          0.136574E-01
      0.500000E-02      0.135731E-01
      0.100000E-01      0.133235E-01
      0.150000E-01      0.129182E-01
      0.200000E-01      0.123730E-01
      0.250000E-01      0.117081E-01
      0.300000E-01      0.109478E-01
      0.350000E-01      0.101187E-01
      0.400000E-01      0.924837E-02
      0.450000E-01      0.836379E-02
      0.500000E-01      0.749021E-02
      0.550000E-01      0.664989E-02
      0.600000E-01      0.586129E-02
      0.650000E-01      0.513844E-02
      0.700000E-01      0.449073E-02
      0.750000E-01      0.392292E-02
      0.800000E-01      0.343552E-02
      0.850000E-01      0.302529E-02
      0.900000E-01      0.268605E-02
      0.950000E-01      0.240945E-02
      0.100000          0.218586E-02
      0.105000          0.200518E-02
      0.110000          0.185760E-02
      0.115000          0.173414E-02
      0.120000          0.162714E-02
      0.125000          0.153046E-02
      0.130000          0.143962E-02
      0.135000          0.135170E-02
      0.140000          0.126519E-02
      0.145000          0.117971E-02
      0.150000          0.109573E-02
      0.155000          0.101422E-02
      0.160000          0.936373E-03
      0.165000          0.863360E-03
      0.170000          0.796124E-03
      0.175000          0.735271E-03
      0.180000          0.681018E-03
      0.185000          0.633203E-03
      0.190000          0.591335E-03
      0.195000          0.554688E-03
      0.200000          0.522404E-03
      0.205000          0.493593E-03
      0.210000          0.467429E-03
      0.215000          0.443216E-03
      0.220000          0.420430E-03
      0.225000          0.398737E-03
      0.230000          0.377979E-03
      0.235000          0.358148E-03
      0.240000          0.339336E-03
      0.245000          0.321692E-03
      0.250000          0.305372E-03
      0.255000          0.290498E-03
      0.260000          0.277129E-03
      0.265000          0.265245E-03
      0.270000          0.254747E-03
      0.275000          0.245465E-03
      0.280000          0.237179E-03
      0.285000          0.229644E-03
      0.290000          0.222612E-03
      0.295000          0.215865E-03
      0.300000          0.209228E-03
      0.305000          0.202584E-03
      0.310000          0.195883E-03
      0.315000          0.189134E-03
      0.320000          0.182402E-03
      0.325000          0.175788E-03
      0.330000          0.169422E-03
      0.335000          0.163436E-03
      0.340000          0.157955E-03
      0.345000          0.153080E-03
      0.350000          0.148878E-03
      0.355000          0.145380E-03
      0.360000          0.142576E-03
      0.365000          0.140418E-03
      0.370000          0.138828E-03
      0.375000          0.137701E-03
      0.380000          0.136916E-03
      0.385000          0.136343E-03
      0.390000          0.135853E-03
      0.395000          0.135322E-03
      0.400000          0.134637E-03
      0.405000          0.133704E-03
      0.410000          0.132445E-03
      0.415000          0.130802E-03
      0.420000          0.128739E-03
      0.425000          0.126243E-03
      0.430000          0.123318E-03
      0.435000          0.119993E-03
      0.440000          0.116313E-03
      0.445000          0.112341E-03
      0.450000          0.108158E-03
      0.455000          0.103857E-03
      0.460000          0.995390E-04
      0.465000          0.953124E-04
      0.470000          0.912852E-04
      0.475000          0.875613E-04
      0.480000          0.842345E-04
      0.485000          0.813838E-04
      0.490000          0.790689E-04
      0.495000          0.773264E-04
      0.500000          0.761678E-04
