 I_abs(s)[cm^-1]/c[mg/ml]
       0.00000          0.139122E-01
      0.500000E-02      0.138261E-01
      0.100000E-01      0.135714E-01
      0.150000E-01      0.131588E-01
      0.200000E-01      0.126054E-01
      0.250000E-01      0.119333E-01
      0.300000E-01      0.111684E-01
      0.350000E-01      0.103386E-01
      0.400000E-01      0.947242E-02
      0.450000E-01      0.859685E-02
      0.500000E-01      0.773644E-02
      0.550000E-01      0.691193E-02
      0.600000E-01      0.613964E-02
      0.650000E-01      0.543103E-02
      0.700000E-01      0.479285E-02
      0.750000E-01      0.422742E-02
      0.800000E-01      0.373335E-02
      0.850000E-01      0.330631E-02
      0.900000E-01      0.293996E-02
      0.950000E-01      0.262685E-02
      0.100000          0.235920E-02
      0.105000          0.212954E-02
      0.110000          0.193124E-02
      0.115000          0.175873E-02
      0.120000          0.160758E-02
      0.125000          0.147449E-02
      0.130000          0.135707E-02
      0.135000          0.125359E-02
      0.140000          0.116277E-02
      0.145000          0.108347E-02
      0.150000          0.101457E-02
      0.155000          0.954811E-03
      0.160000          0.902800E-03
      0.165000          0.856994E-03
      0.170000          0.815803E-03
      0.175000          0.777693E-03
      0.180000          0.741300E-03
      0.185000          0.705529E-03
      0.190000          0.669624E-03
      0.195000          0.633197E-03
      0.200000          0.596211E-03
      0.205000          0.558934E-03
      0.210000          0.521853E-03
      0.215000          0.485582E-03
      0.220000          0.450763E-03
      0.225000          0.417978E-03
      0.230000          0.387683E-03
      0.235000          0.360169E-03
      0.240000          0.335548E-03
      0.245000          0.313765E-03
      0.250000          0.294632E-03
      0.255000          0.277874E-03
      0.260000          0.263176E-03
      0.265000          0.250225E-03
      0.270000          0.238751E-03
      0.275000          0.228539E-03
      0.280000          0.219445E-03
      0.285000          0.211382E-03
      0.290000          0.204308E-03
      0.295000          0.198201E-03
      0.300000          0.193036E-03
      0.305000          0.188770E-03
      0.310000          0.185322E-03
      0.315000          0.182573E-03
      0.320000          0.180371E-03
      0.325000          0.178536E-03
      0.330000          0.176883E-03
      0.335000          0.175233E-03
      0.340000          0.173437E-03
      0.345000          0.171384E-03
      0.350000          0.169010E-03
      0.355000          0.166301E-03
      0.360000          0.163289E-03
      0.365000          0.160039E-03
      0.370000          0.156639E-03
      0.375000          0.153183E-03
      0.380000          0.149760E-03
      0.385000          0.146441E-03
      0.390000          0.143271E-03
      0.395000          0.140268E-03
      0.400000          0.137421E-03
      0.405000          0.134697E-03
      0.410000          0.132048E-03
      0.415000          0.129420E-03
      0.420000          0.126761E-03
      0.425000          0.124030E-03
      0.430000          0.121203E-03
      0.435000          0.118274E-03
      0.440000          0.115255E-03
      0.445000          0.112179E-03
      0.450000          0.109088E-03
      0.455000          0.106034E-03
      0.460000          0.103069E-03
      0.465000          0.100243E-03
      0.470000          0.975939E-04
      0.475000          0.951518E-04
      0.480000          0.929310E-04
      0.485000          0.909323E-04
      0.490000          0.891440E-04
      0.495000          0.875436E-04
      0.500000          0.861010E-04
