 I_abs(s)[cm^-1]/c[mg/ml]
       0.00000          0.123575E-01
      0.500000E-02      0.121046E-01
      0.100000E-01      0.113878E-01
      0.150000E-01      0.103213E-01
      0.200000E-01      0.906298E-02
      0.250000E-01      0.777540E-02
      0.300000E-01      0.659143E-02
      0.350000E-01      0.559191E-02
      0.400000E-01      0.480117E-02
      0.450000E-01      0.419811E-02
      0.500000E-01      0.373646E-02
      0.550000E-01      0.336581E-02
      0.600000E-01      0.304670E-02
      0.650000E-01      0.275678E-02
      0.700000E-01      0.248885E-02
      0.750000E-01      0.224454E-02
      0.800000E-01      0.202754E-02
      0.850000E-01      0.183933E-02
      0.900000E-01      0.167808E-02
      0.950000E-01      0.153983E-02
      0.100000          0.142025E-02
      0.105000          0.131580E-02
      0.110000          0.122380E-02
      0.115000          0.114208E-02
      0.120000          0.106865E-02
      0.125000          0.100189E-02
      0.130000          0.941102E-03
      0.135000          0.886797E-03
      0.140000          0.840351E-03
      0.145000          0.803015E-03
      0.150000          0.774725E-03
      0.155000          0.753402E-03
      0.160000          0.735199E-03
      0.165000          0.715680E-03
      0.170000          0.691372E-03
      0.175000          0.660977E-03
      0.180000          0.625677E-03
      0.185000          0.588430E-03
      0.190000          0.552669E-03
      0.195000          0.521025E-03
      0.200000          0.494619E-03
      0.205000          0.473104E-03
      0.210000          0.455262E-03
      0.215000          0.439718E-03
      0.220000          0.425413E-03
      0.225000          0.411692E-03
      0.230000          0.398139E-03
      0.235000          0.384402E-03
      0.240000          0.370216E-03
      0.245000          0.355607E-03
      0.250000          0.341085E-03
      0.255000          0.327636E-03
      0.260000          0.316377E-03
      0.265000          0.308018E-03
      0.270000          0.302381E-03
      0.275000          0.298278E-03
      0.280000          0.293859E-03
      0.285000          0.287321E-03
      0.290000          0.277652E-03
      0.295000          0.265069E-03
      0.300000          0.250937E-03
      0.305000          0.237207E-03
      0.310000          0.225628E-03
      0.315000          0.217092E-03
      0.320000          0.211383E-03
      0.325000          0.207389E-03
      0.330000          0.203654E-03
      0.335000          0.198983E-03
      0.340000          0.192838E-03
      0.345000          0.185404E-03
      0.350000          0.177342E-03
      0.355000          0.169405E-03
      0.360000          0.162102E-03
      0.365000          0.155546E-03
      0.370000          0.149506E-03
      0.375000          0.143590E-03
      0.380000          0.137459E-03
      0.385000          0.130955E-03
      0.390000          0.124136E-03
      0.395000          0.117222E-03
      0.400000          0.110521E-03
      0.405000          0.104355E-03
      0.410000          0.990205E-04
      0.415000          0.947652E-04
      0.420000          0.917499E-04
      0.425000          0.900070E-04
      0.430000          0.893996E-04
      0.435000          0.896138E-04
      0.440000          0.902074E-04
      0.445000          0.907089E-04
      0.450000          0.907412E-04
      0.455000          0.901192E-04
      0.460000          0.888841E-04
      0.465000          0.872583E-04
      0.470000          0.855406E-04
      0.475000          0.839865E-04
      0.480000          0.827204E-04
      0.485000          0.817118E-04
      0.490000          0.808145E-04
      0.495000          0.798433E-04
      0.500000          0.786477E-04
