 I_abs(s)[cm^-1]/c[mg/ml]
       0.00000          0.116727E-01
      0.500000E-02      0.113898E-01
      0.100000E-01      0.105897E-01
      0.150000E-01      0.940572E-02
      0.200000E-01      0.802207E-02
      0.250000E-01      0.662952E-02
      0.300000E-01      0.538376E-02
      0.350000E-01      0.437805E-02
      0.400000E-01      0.363621E-02
      0.450000E-01      0.312478E-02
      0.500000E-01      0.277759E-02
      0.550000E-01      0.252309E-02
      0.600000E-01      0.230564E-02
      0.650000E-01      0.209566E-02
      0.700000E-01      0.188843E-02
      0.750000E-01      0.169493E-02
      0.800000E-01      0.153019E-02
      0.850000E-01      0.140388E-02
      0.900000E-01      0.131603E-02
      0.950000E-01      0.125786E-02
      0.100000          0.121601E-02
      0.105000          0.117762E-02
      0.110000          0.113404E-02
      0.115000          0.108220E-02
      0.120000          0.102372E-02
      0.125000          0.962798E-03
      0.130000          0.903888E-03
      0.135000          0.850059E-03
      0.140000          0.802377E-03
      0.145000          0.760183E-03
      0.150000          0.721894E-03
      0.155000          0.685887E-03
      0.160000          0.651164E-03
      0.165000          0.617613E-03
      0.170000          0.585897E-03
      0.175000          0.557053E-03
      0.180000          0.531993E-03
      0.185000          0.511086E-03
      0.190000          0.493932E-03
      0.195000          0.479424E-03
      0.200000          0.466045E-03
      0.205000          0.452310E-03
      0.210000          0.437201E-03
      0.215000          0.420454E-03
      0.220000          0.402617E-03
      0.225000          0.384855E-03
      0.230000          0.368571E-03
      0.235000          0.354960E-03
      0.240000          0.344616E-03
      0.245000          0.337339E-03
      0.250000          0.332170E-03
      0.255000          0.327681E-03
      0.260000          0.322417E-03
      0.265000          0.315351E-03
      0.270000          0.306193E-03
      0.275000          0.295444E-03
      0.280000          0.284164E-03
      0.285000          0.273529E-03
      0.290000          0.264363E-03
      0.295000          0.256811E-03
      0.300000          0.250307E-03
      0.305000          0.243837E-03
      0.310000          0.236394E-03
      0.315000          0.227439E-03
      0.320000          0.217159E-03
      0.325000          0.206426E-03
      0.330000          0.196479E-03
      0.335000          0.188450E-03
      0.340000          0.182943E-03
      0.345000          0.179823E-03
      0.350000          0.178288E-03
      0.355000          0.177169E-03
      0.360000          0.175333E-03
      0.365000          0.172026E-03
      0.370000          0.167039E-03
      0.375000          0.160659E-03
      0.380000          0.153477E-03
      0.385000          0.146127E-03
      0.390000          0.139089E-03
      0.395000          0.132599E-03
      0.400000          0.126677E-03
      0.405000          0.121238E-03
      0.410000          0.116203E-03
      0.415000          0.111569E-03
      0.420000          0.107405E-03
      0.425000          0.103803E-03
      0.430000          0.100801E-03
      0.435000          0.983416E-04
      0.440000          0.962684E-04
      0.445000          0.943691E-04
      0.450000          0.924393E-04
      0.455000          0.903357E-04
      0.460000          0.879957E-04
      0.465000          0.854210E-04
      0.470000          0.826391E-04
      0.475000          0.796677E-04
      0.480000          0.765032E-04
      0.485000          0.731384E-04
      0.490000          0.695996E-04
      0.495000          0.659804E-04
      0.500000          0.624511E-04
