 I_abs(s)[cm^-1]/c[mg/ml]
       0.00000          0.120307E-01
      0.500000E-02      0.117879E-01
      0.100000E-01      0.110986E-01
      0.150000E-01      0.100702E-01
      0.200000E-01      0.885118E-02
      0.250000E-01      0.759565E-02
      0.300000E-01      0.643106E-02
      0.350000E-01      0.543719E-02
      0.400000E-01      0.464133E-02
      0.450000E-01      0.402799E-02
      0.500000E-01      0.355728E-02
      0.550000E-01      0.318413E-02
      0.600000E-01      0.287232E-02
      0.650000E-01      0.260026E-02
      0.700000E-01      0.235940E-02
      0.750000E-01      0.214847E-02
      0.800000E-01      0.196744E-02
      0.850000E-01      0.181399E-02
      0.900000E-01      0.168311E-02
      0.950000E-01      0.156886E-02
      0.100000          0.146658E-02
      0.105000          0.137401E-02
      0.110000          0.129088E-02
      0.115000          0.121754E-02
      0.120000          0.115352E-02
      0.125000          0.109689E-02
      0.130000          0.104463E-02
      0.135000          0.993727E-03
      0.140000          0.942297E-03
      0.145000          0.890092E-03
      0.150000          0.838361E-03
      0.155000          0.789138E-03
      0.160000          0.744414E-03
      0.165000          0.705533E-03
      0.170000          0.672963E-03
      0.175000          0.646369E-03
      0.180000          0.624818E-03
      0.185000          0.606975E-03
      0.190000          0.591263E-03
      0.195000          0.576037E-03
      0.200000          0.559823E-03
      0.205000          0.541602E-03
      0.210000          0.521047E-03
      0.215000          0.498587E-03
      0.220000          0.475230E-03
      0.225000          0.452207E-03
      0.230000          0.430564E-03
      0.235000          0.410872E-03
      0.240000          0.393160E-03
      0.245000          0.377065E-03
      0.250000          0.362100E-03
      0.255000          0.347887E-03
      0.260000          0.334280E-03
      0.265000          0.321327E-03
      0.270000          0.309136E-03
      0.275000          0.297739E-03
      0.280000          0.287017E-03
      0.285000          0.276713E-03
      0.290000          0.266523E-03
      0.295000          0.256196E-03
      0.300000          0.245621E-03
      0.305000          0.234860E-03
      0.310000          0.224133E-03
      0.315000          0.213769E-03
      0.320000          0.204136E-03
      0.325000          0.195562E-03
      0.330000          0.188261E-03
      0.335000          0.182275E-03
      0.340000          0.177458E-03
      0.345000          0.173507E-03
      0.350000          0.170029E-03
      0.355000          0.166640E-03
      0.360000          0.163046E-03
      0.365000          0.159097E-03
      0.370000          0.154784E-03
      0.375000          0.150201E-03
      0.380000          0.145479E-03
      0.385000          0.140737E-03
      0.390000          0.136045E-03
      0.395000          0.131425E-03
      0.400000          0.126874E-03
      0.405000          0.122387E-03
      0.410000          0.117981E-03
      0.415000          0.113702E-03
      0.420000          0.109614E-03
      0.425000          0.105774E-03
      0.430000          0.102209E-03
      0.435000          0.988975E-04
      0.440000          0.957783E-04
      0.445000          0.927715E-04
      0.450000          0.898168E-04
      0.455000          0.869050E-04
      0.460000          0.840884E-04
      0.465000          0.814597E-04
      0.470000          0.791073E-04
      0.475000          0.770686E-04
      0.480000          0.753064E-04
      0.485000          0.737258E-04
      0.490000          0.722243E-04
      0.495000          0.707497E-04
      0.500000          0.693321E-04
