 I_abs(s)[cm^-1]/c[mg/ml]
       0.00000          0.133945E-01
      0.500000E-02      0.132595E-01
      0.100000E-01      0.128639E-01
      0.150000E-01      0.122356E-01
      0.200000E-01      0.114177E-01
      0.250000E-01      0.104635E-01
      0.300000E-01      0.943171E-02
      0.350000E-01      0.838028E-02
      0.400000E-01      0.736104E-02
      0.450000E-01      0.641561E-02
      0.500000E-01      0.557268E-02
      0.550000E-01      0.484709E-02
      0.600000E-01      0.424060E-02
      0.650000E-01      0.374411E-02
      0.700000E-01      0.334090E-02
      0.750000E-01      0.301022E-02
      0.800000E-01      0.273090E-02
      0.850000E-01      0.248431E-02
      0.900000E-01      0.225640E-02
      0.950000E-01      0.203868E-02
      0.100000          0.182812E-02
      0.105000          0.162620E-02
      0.110000          0.143731E-02
      0.115000          0.126700E-02
      0.120000          0.112028E-02
      0.125000          0.100033E-02
      0.130000          0.907791E-03
      0.135000          0.840615E-03
      0.140000          0.794512E-03
      0.145000          0.763776E-03
      0.150000          0.742308E-03
      0.155000          0.724606E-03
      0.160000          0.706553E-03
      0.165000          0.685859E-03
      0.170000          0.662126E-03
      0.175000          0.636543E-03
      0.180000          0.611334E-03
      0.185000          0.589058E-03
      0.190000          0.571935E-03
      0.195000          0.561304E-03
      0.200000          0.557313E-03
      0.205000          0.558880E-03
      0.210000          0.563900E-03
      0.215000          0.569644E-03
      0.220000          0.573256E-03
      0.225000          0.572253E-03
      0.230000          0.564919E-03
      0.235000          0.550558E-03
      0.240000          0.529538E-03
      0.245000          0.503162E-03
      0.250000          0.473390E-03
      0.255000          0.442476E-03
      0.260000          0.412597E-03
      0.265000          0.385524E-03
      0.270000          0.362404E-03
      0.275000          0.343667E-03
      0.280000          0.329065E-03
      0.285000          0.317811E-03
      0.290000          0.308805E-03
      0.295000          0.300863E-03
      0.300000          0.292941E-03
      0.305000          0.284292E-03
      0.310000          0.274555E-03
      0.315000          0.263751E-03
      0.320000          0.252213E-03
      0.325000          0.240474E-03
      0.330000          0.229121E-03
      0.335000          0.218669E-03
      0.340000          0.209464E-03
      0.345000          0.201625E-03
      0.350000          0.195051E-03
      0.355000          0.189457E-03
      0.360000          0.184450E-03
      0.365000          0.179614E-03
      0.370000          0.174594E-03
      0.375000          0.169153E-03
      0.380000          0.163209E-03
      0.385000          0.156828E-03
      0.390000          0.150202E-03
      0.395000          0.143598E-03
      0.400000          0.137298E-03
      0.405000          0.131552E-03
      0.410000          0.126532E-03
      0.415000          0.122313E-03
      0.420000          0.118870E-03
      0.425000          0.116096E-03
      0.430000          0.113833E-03
      0.435000          0.111904E-03
      0.440000          0.110147E-03
      0.445000          0.108439E-03
      0.450000          0.106709E-03
      0.455000          0.104939E-03
      0.460000          0.103147E-03
      0.465000          0.101378E-03
      0.470000          0.996779E-04
      0.475000          0.980767E-04
      0.480000          0.965802E-04
      0.485000          0.951652E-04
      0.490000          0.937857E-04
      0.495000          0.923839E-04
      0.500000          0.909046E-04
