 I_abs(s)[cm^-1]/c[mg/ml]
       0.00000          0.122772E-01
      0.500000E-02      0.119991E-01
      0.100000E-01      0.112162E-01
      0.150000E-01      0.100668E-01
      0.200000E-01      0.873540E-02
      0.250000E-01      0.740254E-02
      0.300000E-01      0.620354E-02
      0.350000E-01      0.520861E-02
      0.400000E-01      0.442700E-02
      0.450000E-01      0.382784E-02
      0.500000E-01      0.336561E-02
      0.550000E-01      0.299948E-02
      0.600000E-01      0.270152E-02
      0.650000E-01      0.245529E-02
      0.700000E-01      0.225016E-02
      0.750000E-01      0.207667E-02
      0.800000E-01      0.192550E-02
      0.850000E-01      0.178909E-02
      0.900000E-01      0.166352E-02
      0.950000E-01      0.154852E-02
      0.100000          0.144535E-02
      0.105000          0.135421E-02
      0.110000          0.127273E-02
      0.115000          0.119659E-02
      0.120000          0.112159E-02
      0.125000          0.104565E-02
      0.130000          0.969620E-03
      0.135000          0.896420E-03
      0.140000          0.829326E-03
      0.145000          0.770474E-03
      0.150000          0.720339E-03
      0.155000          0.678174E-03
      0.160000          0.642826E-03
      0.165000          0.613273E-03
      0.170000          0.588630E-03
      0.175000          0.567849E-03
      0.180000          0.549530E-03
      0.185000          0.532122E-03
      0.190000          0.514420E-03
      0.195000          0.496019E-03
      0.200000          0.477400E-03
      0.205000          0.459599E-03
      0.210000          0.443646E-03
      0.215000          0.430103E-03
      0.220000          0.418905E-03
      0.225000          0.409488E-03
      0.230000          0.401071E-03
      0.235000          0.392893E-03
      0.240000          0.384363E-03
      0.245000          0.375125E-03
      0.250000          0.365098E-03
      0.255000          0.354477E-03
      0.260000          0.343654E-03
      0.265000          0.333026E-03
      0.270000          0.322764E-03
      0.275000          0.312661E-03
      0.280000          0.302199E-03
      0.285000          0.290816E-03
      0.290000          0.278259E-03
      0.295000          0.264795E-03
      0.300000          0.251168E-03
      0.305000          0.238295E-03
      0.310000          0.226901E-03
      0.315000          0.217274E-03
      0.320000          0.209264E-03
      0.325000          0.202465E-03
      0.330000          0.196444E-03
      0.335000          0.190863E-03
      0.340000          0.185468E-03
      0.345000          0.180017E-03
      0.350000          0.174261E-03
      0.355000          0.168035E-03
      0.360000          0.161378E-03
      0.365000          0.154597E-03
      0.370000          0.148163E-03
      0.375000          0.142494E-03
      0.380000          0.137730E-03
      0.385000          0.133655E-03
      0.390000          0.129808E-03
      0.395000          0.125733E-03
      0.400000          0.121201E-03
      0.405000          0.116297E-03
      0.410000          0.111334E-03
      0.415000          0.106670E-03
      0.420000          0.102556E-03
      0.425000          0.990960E-04
      0.430000          0.962916E-04
      0.435000          0.941246E-04
      0.440000          0.925777E-04
      0.445000          0.915905E-04
      0.450000          0.909990E-04
      0.455000          0.905302E-04
      0.460000          0.898839E-04
      0.465000          0.888612E-04
      0.470000          0.874561E-04
      0.475000          0.858411E-04
      0.480000          0.842475E-04
      0.485000          0.828089E-04
      0.490000          0.814637E-04
      0.495000          0.799745E-04
      0.500000          0.780498E-04
