 I_abs(s)[cm^-1]/c[mg/ml]
       0.00000          0.119515E-01
      0.500000E-02      0.116803E-01
      0.100000E-01      0.109124E-01
      0.150000E-01      0.977332E-02
      0.200000E-01      0.843707E-02
      0.250000E-01      0.708469E-02
      0.300000E-01      0.586505E-02
      0.350000E-01      0.486857E-02
      0.400000E-01      0.411976E-02
      0.450000E-01      0.358814E-02
      0.500000E-01      0.321145E-02
      0.550000E-01      0.292198E-02
      0.600000E-01      0.266750E-02
      0.650000E-01      0.242144E-02
      0.700000E-01      0.218165E-02
      0.750000E-01      0.196085E-02
      0.800000E-01      0.177452E-02
      0.850000E-01      0.163123E-02
      0.900000E-01      0.152861E-02
      0.950000E-01      0.145516E-02
      0.100000          0.139566E-02
      0.105000          0.133722E-02
      0.110000          0.127306E-02
      0.115000          0.120301E-02
      0.120000          0.113118E-02
      0.125000          0.106253E-02
      0.130000          0.999970E-03
      0.135000          0.943375E-03
      0.140000          0.890450E-03
      0.145000          0.838662E-03
      0.150000          0.787046E-03
      0.155000          0.736946E-03
      0.160000          0.691410E-03
      0.165000          0.653662E-03
      0.170000          0.625465E-03
      0.175000          0.606177E-03
      0.180000          0.592879E-03
      0.185000          0.581445E-03
      0.190000          0.568022E-03
      0.195000          0.550272E-03
      0.200000          0.527903E-03
      0.205000          0.502397E-03
      0.210000          0.476153E-03
      0.215000          0.451481E-03
      0.220000          0.429843E-03
      0.225000          0.411573E-03
      0.230000          0.396063E-03
      0.235000          0.382226E-03
      0.240000          0.369002E-03
      0.245000          0.355692E-03
      0.250000          0.342070E-03
      0.255000          0.328290E-03
      0.260000          0.314703E-03
      0.265000          0.301671E-03
      0.270000          0.289456E-03
      0.275000          0.278170E-03
      0.280000          0.267784E-03
      0.285000          0.258158E-03
      0.290000          0.249077E-03
      0.295000          0.240297E-03
      0.300000          0.231599E-03
      0.305000          0.222847E-03
      0.310000          0.214035E-03
      0.315000          0.205299E-03
      0.320000          0.196880E-03
      0.325000          0.189053E-03
      0.330000          0.182032E-03
      0.335000          0.175894E-03
      0.340000          0.170552E-03
      0.345000          0.165780E-03
      0.350000          0.161287E-03
      0.355000          0.156812E-03
      0.360000          0.152202E-03
      0.365000          0.147445E-03
      0.370000          0.142667E-03
      0.375000          0.138068E-03
      0.380000          0.133846E-03
      0.385000          0.130134E-03
      0.390000          0.126947E-03
      0.395000          0.124191E-03
      0.400000          0.121702E-03
      0.405000          0.119309E-03
      0.410000          0.116905E-03
      0.415000          0.114481E-03
      0.420000          0.112132E-03
      0.425000          0.110005E-03
      0.430000          0.108221E-03
      0.435000          0.106803E-03
      0.440000          0.105634E-03
      0.445000          0.104462E-03
      0.450000          0.102978E-03
      0.455000          0.100913E-03
      0.460000          0.981391E-04
      0.465000          0.947223E-04
      0.470000          0.909075E-04
      0.475000          0.870364E-04
      0.480000          0.834276E-04
      0.485000          0.802675E-04
      0.490000          0.775532E-04
      0.495000          0.751127E-04
      0.500000          0.726934E-04
