 I_abs(s)[cm^-1]/c[mg/ml]
       0.00000          0.115028E-01
      0.500000E-02      0.111992E-01
      0.100000E-01      0.103509E-01
      0.150000E-01      0.912674E-02
      0.200000E-01      0.774947E-02
      0.250000E-01      0.643256E-02
      0.300000E-01      0.532725E-02
      0.350000E-01      0.449737E-02
      0.400000E-01      0.392558E-02
      0.450000E-01      0.354295E-02
      0.500000E-01      0.326618E-02
      0.550000E-01      0.302774E-02
      0.600000E-01      0.279037E-02
      0.650000E-01      0.254576E-02
      0.700000E-01      0.230352E-02
      0.750000E-01      0.207823E-02
      0.800000E-01      0.188025E-02
      0.850000E-01      0.171237E-02
      0.900000E-01      0.157119E-02
      0.950000E-01      0.145036E-02
      0.100000          0.134379E-02
      0.105000          0.124752E-02
      0.110000          0.116018E-02
      0.115000          0.108240E-02
      0.120000          0.101559E-02
      0.125000          0.960498E-03
      0.130000          0.916051E-03
      0.135000          0.879070E-03
      0.140000          0.845048E-03
      0.145000          0.809741E-03
      0.150000          0.770816E-03
      0.155000          0.728664E-03
      0.160000          0.685935E-03
      0.165000          0.646028E-03
      0.170000          0.611385E-03
      0.175000          0.582485E-03
      0.180000          0.557995E-03
      0.185000          0.535821E-03
      0.190000          0.514344E-03
      0.195000          0.493098E-03
      0.200000          0.472623E-03
      0.205000          0.453736E-03
      0.210000          0.436793E-03
      0.215000          0.421401E-03
      0.220000          0.406695E-03
      0.225000          0.391889E-03
      0.230000          0.376708E-03
      0.235000          0.361437E-03
      0.240000          0.346619E-03
      0.245000          0.332647E-03
      0.250000          0.319536E-03
      0.255000          0.306985E-03
      0.260000          0.294653E-03
      0.265000          0.282453E-03
      0.270000          0.270672E-03
      0.275000          0.259863E-03
      0.280000          0.250555E-03
      0.285000          0.242951E-03
      0.290000          0.236749E-03
      0.295000          0.231180E-03
      0.300000          0.225278E-03
      0.305000          0.218278E-03
      0.310000          0.209985E-03
      0.315000          0.200927E-03
      0.320000          0.192199E-03
      0.325000          0.185016E-03
      0.330000          0.180156E-03
      0.335000          0.177567E-03
      0.340000          0.176343E-03
      0.345000          0.175119E-03
      0.350000          0.172694E-03
      0.355000          0.168580E-03
      0.360000          0.163181E-03
      0.365000          0.157519E-03
      0.370000          0.152662E-03
      0.375000          0.149150E-03
      0.380000          0.146728E-03
      0.385000          0.144496E-03
      0.390000          0.141385E-03
      0.395000          0.136683E-03
      0.400000          0.130354E-03
      0.405000          0.123025E-03
      0.410000          0.115670E-03
      0.415000          0.109185E-03
      0.420000          0.104054E-03
      0.425000          0.100226E-03
      0.430000          0.972350E-04
      0.435000          0.944635E-04
      0.440000          0.914339E-04
      0.445000          0.880053E-04
      0.450000          0.844075E-04
      0.455000          0.811098E-04
      0.460000          0.785833E-04
      0.465000          0.770590E-04
      0.470000          0.763911E-04
      0.475000          0.760905E-04
      0.480000          0.755198E-04
      0.485000          0.741598E-04
      0.490000          0.718187E-04
      0.495000          0.686825E-04
      0.500000          0.651904E-04
