 I_abs(s)[cm^-1]/c[mg/ml]
       0.00000          0.119443E-01
      0.500000E-02      0.116824E-01
      0.100000E-01      0.109424E-01
      0.150000E-01      0.984802E-02
      0.200000E-01      0.856742E-02
      0.250000E-01      0.727047E-02
      0.300000E-01      0.609095E-02
      0.350000E-01      0.510523E-02
      0.400000E-01      0.433118E-02
      0.450000E-01      0.374338E-02
      0.500000E-01      0.329604E-02
      0.550000E-01      0.294372E-02
      0.600000E-01      0.265361E-02
      0.650000E-01      0.240787E-02
      0.700000E-01      0.219902E-02
      0.750000E-01      0.202324E-02
      0.800000E-01      0.187569E-02
      0.850000E-01      0.174943E-02
      0.900000E-01      0.163711E-02
      0.950000E-01      0.153335E-02
      0.100000          0.143591E-02
      0.105000          0.134508E-02
      0.110000          0.126202E-02
      0.115000          0.118710E-02
      0.120000          0.111932E-02
      0.125000          0.105678E-02
      0.130000          0.997666E-03
      0.135000          0.940974E-03
      0.140000          0.886643E-03
      0.145000          0.835133E-03
      0.150000          0.786901E-03
      0.155000          0.742159E-03
      0.160000          0.700973E-03
      0.165000          0.663496E-03
      0.170000          0.630024E-03
      0.175000          0.600774E-03
      0.180000          0.575531E-03
      0.185000          0.553466E-03
      0.190000          0.533326E-03
      0.195000          0.513928E-03
      0.200000          0.494665E-03
      0.205000          0.475686E-03
      0.210000          0.457618E-03
      0.215000          0.440996E-03
      0.220000          0.425771E-03
      0.225000          0.411224E-03
      0.230000          0.396370E-03
      0.235000          0.380612E-03
      0.240000          0.364233E-03
      0.245000          0.348419E-03
      0.250000          0.334735E-03
      0.255000          0.324344E-03
      0.260000          0.317367E-03
      0.265000          0.312734E-03
      0.270000          0.308586E-03
      0.275000          0.303030E-03
      0.280000          0.294859E-03
      0.285000          0.283928E-03
      0.290000          0.271068E-03
      0.295000          0.257641E-03
      0.300000          0.244994E-03
      0.305000          0.234052E-03
      0.310000          0.225150E-03
      0.315000          0.218113E-03
      0.320000          0.212448E-03
      0.325000          0.207558E-03
      0.330000          0.202905E-03
      0.335000          0.198101E-03
      0.340000          0.192961E-03
      0.345000          0.187498E-03
      0.350000          0.181872E-03
      0.355000          0.176297E-03
      0.360000          0.170929E-03
      0.365000          0.165785E-03
      0.370000          0.160748E-03
      0.375000          0.155647E-03
      0.380000          0.150377E-03
      0.385000          0.144974E-03
      0.390000          0.139610E-03
      0.395000          0.134484E-03
      0.400000          0.129689E-03
      0.405000          0.125133E-03
      0.410000          0.120566E-03
      0.415000          0.115701E-03
      0.420000          0.110375E-03
      0.425000          0.104642E-03
      0.430000          0.987683E-04
      0.435000          0.931185E-04
      0.440000          0.880197E-04
      0.445000          0.836649E-04
      0.450000          0.801056E-04
      0.455000          0.773126E-04
      0.460000          0.752476E-04
      0.465000          0.738863E-04
      0.470000          0.731760E-04
      0.475000          0.729616E-04
      0.480000          0.729440E-04
      0.485000          0.727183E-04
      0.490000          0.718943E-04
      0.495000          0.702458E-04
      0.500000          0.678114E-04
