 I_abs(s)[cm^-1]/c[mg/ml]
       0.00000          0.120235E-01
      0.500000E-02      0.117324E-01
      0.100000E-01      0.109144E-01
      0.150000E-01      0.971877E-02
      0.200000E-01      0.834723E-02
      0.250000E-01      0.699975E-02
      0.300000E-01      0.582773E-02
      0.350000E-01      0.490766E-02
      0.400000E-01      0.424090E-02
      0.450000E-01      0.377513E-02
      0.500000E-01      0.343619E-02
      0.550000E-01      0.315728E-02
      0.600000E-01      0.289656E-02
      0.650000E-01      0.264005E-02
      0.700000E-01      0.239344E-02
      0.750000E-01      0.216938E-02
      0.800000E-01      0.197692E-02
      0.850000E-01      0.181662E-02
      0.900000E-01      0.168165E-02
      0.950000E-01      0.156210E-02
      0.100000          0.144965E-02
      0.105000          0.134005E-02
      0.110000          0.123318E-02
      0.115000          0.113135E-02
      0.120000          0.103728E-02
      0.125000          0.952759E-03
      0.130000          0.878195E-03
      0.135000          0.812941E-03
      0.140000          0.755811E-03
      0.145000          0.705554E-03
      0.150000          0.661183E-03
      0.155000          0.622163E-03
      0.160000          0.588467E-03
      0.165000          0.560426E-03
      0.170000          0.538341E-03
      0.175000          0.521975E-03
      0.180000          0.510181E-03
      0.185000          0.500933E-03
      0.190000          0.491863E-03
      0.195000          0.481102E-03
      0.200000          0.468027E-03
      0.205000          0.453492E-03
      0.210000          0.439384E-03
      0.215000          0.427696E-03
      0.220000          0.419574E-03
      0.225000          0.414804E-03
      0.230000          0.411961E-03
      0.235000          0.409105E-03
      0.240000          0.404618E-03
      0.245000          0.397771E-03
      0.250000          0.388781E-03
      0.255000          0.378429E-03
      0.260000          0.367537E-03
      0.265000          0.356587E-03
      0.270000          0.345668E-03
      0.275000          0.334670E-03
      0.280000          0.323528E-03
      0.285000          0.312342E-03
      0.290000          0.301285E-03
      0.295000          0.290439E-03
      0.300000          0.279693E-03
      0.305000          0.268817E-03
      0.310000          0.257688E-03
      0.315000          0.246510E-03
      0.320000          0.235856E-03
      0.325000          0.226464E-03
      0.330000          0.218870E-03
      0.335000          0.213071E-03
      0.340000          0.208402E-03
      0.345000          0.203723E-03
      0.350000          0.197838E-03
      0.355000          0.189943E-03
      0.360000          0.179918E-03
      0.365000          0.168327E-03
      0.370000          0.156162E-03
      0.375000          0.144466E-03
      0.380000          0.134014E-03
      0.385000          0.125151E-03
      0.390000          0.117835E-03
      0.395000          0.111789E-03
      0.400000          0.106679E-03
      0.405000          0.102232E-03
      0.410000          0.982627E-04
      0.415000          0.946494E-04
      0.420000          0.912945E-04
      0.425000          0.881162E-04
      0.430000          0.850708E-04
      0.435000          0.821876E-04
      0.440000          0.795822E-04
      0.445000          0.774313E-04
      0.450000          0.759075E-04
      0.455000          0.750978E-04
      0.460000          0.749379E-04
      0.465000          0.751914E-04
      0.470000          0.754886E-04
      0.475000          0.754205E-04
      0.480000          0.746603E-04
      0.485000          0.730713E-04
      0.490000          0.707605E-04
      0.495000          0.680521E-04
      0.500000          0.653819E-04
