 I_abs(s)[cm^-1]/c[mg/ml]
       0.00000          0.127183E-01
      0.500000E-02      0.124358E-01
      0.100000E-01      0.116410E-01
      0.150000E-01      0.104760E-01
      0.200000E-01      0.913121E-02
      0.250000E-01      0.779314E-02
      0.300000E-01      0.660051E-02
      0.350000E-01      0.562160E-02
      0.400000E-01      0.485762E-02
      0.450000E-01      0.426600E-02
      0.500000E-01      0.379120E-02
      0.550000E-01      0.338982E-02
      0.600000E-01      0.304168E-02
      0.650000E-01      0.274622E-02
      0.700000E-01      0.250998E-02
      0.750000E-01      0.233376E-02
      0.800000E-01      0.220621E-02
      0.850000E-01      0.210603E-02
      0.900000E-01      0.201036E-02
      0.950000E-01      0.190364E-02
      0.100000          0.178250E-02
      0.105000          0.165436E-02
      0.110000          0.153144E-02
      0.115000          0.142356E-02
      0.120000          0.133371E-02
      0.125000          0.125782E-02
      0.130000          0.118821E-02
      0.135000          0.111826E-02
      0.140000          0.104557E-02
      0.145000          0.972317E-03
      0.150000          0.903145E-03
      0.155000          0.842099E-03
      0.160000          0.790496E-03
      0.165000          0.746669E-03
      0.170000          0.707367E-03
      0.175000          0.669727E-03
      0.180000          0.632606E-03
      0.185000          0.596649E-03
      0.190000          0.563308E-03
      0.195000          0.533590E-03
      0.200000          0.507339E-03
      0.205000          0.483406E-03
      0.210000          0.460449E-03
      0.215000          0.437778E-03
      0.220000          0.415698E-03
      0.225000          0.395176E-03
      0.230000          0.377126E-03
      0.235000          0.361765E-03
      0.240000          0.348451E-03
      0.245000          0.336041E-03
      0.250000          0.323503E-03
      0.255000          0.310403E-03
      0.260000          0.296985E-03
      0.265000          0.283867E-03
      0.270000          0.271575E-03
      0.275000          0.260230E-03
      0.280000          0.249559E-03
      0.285000          0.239163E-03
      0.290000          0.228846E-03
      0.295000          0.218769E-03
      0.300000          0.209338E-03
      0.305000          0.200922E-03
      0.310000          0.193595E-03
      0.315000          0.187067E-03
      0.320000          0.180862E-03
      0.325000          0.174593E-03
      0.330000          0.168185E-03
      0.335000          0.161883E-03
      0.340000          0.156060E-03
      0.345000          0.150957E-03
      0.350000          0.146504E-03
      0.355000          0.142357E-03
      0.360000          0.138109E-03
      0.365000          0.133546E-03
      0.370000          0.128787E-03
      0.375000          0.124228E-03
      0.380000          0.120309E-03
      0.385000          0.117251E-03
      0.390000          0.114901E-03
      0.395000          0.112787E-03
      0.400000          0.110337E-03
      0.405000          0.107152E-03
      0.410000          0.103178E-03
      0.415000          0.987082E-04
      0.420000          0.942156E-04
      0.425000          0.901198E-04
      0.430000          0.866144E-04
      0.435000          0.836315E-04
      0.440000          0.809455E-04
      0.445000          0.783425E-04
      0.450000          0.757560E-04
      0.455000          0.732982E-04
      0.460000          0.711787E-04
      0.465000          0.695641E-04
      0.470000          0.684592E-04
      0.475000          0.676756E-04
      0.480000          0.669000E-04
      0.485000          0.658275E-04
      0.490000          0.642912E-04
      0.495000          0.623259E-04
      0.500000          0.601397E-04
