 I_abs(s)[cm^-1]/c[mg/ml]
       0.00000          0.121174E-01
      0.500000E-02      0.118357E-01
      0.100000E-01      0.110408E-01
      0.150000E-01      0.986877E-02
      0.200000E-01      0.850339E-02
      0.250000E-01      0.712876E-02
      0.300000E-01      0.588784E-02
      0.350000E-01      0.486005E-02
      0.400000E-01      0.406141E-02
      0.450000E-01      0.346216E-02
      0.500000E-01      0.301192E-02
      0.550000E-01      0.266152E-02
      0.600000E-01      0.237535E-02
      0.650000E-01      0.213335E-02
      0.700000E-01      0.192629E-02
      0.750000E-01      0.174956E-02
      0.800000E-01      0.159895E-02
      0.850000E-01      0.146977E-02
      0.900000E-01      0.135775E-02
      0.950000E-01      0.126008E-02
      0.100000          0.117524E-02
      0.105000          0.110194E-02
      0.110000          0.103803E-02
      0.115000          0.980556E-03
      0.120000          0.926740E-03
      0.125000          0.875416E-03
      0.130000          0.827675E-03
      0.135000          0.786228E-03
      0.140000          0.753727E-03
      0.145000          0.730981E-03
      0.150000          0.716065E-03
      0.155000          0.704813E-03
      0.160000          0.692411E-03
      0.165000          0.675231E-03
      0.170000          0.652039E-03
      0.175000          0.624067E-03
      0.180000          0.594099E-03
      0.185000          0.565112E-03
      0.190000          0.539145E-03
      0.195000          0.516808E-03
      0.200000          0.497471E-03
      0.205000          0.479855E-03
      0.210000          0.462696E-03
      0.215000          0.445170E-03
      0.220000          0.427028E-03
      0.225000          0.408496E-03
      0.230000          0.390071E-03
      0.235000          0.372330E-03
      0.240000          0.355798E-03
      0.245000          0.340863E-03
      0.250000          0.327736E-03
      0.255000          0.316411E-03
      0.260000          0.306659E-03
      0.265000          0.298053E-03
      0.270000          0.290032E-03
      0.275000          0.282012E-03
      0.280000          0.273504E-03
      0.285000          0.264218E-03
      0.290000          0.254118E-03
      0.295000          0.243402E-03
      0.300000          0.232422E-03
      0.305000          0.221561E-03
      0.310000          0.211116E-03
      0.315000          0.201218E-03
      0.320000          0.191838E-03
      0.325000          0.182852E-03
      0.330000          0.174149E-03
      0.335000          0.165730E-03
      0.340000          0.157758E-03
      0.345000          0.150517E-03
      0.350000          0.144319E-03
      0.355000          0.139364E-03
      0.360000          0.135640E-03
      0.365000          0.132884E-03
      0.370000          0.130647E-03
      0.375000          0.128428E-03
      0.380000          0.125838E-03
      0.385000          0.122719E-03
      0.390000          0.119179E-03
      0.395000          0.115521E-03
      0.400000          0.112117E-03
      0.405000          0.109258E-03
      0.410000          0.107066E-03
      0.415000          0.105476E-03
      0.420000          0.104292E-03
      0.425000          0.103268E-03
      0.430000          0.102192E-03
      0.435000          0.100915E-03
      0.440000          0.993687E-04
      0.445000          0.975388E-04
      0.450000          0.954572E-04
      0.455000          0.931865E-04
      0.460000          0.908081E-04
      0.465000          0.884012E-04
      0.470000          0.860161E-04
      0.475000          0.836561E-04
      0.480000          0.812823E-04
      0.485000          0.788486E-04
      0.490000          0.763493E-04
      0.495000          0.738541E-04
      0.500000          0.715051E-04
