 I_abs(s)[cm^-1]/c[mg/ml]
       0.00000          0.122335E-01
      0.500000E-02      0.119327E-01
      0.100000E-01      0.110858E-01
      0.150000E-01      0.984284E-02
      0.200000E-01      0.840713E-02
      0.250000E-01      0.698156E-02
      0.300000E-01      0.572198E-02
      0.350000E-01      0.471091E-02
      0.400000E-01      0.395699E-02
      0.450000E-01      0.341562E-02
      0.500000E-01      0.301957E-02
      0.550000E-01      0.270698E-02
      0.600000E-01      0.243772E-02
      0.650000E-01      0.219569E-02
      0.700000E-01      0.198096E-02
      0.750000E-01      0.179826E-02
      0.800000E-01      0.164840E-02
      0.850000E-01      0.152555E-02
      0.900000E-01      0.141986E-02
      0.950000E-01      0.132231E-02
      0.100000          0.122830E-02
      0.105000          0.113832E-02
      0.110000          0.105585E-02
      0.115000          0.984169E-03
      0.120000          0.924174E-03
      0.125000          0.873990E-03
      0.130000          0.830295E-03
      0.135000          0.790144E-03
      0.140000          0.752179E-03
      0.145000          0.716687E-03
      0.150000          0.684749E-03
      0.155000          0.657211E-03
      0.160000          0.634124E-03
      0.165000          0.614862E-03
      0.170000          0.598654E-03
      0.175000          0.585035E-03
      0.180000          0.573887E-03
      0.185000          0.565080E-03
      0.190000          0.558009E-03
      0.195000          0.551393E-03
      0.200000          0.543516E-03
      0.205000          0.532792E-03
      0.210000          0.518340E-03
      0.215000          0.500276E-03
      0.220000          0.479590E-03
      0.225000          0.457731E-03
      0.230000          0.436120E-03
      0.235000          0.415823E-03
      0.240000          0.397450E-03
      0.245000          0.381220E-03
      0.250000          0.367063E-03
      0.255000          0.354663E-03
      0.260000          0.343465E-03
      0.265000          0.332720E-03
      0.270000          0.321635E-03
      0.275000          0.309614E-03
      0.280000          0.296494E-03
      0.285000          0.282638E-03
      0.290000          0.268815E-03
      0.295000          0.255883E-03
      0.300000          0.244435E-03
      0.305000          0.234557E-03
      0.310000          0.225813E-03
      0.315000          0.217474E-03
      0.320000          0.208854E-03
      0.325000          0.199626E-03
      0.330000          0.189962E-03
      0.335000          0.180454E-03
      0.340000          0.171873E-03
      0.345000          0.164859E-03
      0.350000          0.159682E-03
      0.355000          0.156138E-03
      0.360000          0.153617E-03
      0.365000          0.151291E-03
      0.370000          0.148354E-03
      0.375000          0.144238E-03
      0.380000          0.138744E-03
      0.385000          0.132057E-03
      0.390000          0.124662E-03
      0.395000          0.117194E-03
      0.400000          0.110268E-03
      0.405000          0.104345E-03
      0.410000          0.996593E-04
      0.415000          0.962102E-04
      0.420000          0.938090E-04
      0.425000          0.921554E-04
      0.430000          0.909191E-04
      0.435000          0.898071E-04
      0.440000          0.886095E-04
      0.445000          0.872185E-04
      0.450000          0.856202E-04
      0.455000          0.838630E-04
      0.460000          0.820127E-04
      0.465000          0.801089E-04
      0.470000          0.781423E-04
      0.475000          0.760617E-04
      0.480000          0.738089E-04
      0.485000          0.713625E-04
      0.490000          0.687680E-04
      0.495000          0.661352E-04
      0.500000          0.636049E-04
