 I_abs(s)[cm^-1]/c[mg/ml]
       0.00000          0.120307E-01
      0.500000E-02      0.117922E-01
      0.100000E-01      0.111130E-01
      0.150000E-01      0.100934E-01
      0.200000E-01      0.887368E-02
      0.250000E-01      0.760291E-02
      0.300000E-01      0.640879E-02
      0.350000E-01      0.537738E-02
      0.400000E-01      0.454629E-02
      0.450000E-01      0.391063E-02
      0.500000E-01      0.343761E-02
      0.550000E-01      0.308334E-02
      0.600000E-01      0.280657E-02
      0.650000E-01      0.257636E-02
      0.700000E-01      0.237357E-02
      0.750000E-01      0.218828E-02
      0.800000E-01      0.201589E-02
      0.850000E-01      0.185406E-02
      0.900000E-01      0.170141E-02
      0.950000E-01      0.155760E-02
      0.100000          0.142368E-02
      0.105000          0.130191E-02
      0.110000          0.119487E-02
      0.115000          0.110410E-02
      0.120000          0.102905E-02
      0.125000          0.966966E-03
      0.130000          0.913612E-03
      0.135000          0.864612E-03
      0.140000          0.816708E-03
      0.145000          0.768465E-03
      0.150000          0.720227E-03
      0.155000          0.673480E-03
      0.160000          0.630006E-03
      0.165000          0.591183E-03
      0.170000          0.557641E-03
      0.175000          0.529276E-03
      0.180000          0.505466E-03
      0.185000          0.485357E-03
      0.190000          0.468075E-03
      0.195000          0.452869E-03
      0.200000          0.439175E-03
      0.205000          0.426642E-03
      0.210000          0.415098E-03
      0.215000          0.404475E-03
      0.220000          0.394687E-03
      0.225000          0.385524E-03
      0.230000          0.376613E-03
      0.235000          0.367495E-03
      0.240000          0.357791E-03
      0.245000          0.347391E-03
      0.250000          0.336550E-03
      0.255000          0.325833E-03
      0.260000          0.315900E-03
      0.265000          0.307226E-03
      0.270000          0.299865E-03
      0.275000          0.293384E-03
      0.280000          0.286989E-03
      0.285000          0.279799E-03
      0.290000          0.271156E-03
      0.295000          0.260843E-03
      0.300000          0.249143E-03
      0.305000          0.236716E-03
      0.310000          0.224378E-03
      0.315000          0.212859E-03
      0.320000          0.202624E-03
      0.325000          0.193818E-03
      0.330000          0.186304E-03
      0.335000          0.179776E-03
      0.340000          0.173889E-03
      0.345000          0.168358E-03
      0.350000          0.163011E-03
      0.355000          0.157793E-03
      0.360000          0.152735E-03
      0.365000          0.147901E-03
      0.370000          0.143337E-03
      0.375000          0.139040E-03
      0.380000          0.134944E-03
      0.385000          0.130930E-03
      0.390000          0.126865E-03
      0.395000          0.122630E-03
      0.400000          0.118156E-03
      0.405000          0.113439E-03
      0.410000          0.108534E-03
      0.415000          0.103545E-03
      0.420000          0.985896E-04
      0.425000          0.937869E-04
      0.430000          0.892368E-04
      0.435000          0.850168E-04
      0.440000          0.811834E-04
      0.445000          0.777770E-04
      0.450000          0.748268E-04
      0.455000          0.723525E-04
      0.460000          0.703626E-04
      0.465000          0.688484E-04
      0.470000          0.677768E-04
      0.475000          0.670830E-04
      0.480000          0.666672E-04
      0.485000          0.663981E-04
      0.490000          0.661252E-04
      0.495000          0.656991E-04
      0.500000          0.649971E-04
