 I_abs(s)[cm^-1]/c[mg/ml]
       0.00000          0.115735E-01
      0.500000E-02      0.112888E-01
      0.100000E-01      0.104871E-01
      0.150000E-01      0.931108E-02
      0.200000E-01      0.795466E-02
      0.250000E-01      0.661338E-02
      0.300000E-01      0.543919E-02
      0.350000E-01      0.451358E-02
      0.400000E-01      0.384477E-02
      0.450000E-01      0.338597E-02
      0.500000E-01      0.306509E-02
      0.550000E-01      0.281391E-02
      0.600000E-01      0.258713E-02
      0.650000E-01      0.236730E-02
      0.700000E-01      0.215780E-02
      0.750000E-01      0.197005E-02
      0.800000E-01      0.181198E-02
      0.850000E-01      0.168252E-02
      0.900000E-01      0.157272E-02
      0.950000E-01      0.147143E-02
      0.100000          0.137116E-02
      0.105000          0.127109E-02
      0.110000          0.117610E-02
      0.115000          0.109275E-02
      0.120000          0.102506E-02
      0.125000          0.972130E-03
      0.130000          0.928651E-03
      0.135000          0.887785E-03
      0.140000          0.844503E-03
      0.145000          0.797681E-03
      0.150000          0.750018E-03
      0.155000          0.706041E-03
      0.160000          0.669446E-03
      0.165000          0.641155E-03
      0.170000          0.618969E-03
      0.175000          0.598806E-03
      0.180000          0.576722E-03
      0.185000          0.550656E-03
      0.190000          0.521107E-03
      0.195000          0.490580E-03
      0.200000          0.462225E-03
      0.205000          0.438415E-03
      0.210000          0.419904E-03
      0.215000          0.405828E-03
      0.220000          0.394393E-03
      0.225000          0.383787E-03
      0.230000          0.372887E-03
      0.235000          0.361479E-03
      0.240000          0.350029E-03
      0.245000          0.339192E-03
      0.250000          0.329369E-03
      0.255000          0.320470E-03
      0.260000          0.311976E-03
      0.265000          0.303182E-03
      0.270000          0.293519E-03
      0.275000          0.282796E-03
      0.280000          0.271281E-03
      0.285000          0.259624E-03
      0.290000          0.248622E-03
      0.295000          0.238935E-03
      0.300000          0.230825E-03
      0.305000          0.224031E-03
      0.310000          0.217833E-03
      0.315000          0.211311E-03
      0.320000          0.203713E-03
      0.325000          0.194795E-03
      0.330000          0.184978E-03
      0.335000          0.175229E-03
      0.340000          0.166702E-03
      0.345000          0.160260E-03
      0.350000          0.156102E-03
      0.355000          0.153645E-03
      0.360000          0.151735E-03
      0.365000          0.149096E-03
      0.370000          0.144816E-03
      0.375000          0.138669E-03
      0.380000          0.131137E-03
      0.385000          0.123149E-03
      0.390000          0.115672E-03
      0.395000          0.109355E-03
      0.400000          0.104370E-03
      0.405000          0.100502E-03
      0.410000          0.973840E-04
      0.415000          0.947443E-04
      0.420000          0.925273E-04
      0.425000          0.908352E-04
      0.430000          0.897531E-04
      0.435000          0.891774E-04
      0.440000          0.887606E-04
      0.445000          0.880152E-04
      0.450000          0.865252E-04
      0.455000          0.841514E-04
      0.460000          0.811151E-04
      0.465000          0.779102E-04
      0.470000          0.750824E-04
      0.475000          0.729812E-04
      0.480000          0.716058E-04
      0.485000          0.706160E-04
      0.490000          0.694983E-04
      0.495000          0.678042E-04
      0.500000          0.653489E-04
