 I_abs(s)[cm^-1]/c[mg/ml]
       0.00000          0.120596E-01
      0.500000E-02      0.118247E-01
      0.100000E-01      0.111508E-01
      0.150000E-01      0.101248E-01
      0.200000E-01      0.887244E-02
      0.250000E-01      0.753596E-02
      0.300000E-01      0.624883E-02
      0.350000E-01      0.511515E-02
      0.400000E-01      0.419679E-02
      0.450000E-01      0.351038E-02
      0.500000E-01      0.303371E-02
      0.550000E-01      0.271879E-02
      0.600000E-01      0.250763E-02
      0.650000E-01      0.234678E-02
      0.700000E-01      0.219748E-02
      0.750000E-01      0.203985E-02
      0.800000E-01      0.187136E-02
      0.850000E-01      0.170129E-02
      0.900000E-01      0.154346E-02
      0.950000E-01      0.140967E-02
      0.100000          0.130554E-02
      0.105000          0.122938E-02
      0.110000          0.117371E-02
      0.115000          0.112843E-02
      0.120000          0.108419E-02
      0.125000          0.103495E-02
      0.130000          0.978995E-03
      0.135000          0.918433E-03
      0.140000          0.857659E-03
      0.145000          0.801426E-03
      0.150000          0.753247E-03
      0.155000          0.714541E-03
      0.160000          0.684619E-03
      0.165000          0.661333E-03
      0.170000          0.642012E-03
      0.175000          0.624324E-03
      0.180000          0.606818E-03
      0.185000          0.589029E-03
      0.190000          0.571263E-03
      0.195000          0.554189E-03
      0.200000          0.538445E-03
      0.205000          0.524370E-03
      0.210000          0.511910E-03
      0.215000          0.500672E-03
      0.220000          0.490052E-03
      0.225000          0.479371E-03
      0.230000          0.467991E-03
      0.235000          0.455380E-03
      0.240000          0.441167E-03
      0.245000          0.425184E-03
      0.250000          0.407517E-03
      0.255000          0.388526E-03
      0.260000          0.368839E-03
      0.265000          0.349268E-03
      0.270000          0.330681E-03
      0.275000          0.313826E-03
      0.280000          0.299174E-03
      0.285000          0.286819E-03
      0.290000          0.276476E-03
      0.295000          0.267572E-03
      0.300000          0.259416E-03
      0.305000          0.251385E-03
      0.310000          0.243079E-03
      0.315000          0.234396E-03
      0.320000          0.225515E-03
      0.325000          0.216802E-03
      0.330000          0.208662E-03
      0.335000          0.201409E-03
      0.340000          0.195162E-03
      0.345000          0.189832E-03
      0.350000          0.185152E-03
      0.355000          0.180773E-03
      0.360000          0.176366E-03
      0.365000          0.171703E-03
      0.370000          0.166701E-03
      0.375000          0.161412E-03
      0.380000          0.155971E-03
      0.385000          0.150532E-03
      0.390000          0.145206E-03
      0.395000          0.140033E-03
      0.400000          0.134986E-03
      0.405000          0.130020E-03
      0.410000          0.125131E-03
      0.415000          0.120401E-03
      0.420000          0.116016E-03
      0.425000          0.112233E-03
      0.430000          0.109306E-03
      0.435000          0.107384E-03
      0.440000          0.106428E-03
      0.445000          0.106172E-03
      0.450000          0.106150E-03
      0.455000          0.105799E-03
      0.460000          0.104609E-03
      0.465000          0.102269E-03
      0.470000          0.987749E-04
      0.475000          0.944456E-04
      0.480000          0.898383E-04
      0.485000          0.855841E-04
      0.490000          0.821913E-04
      0.495000          0.798810E-04
      0.500000          0.785110E-04
