 I_abs(s)[cm^-1]/c[mg/ml]
       0.00000          0.121174E-01
      0.500000E-02      0.118476E-01
      0.100000E-01      0.110862E-01
      0.150000E-01      0.996337E-02
      0.200000E-01      0.865419E-02
      0.250000E-01      0.733259E-02
      0.300000E-01      0.613257E-02
      0.350000E-01      0.512806E-02
      0.400000E-01      0.433444E-02
      0.450000E-01      0.372591E-02
      0.500000E-01      0.325861E-02
      0.550000E-01      0.288989E-02
      0.600000E-01      0.258849E-02
      0.650000E-01      0.233597E-02
      0.700000E-01      0.212281E-02
      0.750000E-01      0.194351E-02
      0.800000E-01      0.179341E-02
      0.850000E-01      0.166758E-02
      0.900000E-01      0.156098E-02
      0.950000E-01      0.146881E-02
      0.100000          0.138661E-02
      0.105000          0.131036E-02
      0.110000          0.123678E-02
      0.115000          0.116399E-02
      0.120000          0.109190E-02
      0.125000          0.102205E-02
      0.130000          0.956738E-03
      0.135000          0.897900E-03
      0.140000          0.846248E-03
      0.145000          0.801105E-03
      0.150000          0.760914E-03
      0.155000          0.724035E-03
      0.160000          0.689371E-03
      0.165000          0.656543E-03
      0.170000          0.625662E-03
      0.175000          0.596932E-03
      0.180000          0.570359E-03
      0.185000          0.545676E-03
      0.190000          0.522471E-03
      0.195000          0.500376E-03
      0.200000          0.479214E-03
      0.205000          0.459042E-03
      0.210000          0.440090E-03
      0.215000          0.422649E-03
      0.220000          0.406945E-03
      0.225000          0.393058E-03
      0.230000          0.380914E-03
      0.235000          0.370338E-03
      0.240000          0.361122E-03
      0.245000          0.353048E-03
      0.250000          0.345839E-03
      0.255000          0.339068E-03
      0.260000          0.332122E-03
      0.265000          0.324289E-03
      0.270000          0.314970E-03
      0.275000          0.303926E-03
      0.280000          0.291400E-03
      0.285000          0.278040E-03
      0.290000          0.264637E-03
      0.295000          0.251820E-03
      0.300000          0.239867E-03
      0.305000          0.228728E-03
      0.310000          0.218203E-03
      0.315000          0.208155E-03
      0.320000          0.198611E-03
      0.325000          0.189718E-03
      0.330000          0.181607E-03
      0.335000          0.174285E-03
      0.340000          0.167622E-03
      0.345000          0.161434E-03
      0.350000          0.155589E-03
      0.355000          0.150051E-03
      0.360000          0.144856E-03
      0.365000          0.140038E-03
      0.370000          0.135579E-03
      0.375000          0.131415E-03
      0.380000          0.127469E-03
      0.385000          0.123702E-03
      0.390000          0.120105E-03
      0.395000          0.116677E-03
      0.400000          0.113394E-03
      0.405000          0.110209E-03
      0.410000          0.107078E-03
      0.415000          0.103992E-03
      0.420000          0.100978E-03
      0.425000          0.980738E-04
      0.430000          0.952853E-04
      0.435000          0.925734E-04
      0.440000          0.898734E-04
      0.445000          0.871410E-04
      0.450000          0.843929E-04
      0.455000          0.817152E-04
      0.460000          0.792367E-04
      0.465000          0.770840E-04
      0.470000          0.753401E-04
      0.475000          0.740208E-04
      0.480000          0.730679E-04
      0.485000          0.723580E-04
      0.490000          0.717242E-04
      0.495000          0.709969E-04
      0.500000          0.700547E-04
