 I_abs(s)[cm^-1]/c[mg/ml]
       0.00000          0.119156E-01
      0.500000E-02      0.116504E-01
      0.100000E-01      0.109007E-01
      0.150000E-01      0.979182E-02
      0.200000E-01      0.849420E-02
      0.250000E-01      0.718088E-02
      0.300000E-01      0.598916E-02
      0.350000E-01      0.499843E-02
      0.400000E-01      0.422817E-02
      0.450000E-01      0.365247E-02
      0.500000E-01      0.322284E-02
      0.550000E-01      0.288958E-02
      0.600000E-01      0.261528E-02
      0.650000E-01      0.237849E-02
      0.700000E-01      0.217020E-02
      0.750000E-01      0.198743E-02
      0.800000E-01      0.182812E-02
      0.850000E-01      0.168897E-02
      0.900000E-01      0.156603E-02
      0.950000E-01      0.145612E-02
      0.100000          0.135773E-02
      0.105000          0.127062E-02
      0.110000          0.119466E-02
      0.115000          0.112880E-02
      0.120000          0.107087E-02
      0.125000          0.101822E-02
      0.130000          0.968683E-03
      0.135000          0.921222E-03
      0.140000          0.875923E-03
      0.145000          0.833474E-03
      0.150000          0.794485E-03
      0.155000          0.759058E-03
      0.160000          0.726739E-03
      0.165000          0.696746E-03
      0.170000          0.668264E-03
      0.175000          0.640651E-03
      0.180000          0.613530E-03
      0.185000          0.586850E-03
      0.190000          0.560930E-03
      0.195000          0.536414E-03
      0.200000          0.514076E-03
      0.205000          0.494435E-03
      0.210000          0.477346E-03
      0.215000          0.461810E-03
      0.220000          0.446213E-03
      0.225000          0.428979E-03
      0.230000          0.409361E-03
      0.235000          0.387956E-03
      0.240000          0.366627E-03
      0.245000          0.347774E-03
      0.250000          0.333283E-03
      0.255000          0.323646E-03
      0.260000          0.317682E-03
      0.265000          0.313014E-03
      0.270000          0.307055E-03
      0.275000          0.298042E-03
      0.280000          0.285660E-03
      0.285000          0.271011E-03
      0.290000          0.256023E-03
      0.295000          0.242621E-03
      0.300000          0.232040E-03
      0.305000          0.224518E-03
      0.310000          0.219418E-03
      0.315000          0.215616E-03
      0.320000          0.211956E-03
      0.325000          0.207591E-03
      0.330000          0.202143E-03
      0.335000          0.195691E-03
      0.340000          0.188643E-03
      0.345000          0.181564E-03
      0.350000          0.174979E-03
      0.355000          0.169219E-03
      0.360000          0.164329E-03
      0.365000          0.160081E-03
      0.370000          0.156082E-03
      0.375000          0.151943E-03
      0.380000          0.147428E-03
      0.385000          0.142522E-03
      0.390000          0.137389E-03
      0.395000          0.132262E-03
      0.400000          0.127330E-03
      0.405000          0.122677E-03
      0.410000          0.118309E-03
      0.415000          0.114210E-03
      0.420000          0.110391E-03
      0.425000          0.106894E-03
      0.430000          0.103742E-03
      0.435000          0.100897E-03
      0.440000          0.982534E-04
      0.445000          0.956998E-04
      0.450000          0.931911E-04
      0.455000          0.907935E-04
      0.460000          0.886532E-04
      0.465000          0.868977E-04
      0.470000          0.855276E-04
      0.475000          0.843655E-04
      0.480000          0.831032E-04
      0.485000          0.814270E-04
      0.490000          0.791560E-04
      0.495000          0.763190E-04
      0.500000          0.731307E-04
