 I_abs(s)[cm^-1]/c[mg/ml]
       0.00000          0.121536E-01
      0.500000E-02      0.118816E-01
      0.100000E-01      0.111126E-01
      0.150000E-01      0.997605E-02
      0.200000E-01      0.864937E-02
      0.250000E-01      0.731458E-02
      0.300000E-01      0.611755E-02
      0.350000E-01      0.514228E-02
      0.400000E-01      0.440581E-02
      0.450000E-01      0.387212E-02
      0.500000E-01      0.347766E-02
      0.550000E-01      0.315817E-02
      0.600000E-01      0.286817E-02
      0.650000E-01      0.258818E-02
      0.700000E-01      0.232058E-02
      0.750000E-01      0.207842E-02
      0.800000E-01      0.187355E-02
      0.850000E-01      0.170897E-02
      0.900000E-01      0.157755E-02
      0.950000E-01      0.146607E-02
      0.100000          0.136156E-02
      0.105000          0.125641E-02
      0.110000          0.115031E-02
      0.115000          0.104859E-02
      0.120000          0.958476E-03
      0.125000          0.885267E-03
      0.130000          0.830194E-03
      0.135000          0.790439E-03
      0.140000          0.760847E-03
      0.145000          0.736145E-03
      0.150000          0.712595E-03
      0.155000          0.688514E-03
      0.160000          0.663826E-03
      0.165000          0.639203E-03
      0.170000          0.615374E-03
      0.175000          0.592892E-03
      0.180000          0.572245E-03
      0.185000          0.553997E-03
      0.190000          0.538697E-03
      0.195000          0.526516E-03
      0.200000          0.516861E-03
      0.205000          0.508250E-03
      0.210000          0.498662E-03
      0.215000          0.486248E-03
      0.220000          0.470100E-03
      0.225000          0.450675E-03
      0.230000          0.429638E-03
      0.235000          0.409180E-03
      0.240000          0.391119E-03
      0.245000          0.376206E-03
      0.250000          0.363950E-03
      0.255000          0.352989E-03
      0.260000          0.341808E-03
      0.265000          0.329426E-03
      0.270000          0.315740E-03
      0.275000          0.301421E-03
      0.280000          0.287469E-03
      0.285000          0.274704E-03
      0.290000          0.263442E-03
      0.295000          0.253487E-03
      0.300000          0.244388E-03
      0.305000          0.235768E-03
      0.310000          0.227542E-03
      0.315000          0.219921E-03
      0.320000          0.213229E-03
      0.325000          0.207673E-03
      0.330000          0.203195E-03
      0.335000          0.199485E-03
      0.340000          0.196110E-03
      0.345000          0.192679E-03
      0.350000          0.188937E-03
      0.355000          0.184757E-03
      0.360000          0.180064E-03
      0.365000          0.174790E-03
      0.370000          0.168889E-03
      0.375000          0.162437E-03
      0.380000          0.155736E-03
      0.385000          0.149322E-03
      0.390000          0.143844E-03
      0.395000          0.139818E-03
      0.400000          0.137383E-03
      0.405000          0.136182E-03
      0.410000          0.135443E-03
      0.415000          0.134255E-03
      0.420000          0.131920E-03
      0.425000          0.128229E-03
      0.430000          0.123519E-03
      0.435000          0.118504E-03
      0.440000          0.113943E-03
      0.445000          0.110307E-03
      0.450000          0.107590E-03
      0.455000          0.105348E-03
      0.460000          0.102919E-03
      0.465000          0.997371E-04
      0.470000          0.955662E-04
      0.475000          0.905815E-04
      0.480000          0.852665E-04
      0.485000          0.801979E-04
      0.490000          0.758235E-04
      0.495000          0.723282E-04
      0.500000          0.696266E-04
