 I_abs(s)[cm^-1]/c[mg/ml]
       0.00000          0.121174E-01
      0.500000E-02      0.118765E-01
      0.100000E-01      0.111897E-01
      0.150000E-01      0.101568E-01
      0.200000E-01      0.891802E-02
      0.250000E-01      0.762290E-02
      0.300000E-01      0.640072E-02
      0.350000E-01      0.533929E-02
      0.400000E-01      0.447715E-02
      0.450000E-01      0.380905E-02
      0.500000E-01      0.330063E-02
      0.550000E-01      0.290640E-02
      0.600000E-01      0.258510E-02
      0.650000E-01      0.230858E-02
      0.700000E-01      0.206353E-02
      0.750000E-01      0.184754E-02
      0.800000E-01      0.166295E-02
      0.850000E-01      0.151127E-02
      0.900000E-01      0.139028E-02
      0.950000E-01      0.129397E-02
      0.100000          0.121448E-02
      0.105000          0.114447E-02
      0.110000          0.107877E-02
      0.115000          0.101478E-02
      0.120000          0.951887E-03
      0.125000          0.890442E-03
      0.130000          0.831072E-03
      0.135000          0.774419E-03
      0.140000          0.721280E-03
      0.145000          0.672781E-03
      0.150000          0.630275E-03
      0.155000          0.594916E-03
      0.160000          0.567089E-03
      0.165000          0.546029E-03
      0.170000          0.529883E-03
      0.175000          0.516240E-03
      0.180000          0.502930E-03
      0.185000          0.488745E-03
      0.190000          0.473763E-03
      0.195000          0.459156E-03
      0.200000          0.446575E-03
      0.205000          0.437383E-03
      0.210000          0.432039E-03
      0.215000          0.429871E-03
      0.220000          0.429274E-03
      0.225000          0.428221E-03
      0.230000          0.424886E-03
      0.235000          0.418139E-03
      0.240000          0.407800E-03
      0.245000          0.394581E-03
      0.250000          0.379793E-03
      0.255000          0.364915E-03
      0.260000          0.351177E-03
      0.265000          0.339249E-03
      0.270000          0.329125E-03
      0.275000          0.320207E-03
      0.280000          0.311570E-03
      0.285000          0.302301E-03
      0.290000          0.291828E-03
      0.295000          0.280106E-03
      0.300000          0.267617E-03
      0.305000          0.255181E-03
      0.310000          0.243640E-03
      0.315000          0.233554E-03
      0.320000          0.225014E-03
      0.325000          0.217635E-03
      0.330000          0.210740E-03
      0.335000          0.203635E-03
      0.340000          0.195881E-03
      0.345000          0.187440E-03
      0.350000          0.178666E-03
      0.355000          0.170145E-03
      0.360000          0.162471E-03
      0.365000          0.156041E-03
      0.370000          0.150941E-03
      0.375000          0.146949E-03
      0.380000          0.143631E-03
      0.385000          0.140484E-03
      0.390000          0.137056E-03
      0.395000          0.133045E-03
      0.400000          0.128331E-03
      0.405000          0.122977E-03
      0.410000          0.117205E-03
      0.415000          0.111356E-03
      0.420000          0.105827E-03
      0.425000          0.100999E-03
      0.430000          0.971591E-04
      0.435000          0.944222E-04
      0.440000          0.926941E-04
      0.445000          0.916804E-04
      0.450000          0.909528E-04
      0.455000          0.900528E-04
      0.460000          0.886053E-04
      0.465000          0.864059E-04
      0.470000          0.834582E-04
      0.475000          0.799522E-04
      0.480000          0.761971E-04
      0.485000          0.725308E-04
      0.490000          0.692348E-04
      0.495000          0.664764E-04
      0.500000          0.642886E-04
