 I_abs(s)[cm^-1]/c[mg/ml]
       0.00000          0.121536E-01
      0.500000E-02      0.118814E-01
      0.100000E-01      0.111147E-01
      0.150000E-01      0.998901E-02
      0.200000E-01      0.868521E-02
      0.250000E-01      0.738104E-02
      0.300000E-01      0.620996E-02
      0.350000E-01      0.524074E-02
      0.400000E-01      0.448065E-02
      0.450000E-01      0.389601E-02
      0.500000E-01      0.343837E-02
      0.550000E-01      0.306529E-02
      0.600000E-01      0.274980E-02
      0.650000E-01      0.247917E-02
      0.700000E-01      0.224803E-02
      0.750000E-01      0.205187E-02
      0.800000E-01      0.188443E-02
      0.850000E-01      0.173893E-02
      0.900000E-01      0.161066E-02
      0.950000E-01      0.149829E-02
      0.100000          0.140271E-02
      0.105000          0.132432E-02
      0.110000          0.126076E-02
      0.115000          0.120659E-02
      0.120000          0.115519E-02
      0.125000          0.110153E-02
      0.130000          0.104404E-02
      0.135000          0.984676E-03
      0.140000          0.927205E-03
      0.145000          0.874907E-03
      0.150000          0.829070E-03
      0.155000          0.788909E-03
      0.160000          0.752666E-03
      0.165000          0.718970E-03
      0.170000          0.687560E-03
      0.175000          0.659049E-03
      0.180000          0.634049E-03
      0.185000          0.612363E-03
      0.190000          0.592789E-03
      0.195000          0.573627E-03
      0.200000          0.553507E-03
      0.205000          0.532007E-03
      0.210000          0.509727E-03
      0.215000          0.487824E-03
      0.220000          0.467365E-03
      0.225000          0.448858E-03
      0.230000          0.432188E-03
      0.235000          0.416878E-03
      0.240000          0.402456E-03
      0.245000          0.388677E-03
      0.250000          0.375513E-03
      0.255000          0.362986E-03
      0.260000          0.350998E-03
      0.265000          0.339292E-03
      0.270000          0.327564E-03
      0.275000          0.315639E-03
      0.280000          0.303589E-03
      0.285000          0.291721E-03
      0.290000          0.280432E-03
      0.295000          0.270017E-03
      0.300000          0.260534E-03
      0.305000          0.251790E-03
      0.310000          0.243460E-03
      0.315000          0.235266E-03
      0.320000          0.227122E-03
      0.325000          0.219169E-03
      0.330000          0.211670E-03
      0.335000          0.204830E-03
      0.340000          0.198628E-03
      0.345000          0.192774E-03
      0.350000          0.186819E-03
      0.355000          0.180377E-03
      0.360000          0.173332E-03
      0.365000          0.165926E-03
      0.370000          0.158655E-03
      0.375000          0.152030E-03
      0.380000          0.146327E-03
      0.385000          0.141462E-03
      0.390000          0.137057E-03
      0.395000          0.132649E-03
      0.400000          0.127926E-03
      0.405000          0.122854E-03
      0.410000          0.117635E-03
      0.415000          0.112550E-03
      0.420000          0.107786E-03
      0.425000          0.103354E-03
      0.430000          0.991368E-04
      0.435000          0.950120E-04
      0.440000          0.909617E-04
      0.445000          0.870962E-04
      0.450000          0.835856E-04
      0.455000          0.805558E-04
      0.460000          0.780205E-04
      0.465000          0.758866E-04
      0.470000          0.740160E-04
      0.475000          0.722902E-04
      0.480000          0.706338E-04
      0.485000          0.689925E-04
      0.490000          0.673010E-04
      0.495000          0.654818E-04
      0.500000          0.634866E-04
