 I_abs(s)[cm^-1]/c[mg/ml]
       0.00000          0.121754E-01
      0.500000E-02      0.119278E-01
      0.100000E-01      0.112165E-01
      0.150000E-01      0.101299E-01
      0.200000E-01      0.879732E-02
      0.250000E-01      0.736639E-02
      0.300000E-01      0.597838E-02
      0.350000E-01      0.474708E-02
      0.400000E-01      0.374490E-02
      0.450000E-01      0.299834E-02
      0.500000E-01      0.249257E-02
      0.550000E-01      0.218298E-02
      0.600000E-01      0.201009E-02
      0.650000E-01      0.191417E-02
      0.700000E-01      0.184651E-02
      0.750000E-01      0.177555E-02
      0.800000E-01      0.168765E-02
      0.850000E-01      0.158358E-02
      0.900000E-01      0.147271E-02
      0.950000E-01      0.136679E-02
      0.100000          0.127509E-02
      0.105000          0.120178E-02
      0.110000          0.114559E-02
      0.115000          0.110126E-02
      0.120000          0.106182E-02
      0.125000          0.102090E-02
      0.130000          0.974342E-03
      0.135000          0.920826E-03
      0.140000          0.861658E-03
      0.145000          0.799928E-03
      0.150000          0.739458E-03
      0.155000          0.683844E-03
      0.160000          0.635799E-03
      0.165000          0.596842E-03
      0.170000          0.567276E-03
      0.175000          0.546376E-03
      0.180000          0.532653E-03
      0.185000          0.524145E-03
      0.190000          0.518688E-03
      0.195000          0.514159E-03
      0.200000          0.508680E-03
      0.205000          0.500787E-03
      0.210000          0.489554E-03
      0.215000          0.474639E-03
      0.220000          0.456269E-03
      0.225000          0.435145E-03
      0.230000          0.412295E-03
      0.235000          0.388900E-03
      0.240000          0.366109E-03
      0.245000          0.344893E-03
      0.250000          0.325937E-03
      0.255000          0.309605E-03
      0.260000          0.295953E-03
      0.265000          0.284803E-03
      0.270000          0.275835E-03
      0.275000          0.268684E-03
      0.280000          0.263008E-03
      0.285000          0.258511E-03
      0.290000          0.254921E-03
      0.295000          0.251936E-03
      0.300000          0.249162E-03
      0.305000          0.246099E-03
      0.310000          0.242167E-03
      0.315000          0.236812E-03
      0.320000          0.229643E-03
      0.325000          0.220571E-03
      0.330000          0.209893E-03
      0.335000          0.198285E-03
      0.340000          0.186675E-03
      0.345000          0.176043E-03
      0.350000          0.167179E-03
      0.355000          0.160487E-03
      0.360000          0.155884E-03
      0.365000          0.152847E-03
      0.370000          0.150572E-03
      0.375000          0.148217E-03
      0.380000          0.145147E-03
      0.385000          0.141095E-03
      0.390000          0.136211E-03
      0.395000          0.130972E-03
      0.400000          0.125997E-03
      0.405000          0.121830E-03
      0.410000          0.118762E-03
      0.415000          0.116748E-03
      0.420000          0.115440E-03
      0.425000          0.114308E-03
      0.430000          0.112822E-03
      0.435000          0.110607E-03
      0.440000          0.107549E-03
      0.445000          0.103801E-03
      0.450000          0.997148E-04
      0.455000          0.957144E-04
      0.460000          0.921683E-04
      0.465000          0.892892E-04
      0.470000          0.870957E-04
      0.475000          0.854363E-04
      0.480000          0.840589E-04
      0.485000          0.827005E-04
      0.490000          0.811642E-04
      0.495000          0.793658E-04
      0.500000          0.773390E-04
