 I_abs(s)[cm^-1]/c[mg/ml]
       0.00000          0.122481E-01
      0.500000E-02      0.119608E-01
      0.100000E-01      0.111527E-01
      0.150000E-01      0.996884E-02
      0.200000E-01      0.860269E-02
      0.250000E-01      0.724361E-02
      0.300000E-01      0.603246E-02
      0.350000E-01      0.503969E-02
      0.400000E-01      0.426938E-02
      0.450000E-01      0.368233E-02
      0.500000E-01      0.322529E-02
      0.550000E-01      0.285385E-02
      0.600000E-01      0.254203E-02
      0.650000E-01      0.227948E-02
      0.700000E-01      0.206221E-02
      0.750000E-01      0.188442E-02
      0.800000E-01      0.173595E-02
      0.850000E-01      0.160537E-02
      0.900000E-01      0.148508E-02
      0.950000E-01      0.137435E-02
      0.100000          0.127796E-02
      0.105000          0.120140E-02
      0.110000          0.114579E-02
      0.115000          0.110563E-02
      0.120000          0.107078E-02
      0.125000          0.103120E-02
      0.130000          0.981781E-03
      0.135000          0.924255E-03
      0.140000          0.865520E-03
      0.145000          0.813368E-03
      0.150000          0.772227E-03
      0.155000          0.741146E-03
      0.160000          0.714854E-03
      0.165000          0.686937E-03
      0.170000          0.653175E-03
      0.175000          0.613261E-03
      0.180000          0.570265E-03
      0.185000          0.528511E-03
      0.190000          0.491309E-03
      0.195000          0.459744E-03
      0.200000          0.432963E-03
      0.205000          0.409415E-03
      0.210000          0.388098E-03
      0.215000          0.369059E-03
      0.220000          0.353019E-03
      0.225000          0.340559E-03
      0.230000          0.331528E-03
      0.235000          0.325040E-03
      0.240000          0.319989E-03
      0.245000          0.315627E-03
      0.250000          0.311780E-03
      0.255000          0.308567E-03
      0.260000          0.305843E-03
      0.265000          0.302811E-03
      0.270000          0.298107E-03
      0.275000          0.290336E-03
      0.280000          0.278776E-03
      0.285000          0.263797E-03
      0.290000          0.246788E-03
      0.295000          0.229623E-03
      0.300000          0.213966E-03
      0.305000          0.200787E-03
      0.310000          0.190252E-03
      0.315000          0.181968E-03
      0.320000          0.175349E-03
      0.325000          0.169883E-03
      0.330000          0.165209E-03
      0.335000          0.161053E-03
      0.340000          0.157163E-03
      0.345000          0.153338E-03
      0.350000          0.149523E-03
      0.355000          0.145885E-03
      0.360000          0.142750E-03
      0.365000          0.140411E-03
      0.370000          0.138899E-03
      0.375000          0.137868E-03
      0.380000          0.136687E-03
      0.385000          0.134700E-03
      0.390000          0.131524E-03
      0.395000          0.127216E-03
      0.400000          0.122227E-03
      0.405000          0.117168E-03
      0.410000          0.112539E-03
      0.415000          0.108549E-03
      0.420000          0.105116E-03
      0.425000          0.102007E-03
      0.430000          0.990116E-04
      0.435000          0.960530E-04
      0.440000          0.931876E-04
      0.445000          0.905298E-04
      0.450000          0.881720E-04
      0.455000          0.861533E-04
      0.460000          0.844796E-04
      0.465000          0.831532E-04
      0.470000          0.821689E-04
      0.475000          0.814670E-04
      0.480000          0.808808E-04
      0.485000          0.801334E-04
      0.490000          0.789124E-04
      0.495000          0.769976E-04
      0.500000          0.743736E-04
