 I_abs(s)[cm^-1]/c[mg/ml]
       0.00000          0.119012E-01
      0.500000E-02      0.116009E-01
      0.100000E-01      0.107601E-01
      0.150000E-01      0.954093E-02
      0.200000E-01      0.815854E-02
      0.250000E-01      0.682004E-02
      0.300000E-01      0.567362E-02
      0.350000E-01      0.478352E-02
      0.400000E-01      0.413583E-02
      0.450000E-01      0.366757E-02
      0.500000E-01      0.330404E-02
      0.550000E-01      0.298854E-02
      0.600000E-01      0.269541E-02
      0.650000E-01      0.242542E-02
      0.700000E-01      0.219104E-02
      0.750000E-01      0.200105E-02
      0.800000E-01      0.185239E-02
      0.850000E-01      0.173137E-02
      0.900000E-01      0.162129E-02
      0.950000E-01      0.151081E-02
      0.100000          0.139813E-02
      0.105000          0.128948E-02
      0.110000          0.119352E-02
      0.115000          0.111557E-02
      0.120000          0.105455E-02
      0.125000          0.100411E-02
      0.130000          0.956340E-03
      0.135000          0.905829E-03
      0.140000          0.851782E-03
      0.145000          0.797444E-03
      0.150000          0.747654E-03
      0.155000          0.706149E-03
      0.160000          0.673999E-03
      0.165000          0.649655E-03
      0.170000          0.630120E-03
      0.175000          0.612340E-03
      0.180000          0.594091E-03
      0.185000          0.574184E-03
      0.190000          0.552278E-03
      0.195000          0.528672E-03
      0.200000          0.504242E-03
      0.205000          0.480366E-03
      0.210000          0.458621E-03
      0.215000          0.440189E-03
      0.220000          0.425246E-03
      0.225000          0.412731E-03
      0.230000          0.400761E-03
      0.235000          0.387575E-03
      0.240000          0.372497E-03
      0.245000          0.356368E-03
      0.250000          0.341128E-03
      0.255000          0.328750E-03
      0.260000          0.320134E-03
      0.265000          0.314584E-03
      0.270000          0.310179E-03
      0.275000          0.304799E-03
      0.280000          0.297186E-03
      0.285000          0.287437E-03
      0.290000          0.276659E-03
      0.295000          0.266078E-03
      0.300000          0.256198E-03
      0.305000          0.246546E-03
      0.310000          0.236150E-03
      0.315000          0.224415E-03
      0.320000          0.211790E-03
      0.325000          0.199750E-03
      0.330000          0.190068E-03
      0.335000          0.183796E-03
      0.340000          0.180587E-03
      0.345000          0.178805E-03
      0.350000          0.176379E-03
      0.355000          0.171928E-03
      0.360000          0.165494E-03
      0.365000          0.158461E-03
      0.370000          0.152702E-03
      0.375000          0.149454E-03
      0.380000          0.148576E-03
      0.385000          0.148584E-03
      0.390000          0.147448E-03
      0.395000          0.143659E-03
      0.400000          0.136982E-03
      0.405000          0.128495E-03
      0.410000          0.119953E-03
      0.415000          0.112867E-03
      0.420000          0.107825E-03
      0.425000          0.104396E-03
      0.430000          0.101571E-03
      0.435000          0.984437E-04
      0.440000          0.946903E-04
      0.445000          0.906145E-04
      0.450000          0.868015E-04
      0.455000          0.836508E-04
      0.460000          0.811017E-04
      0.465000          0.787054E-04
      0.470000          0.759592E-04
      0.475000          0.726616E-04
      0.480000          0.690518E-04
      0.485000          0.656542E-04
      0.490000          0.629458E-04
      0.495000          0.610654E-04
      0.500000          0.597469E-04
