 I_abs(s)[cm^-1]/c[mg/ml]
       0.00000          0.120307E-01
      0.500000E-02      0.117945E-01
      0.100000E-01      0.111228E-01
      0.150000E-01      0.101165E-01
      0.200000E-01      0.891556E-02
      0.250000E-01      0.766615E-02
      0.300000E-01      0.649054E-02
      0.350000E-01      0.546778E-02
      0.400000E-01      0.462929E-02
      0.450000E-01      0.396732E-02
      0.500000E-01      0.345116E-02
      0.550000E-01      0.304386E-02
      0.600000E-01      0.271417E-02
      0.650000E-01      0.244130E-02
      0.700000E-01      0.221364E-02
      0.750000E-01      0.202440E-02
      0.800000E-01      0.186745E-02
      0.850000E-01      0.173553E-02
      0.900000E-01      0.162087E-02
      0.950000E-01      0.151717E-02
      0.100000          0.142123E-02
      0.105000          0.133312E-02
      0.110000          0.125485E-02
      0.115000          0.118838E-02
      0.120000          0.113382E-02
      0.125000          0.108891E-02
      0.130000          0.104964E-02
      0.135000          0.101160E-02
      0.140000          0.971425E-03
      0.145000          0.927566E-03
      0.150000          0.880347E-03
      0.155000          0.831338E-03
      0.160000          0.782544E-03
      0.165000          0.735719E-03
      0.170000          0.692039E-03
      0.175000          0.652084E-03
      0.180000          0.616010E-03
      0.185000          0.583732E-03
      0.190000          0.555053E-03
      0.195000          0.529700E-03
      0.200000          0.507331E-03
      0.205000          0.487539E-03
      0.210000          0.469882E-03
      0.215000          0.453911E-03
      0.220000          0.439207E-03
      0.225000          0.425396E-03
      0.230000          0.412167E-03
      0.235000          0.399277E-03
      0.240000          0.386560E-03
      0.245000          0.373927E-03
      0.250000          0.361345E-03
      0.255000          0.348809E-03
      0.260000          0.336309E-03
      0.265000          0.323828E-03
      0.270000          0.311355E-03
      0.275000          0.298921E-03
      0.280000          0.286636E-03
      0.285000          0.274684E-03
      0.290000          0.263295E-03
      0.295000          0.252675E-03
      0.300000          0.242940E-03
      0.305000          0.234078E-03
      0.310000          0.225948E-03
      0.315000          0.218333E-03
      0.320000          0.211005E-03
      0.325000          0.203788E-03
      0.330000          0.196597E-03
      0.335000          0.189431E-03
      0.340000          0.182348E-03
      0.345000          0.175418E-03
      0.350000          0.168690E-03
      0.355000          0.162172E-03
      0.360000          0.155834E-03
      0.365000          0.149625E-03
      0.370000          0.143505E-03
      0.375000          0.137462E-03
      0.380000          0.131524E-03
      0.385000          0.125765E-03
      0.390000          0.120284E-03
      0.395000          0.115187E-03
      0.400000          0.110556E-03
      0.405000          0.106435E-03
      0.410000          0.102813E-03
      0.415000          0.996358E-04
      0.420000          0.968177E-04
      0.425000          0.942735E-04
      0.430000          0.919412E-04
      0.435000          0.897938E-04
      0.440000          0.878340E-04
      0.445000          0.860719E-04
      0.450000          0.844974E-04
      0.455000          0.830588E-04
      0.460000          0.816616E-04
      0.465000          0.801894E-04
      0.470000          0.785411E-04
      0.475000          0.766673E-04
      0.480000          0.745909E-04
      0.485000          0.724000E-04
      0.490000          0.702165E-04
      0.495000          0.681528E-04
      0.500000          0.662790E-04
