 I_abs(s)[cm^-1]/c[mg/ml]
       0.00000          0.116727E-01
      0.500000E-02      0.113658E-01
      0.100000E-01      0.105085E-01
      0.150000E-01      0.927160E-02
      0.200000E-01      0.788022E-02
      0.250000E-01      0.654934E-02
      0.300000E-01      0.543004E-02
      0.350000E-01      0.458431E-02
      0.400000E-01      0.399271E-02
      0.450000E-01      0.358584E-02
      0.500000E-01      0.328342E-02
      0.550000E-01      0.302445E-02
      0.600000E-01      0.277960E-02
      0.650000E-01      0.254612E-02
      0.700000E-01      0.233334E-02
      0.750000E-01      0.214853E-02
      0.800000E-01      0.199005E-02
      0.850000E-01      0.184894E-02
      0.900000E-01      0.171543E-02
      0.950000E-01      0.158489E-02
      0.100000          0.145957E-02
      0.105000          0.134576E-02
      0.110000          0.124888E-02
      0.115000          0.116982E-02
      0.120000          0.110453E-02
      0.125000          0.104665E-02
      0.130000          0.991109E-03
      0.135000          0.936453E-03
      0.140000          0.884642E-03
      0.145000          0.838916E-03
      0.150000          0.801208E-03
      0.155000          0.770742E-03
      0.160000          0.744416E-03
      0.165000          0.718480E-03
      0.170000          0.690332E-03
      0.175000          0.659398E-03
      0.180000          0.626811E-03
      0.185000          0.594339E-03
      0.190000          0.563359E-03
      0.195000          0.534449E-03
      0.200000          0.507641E-03
      0.205000          0.482925E-03
      0.210000          0.460528E-03
      0.215000          0.440756E-03
      0.220000          0.423559E-03
      0.225000          0.408224E-03
      0.230000          0.393497E-03
      0.235000          0.378123E-03
      0.240000          0.361495E-03
      0.245000          0.344017E-03
      0.250000          0.326927E-03
      0.255000          0.311684E-03
      0.260000          0.299236E-03
      0.265000          0.289569E-03
      0.270000          0.281744E-03
      0.275000          0.274374E-03
      0.280000          0.266250E-03
      0.285000          0.256822E-03
      0.290000          0.246319E-03
      0.295000          0.235524E-03
      0.300000          0.225373E-03
      0.305000          0.216573E-03
      0.310000          0.209405E-03
      0.315000          0.203733E-03
      0.320000          0.199145E-03
      0.325000          0.195138E-03
      0.330000          0.191258E-03
      0.335000          0.187158E-03
      0.340000          0.182607E-03
      0.345000          0.177475E-03
      0.350000          0.171715E-03
      0.355000          0.165376E-03
      0.360000          0.158607E-03
      0.365000          0.151648E-03
      0.370000          0.144794E-03
      0.375000          0.138317E-03
      0.380000          0.132383E-03
      0.385000          0.126985E-03
      0.390000          0.121944E-03
      0.395000          0.116973E-03
      0.400000          0.111809E-03
      0.405000          0.106350E-03
      0.410000          0.100728E-03
      0.415000          0.952820E-04
      0.420000          0.904264E-04
      0.425000          0.864724E-04
      0.430000          0.834871E-04
      0.435000          0.812674E-04
      0.440000          0.794444E-04
      0.445000          0.776688E-04
      0.450000          0.757792E-04
      0.455000          0.738628E-04
      0.460000          0.721735E-04
      0.465000          0.709508E-04
      0.470000          0.702400E-04
      0.475000          0.698154E-04
      0.480000          0.692512E-04
      0.485000          0.681057E-04
      0.490000          0.661207E-04
      0.495000          0.633350E-04
      0.500000          0.600590E-04
