 I_abs(s)[cm^-1]/c[mg/ml]
       0.00000          0.120235E-01
      0.500000E-02      0.117388E-01
      0.100000E-01      0.109345E-01
      0.150000E-01      0.974637E-02
      0.200000E-01      0.836085E-02
      0.250000E-01      0.696913E-02
      0.300000E-01      0.572441E-02
      0.350000E-01      0.471514E-02
      0.400000E-01      0.395980E-02
      0.450000E-01      0.342161E-02
      0.500000E-01      0.303527E-02
      0.550000E-01      0.273482E-02
      0.600000E-01      0.247363E-02
      0.650000E-01      0.223161E-02
      0.700000E-01      0.201045E-02
      0.750000E-01      0.182195E-02
      0.800000E-01      0.167576E-02
      0.850000E-01      0.157177E-02
      0.900000E-01      0.149930E-02
      0.950000E-01      0.144178E-02
      0.100000          0.138358E-02
      0.105000          0.131546E-02
      0.110000          0.123642E-02
      0.115000          0.115182E-02
      0.120000          0.106929E-02
      0.125000          0.994739E-03
      0.130000          0.930221E-03
      0.135000          0.874178E-03
      0.140000          0.823379E-03
      0.145000          0.775221E-03
      0.150000          0.729123E-03
      0.155000          0.686456E-03
      0.160000          0.649287E-03
      0.165000          0.618797E-03
      0.170000          0.594275E-03
      0.175000          0.573191E-03
      0.180000          0.552250E-03
      0.185000          0.528853E-03
      0.190000          0.502237E-03
      0.195000          0.473782E-03
      0.200000          0.446389E-03
      0.205000          0.423250E-03
      0.210000          0.406565E-03
      0.215000          0.396707E-03
      0.220000          0.392124E-03
      0.225000          0.389931E-03
      0.230000          0.386905E-03
      0.235000          0.380479E-03
      0.240000          0.369414E-03
      0.245000          0.353956E-03
      0.250000          0.335517E-03
      0.255000          0.316063E-03
      0.260000          0.297431E-03
      0.265000          0.280834E-03
      0.270000          0.266657E-03
      0.275000          0.254564E-03
      0.280000          0.243832E-03
      0.285000          0.233742E-03
      0.290000          0.223877E-03
      0.295000          0.214235E-03
      0.300000          0.205134E-03
      0.305000          0.196988E-03
      0.310000          0.190063E-03
      0.315000          0.184324E-03
      0.320000          0.179434E-03
      0.325000          0.174887E-03
      0.330000          0.170199E-03
      0.335000          0.165078E-03
      0.340000          0.159499E-03
      0.345000          0.153666E-03
      0.350000          0.147898E-03
      0.355000          0.142507E-03
      0.360000          0.137712E-03
      0.365000          0.133610E-03
      0.370000          0.130198E-03
      0.375000          0.127404E-03
      0.380000          0.125108E-03
      0.385000          0.123138E-03
      0.390000          0.121269E-03
      0.395000          0.119244E-03
      0.400000          0.116824E-03
      0.405000          0.113864E-03
      0.410000          0.110376E-03
      0.415000          0.106545E-03
      0.420000          0.102681E-03
      0.425000          0.991252E-04
      0.430000          0.961394E-04
      0.435000          0.938331E-04
      0.440000          0.921450E-04
      0.445000          0.908859E-04
      0.450000          0.898132E-04
      0.455000          0.887038E-04
      0.460000          0.873953E-04
      0.465000          0.857919E-04
      0.470000          0.838482E-04
      0.475000          0.815521E-04
      0.480000          0.789237E-04
      0.485000          0.760279E-04
      0.490000          0.729864E-04
      0.495000          0.699700E-04
      0.500000          0.671633E-04
