 I_abs(s)[cm^-1]/c[mg/ml]
       0.00000          0.121899E-01
      0.500000E-02      0.119301E-01
      0.100000E-01      0.111954E-01
      0.150000E-01      0.101071E-01
      0.200000E-01      0.883122E-02
      0.250000E-01      0.753609E-02
      0.300000E-01      0.635543E-02
      0.350000E-01      0.536599E-02
      0.400000E-01      0.458528E-02
      0.450000E-01      0.398615E-02
      0.500000E-01      0.352016E-02
      0.550000E-01      0.313985E-02
      0.600000E-01      0.281261E-02
      0.650000E-01      0.252380E-02
      0.700000E-01      0.227123E-02
      0.750000E-01      0.205644E-02
      0.800000E-01      0.187773E-02
      0.850000E-01      0.172799E-02
      0.900000E-01      0.159706E-02
      0.950000E-01      0.147609E-02
      0.100000          0.136101E-02
      0.105000          0.125312E-02
      0.110000          0.115681E-02
      0.115000          0.107597E-02
      0.120000          0.101127E-02
      0.125000          0.959486E-03
      0.130000          0.915084E-03
      0.135000          0.872828E-03
      0.140000          0.829960E-03
      0.145000          0.786833E-03
      0.150000          0.745898E-03
      0.155000          0.709800E-03
      0.160000          0.679694E-03
      0.165000          0.654616E-03
      0.170000          0.632073E-03
      0.175000          0.609342E-03
      0.180000          0.584708E-03
      0.185000          0.558020E-03
      0.190000          0.530410E-03
      0.195000          0.503482E-03
      0.200000          0.478498E-03
      0.205000          0.455948E-03
      0.210000          0.435647E-03
      0.215000          0.417124E-03
      0.220000          0.400013E-03
      0.225000          0.384185E-03
      0.230000          0.369618E-03
      0.235000          0.356139E-03
      0.240000          0.343276E-03
      0.245000          0.330329E-03
      0.250000          0.316629E-03
      0.255000          0.301842E-03
      0.260000          0.286146E-03
      0.265000          0.270182E-03
      0.270000          0.254848E-03
      0.275000          0.241019E-03
      0.280000          0.229331E-03
      0.285000          0.220085E-03
      0.290000          0.213242E-03
      0.295000          0.208476E-03
      0.300000          0.205234E-03
      0.305000          0.202808E-03
      0.310000          0.200441E-03
      0.315000          0.197477E-03
      0.320000          0.193518E-03
      0.325000          0.188525E-03
      0.330000          0.182789E-03
      0.335000          0.176777E-03
      0.340000          0.170908E-03
      0.345000          0.165377E-03
      0.350000          0.160103E-03
      0.355000          0.154841E-03
      0.360000          0.149370E-03
      0.365000          0.143643E-03
      0.370000          0.137817E-03
      0.375000          0.132133E-03
      0.380000          0.126749E-03
      0.385000          0.121629E-03
      0.390000          0.116597E-03
      0.395000          0.111524E-03
      0.400000          0.106550E-03
      0.405000          0.102190E-03
      0.410000          0.992062E-04
      0.415000          0.982941E-04
      0.420000          0.996956E-04
      0.425000          0.102957E-03
      0.430000          0.106970E-03
      0.435000          0.110306E-03
      0.440000          0.111717E-03
      0.445000          0.110576E-03
      0.450000          0.107059E-03
      0.455000          0.102007E-03
      0.460000          0.965300E-04
      0.465000          0.915590E-04
      0.470000          0.875413E-04
      0.475000          0.843941E-04
      0.480000          0.817010E-04
      0.485000          0.790172E-04
      0.490000          0.761201E-04
      0.495000          0.730898E-04
      0.500000          0.702099E-04
