 I_abs(s)[cm^-1]/c[mg/ml]
       0.00000          0.122190E-01
      0.500000E-02      0.119365E-01
      0.100000E-01      0.111402E-01
      0.150000E-01      0.996871E-02
      0.200000E-01      0.861132E-02
      0.250000E-01      0.725930E-02
      0.300000E-01      0.606235E-02
      0.350000E-01      0.510227E-02
      0.400000E-01      0.438963E-02
      0.450000E-01      0.388090E-02
      0.500000E-01      0.350669E-02
      0.550000E-01      0.320009E-02
      0.600000E-01      0.291571E-02
      0.650000E-01      0.263570E-02
      0.700000E-01      0.236413E-02
      0.750000E-01      0.211530E-02
      0.800000E-01      0.190219E-02
      0.850000E-01      0.172950E-02
      0.900000E-01      0.159265E-02
      0.950000E-01      0.148130E-02
      0.100000          0.138439E-02
      0.105000          0.129413E-02
      0.110000          0.120748E-02
      0.115000          0.112530E-02
      0.120000          0.105032E-02
      0.125000          0.985146E-03
      0.130000          0.931026E-03
      0.135000          0.887583E-03
      0.140000          0.853104E-03
      0.145000          0.825018E-03
      0.150000          0.800361E-03
      0.155000          0.776227E-03
      0.160000          0.750272E-03
      0.165000          0.721215E-03
      0.170000          0.689170E-03
      0.175000          0.655551E-03
      0.180000          0.622510E-03
      0.185000          0.592052E-03
      0.190000          0.565199E-03
      0.195000          0.541598E-03
      0.200000          0.519752E-03
      0.205000          0.497775E-03
      0.210000          0.474311E-03
      0.215000          0.449175E-03
      0.220000          0.423442E-03
      0.225000          0.398966E-03
      0.230000          0.377566E-03
      0.235000          0.360268E-03
      0.240000          0.346901E-03
      0.245000          0.336200E-03
      0.250000          0.326317E-03
      0.255000          0.315506E-03
      0.260000          0.302707E-03
      0.265000          0.287842E-03
      0.270000          0.271731E-03
      0.275000          0.255723E-03
      0.280000          0.241170E-03
      0.285000          0.228933E-03
      0.290000          0.219104E-03
      0.295000          0.210998E-03
      0.300000          0.203446E-03
      0.305000          0.195269E-03
      0.310000          0.185755E-03
      0.315000          0.174964E-03
      0.320000          0.163721E-03
      0.325000          0.153291E-03
      0.330000          0.144871E-03
      0.335000          0.139088E-03
      0.340000          0.135746E-03
      0.345000          0.133911E-03
      0.350000          0.132312E-03
      0.355000          0.129880E-03
      0.360000          0.126177E-03
      0.365000          0.121556E-03
      0.370000          0.116962E-03
      0.375000          0.113492E-03
      0.380000          0.111915E-03
      0.385000          0.112340E-03
      0.390000          0.114175E-03
      0.395000          0.116368E-03
      0.400000          0.117797E-03
      0.405000          0.117654E-03
      0.410000          0.115661E-03
      0.415000          0.112071E-03
      0.420000          0.107478E-03
      0.425000          0.102550E-03
      0.430000          0.977959E-04
      0.435000          0.934494E-04
      0.440000          0.894916E-04
      0.445000          0.857721E-04
      0.450000          0.821577E-04
      0.455000          0.786394E-04
      0.460000          0.753560E-04
      0.465000          0.725353E-04
      0.470000          0.703857E-04
      0.475000          0.689929E-04
      0.480000          0.682655E-04
      0.485000          0.679528E-04
      0.490000          0.677253E-04
      0.495000          0.672823E-04
      0.500000          0.664421E-04
