 I_abs(s)[cm^-1]/c[mg/ml]
       0.00000          0.121464E-01
      0.500000E-02      0.119005E-01
      0.100000E-01      0.111944E-01
      0.150000E-01      0.101175E-01
      0.200000E-01      0.880018E-02
      0.250000E-01      0.739102E-02
      0.300000E-01      0.603161E-02
      0.350000E-01      0.483488E-02
      0.400000E-01      0.387080E-02
      0.450000E-01      0.316184E-02
      0.500000E-01      0.268794E-02
      0.550000E-01      0.239886E-02
      0.600000E-01      0.223036E-02
      0.650000E-01      0.211998E-02
      0.700000E-01      0.201931E-02
      0.750000E-01      0.190042E-02
      0.800000E-01      0.175622E-02
      0.850000E-01      0.159573E-02
      0.900000E-01      0.143661E-02
      0.950000E-01      0.129719E-02
      0.100000          0.119034E-02
      0.105000          0.112017E-02
      0.110000          0.108212E-02
      0.115000          0.106540E-02
      0.120000          0.105682E-02
      0.125000          0.104460E-02
      0.130000          0.102102E-02
      0.135000          0.983503E-03
      0.140000          0.934076E-03
      0.145000          0.877774E-03
      0.150000          0.820595E-03
      0.155000          0.767718E-03
      0.160000          0.722395E-03
      0.165000          0.685661E-03
      0.170000          0.656706E-03
      0.175000          0.633636E-03
      0.180000          0.614262E-03
      0.185000          0.596699E-03
      0.190000          0.579642E-03
      0.195000          0.562375E-03
      0.200000          0.544603E-03
      0.205000          0.526266E-03
      0.210000          0.507417E-03
      0.215000          0.488195E-03
      0.220000          0.468863E-03
      0.225000          0.449845E-03
      0.230000          0.431698E-03
      0.235000          0.415015E-03
      0.240000          0.400258E-03
      0.245000          0.387604E-03
      0.250000          0.376850E-03
      0.255000          0.367426E-03
      0.260000          0.358526E-03
      0.265000          0.349299E-03
      0.270000          0.339069E-03
      0.275000          0.327489E-03
      0.280000          0.314605E-03
      0.285000          0.300802E-03
      0.290000          0.286680E-03
      0.295000          0.272881E-03
      0.300000          0.259943E-03
      0.305000          0.248212E-03
      0.310000          0.237820E-03
      0.315000          0.228730E-03
      0.320000          0.220810E-03
      0.325000          0.213901E-03
      0.330000          0.207859E-03
      0.335000          0.202556E-03
      0.340000          0.197854E-03
      0.345000          0.193572E-03
      0.350000          0.189468E-03
      0.355000          0.185251E-03
      0.360000          0.180630E-03
      0.365000          0.175378E-03
      0.370000          0.169388E-03
      0.375000          0.162719E-03
      0.380000          0.155583E-03
      0.385000          0.148309E-03
      0.390000          0.141262E-03
      0.395000          0.134770E-03
      0.400000          0.129055E-03
      0.405000          0.124196E-03
      0.410000          0.120142E-03
      0.415000          0.116742E-03
      0.420000          0.113806E-03
      0.425000          0.111158E-03
      0.430000          0.108677E-03
      0.435000          0.106304E-03
      0.440000          0.104034E-03
      0.445000          0.101886E-03
      0.450000          0.998734E-04
      0.455000          0.979799E-04
      0.460000          0.961606E-04
      0.465000          0.943551E-04
      0.470000          0.925115E-04
      0.475000          0.906095E-04
      0.480000          0.886694E-04
      0.485000          0.867438E-04
      0.490000          0.848920E-04
      0.495000          0.831475E-04
      0.500000          0.814908E-04
