 I_abs(s)[cm^-1]/c[mg/ml]
       0.00000          0.120091E-01
      0.500000E-02      0.117869E-01
      0.100000E-01      0.111517E-01
      0.150000E-01      0.101898E-01
      0.200000E-01      0.902471E-02
      0.250000E-01      0.779103E-02
      0.300000E-01      0.660950E-02
      0.350000E-01      0.556757E-02
      0.400000E-01      0.471032E-02
      0.450000E-01      0.404229E-02
      0.500000E-01      0.353805E-02
      0.550000E-01      0.315693E-02
      0.600000E-01      0.285729E-02
      0.650000E-01      0.260646E-02
      0.700000E-01      0.238470E-02
      0.750000E-01      0.218385E-02
      0.800000E-01      0.200258E-02
      0.850000E-01      0.184128E-02
      0.900000E-01      0.169848E-02
      0.950000E-01      0.157005E-02
      0.100000          0.145061E-02
      0.105000          0.133598E-02
      0.110000          0.122521E-02
      0.115000          0.112107E-02
      0.120000          0.102878E-02
      0.125000          0.953696E-03
      0.130000          0.898792E-03
      0.135000          0.863183E-03
      0.140000          0.842073E-03
      0.145000          0.828137E-03
      0.150000          0.813707E-03
      0.155000          0.792886E-03
      0.160000          0.762887E-03
      0.165000          0.724228E-03
      0.170000          0.679913E-03
      0.175000          0.634030E-03
      0.180000          0.590369E-03
      0.185000          0.551483E-03
      0.190000          0.518412E-03
      0.195000          0.490951E-03
      0.200000          0.468224E-03
      0.205000          0.449234E-03
      0.210000          0.433196E-03
      0.215000          0.419597E-03
      0.220000          0.408066E-03
      0.225000          0.398201E-03
      0.230000          0.389469E-03
      0.235000          0.381244E-03
      0.240000          0.372932E-03
      0.245000          0.364111E-03
      0.250000          0.354609E-03
      0.255000          0.344488E-03
      0.260000          0.333944E-03
      0.265000          0.323190E-03
      0.270000          0.312371E-03
      0.275000          0.301548E-03
      0.280000          0.290740E-03
      0.285000          0.280001E-03
      0.290000          0.269467E-03
      0.295000          0.259360E-03
      0.300000          0.249942E-03
      0.305000          0.241432E-03
      0.310000          0.233931E-03
      0.315000          0.227384E-03
      0.320000          0.221583E-03
      0.325000          0.216221E-03
      0.330000          0.210966E-03
      0.335000          0.205542E-03
      0.340000          0.199784E-03
      0.345000          0.193662E-03
      0.350000          0.187271E-03
      0.355000          0.180787E-03
      0.360000          0.174413E-03
      0.365000          0.168319E-03
      0.370000          0.162591E-03
      0.375000          0.157221E-03
      0.380000          0.152124E-03
      0.385000          0.147176E-03
      0.390000          0.142277E-03
      0.395000          0.137394E-03
      0.400000          0.132575E-03
      0.405000          0.127928E-03
      0.410000          0.123570E-03
      0.415000          0.119566E-03
      0.420000          0.115897E-03
      0.425000          0.112462E-03
      0.430000          0.109129E-03
      0.435000          0.105801E-03
      0.440000          0.102478E-03
      0.445000          0.992769E-04
      0.450000          0.963891E-04
      0.455000          0.939993E-04
      0.460000          0.921887E-04
      0.465000          0.908713E-04
      0.470000          0.897954E-04
      0.475000          0.886152E-04
      0.480000          0.870109E-04
      0.485000          0.848078E-04
      0.490000          0.820454E-04
      0.495000          0.789658E-04
      0.500000          0.759217E-04
