 I_abs(s)[cm^-1]/c[mg/ml]
       0.00000          0.118869E-01
      0.500000E-02      0.116174E-01
      0.100000E-01      0.108483E-01
      0.150000E-01      0.968853E-02
      0.200000E-01      0.829454E-02
      0.250000E-01      0.683835E-02
      0.300000E-01      0.547564E-02
      0.350000E-01      0.432039E-02
      0.400000E-01      0.343161E-02
      0.450000E-01      0.281356E-02
      0.500000E-01      0.242757E-02
      0.550000E-01      0.221047E-02
      0.600000E-01      0.209399E-02
      0.650000E-01      0.202020E-02
      0.700000E-01      0.195003E-02
      0.750000E-01      0.186454E-02
      0.800000E-01      0.176079E-02
      0.850000E-01      0.164496E-02
      0.900000E-01      0.152592E-02
      0.950000E-01      0.141080E-02
      0.100000          0.130354E-02
      0.105000          0.120546E-02
      0.110000          0.111689E-02
      0.115000          0.103858E-02
      0.120000          0.972018E-03
      0.125000          0.918775E-03
      0.130000          0.879360E-03
      0.135000          0.852226E-03
      0.140000          0.833584E-03
      0.145000          0.818143E-03
      0.150000          0.800528E-03
      0.155000          0.776817E-03
      0.160000          0.745620E-03
      0.165000          0.708316E-03
      0.170000          0.668403E-03
      0.175000          0.630231E-03
      0.180000          0.597577E-03
      0.185000          0.572524E-03
      0.190000          0.554965E-03
      0.195000          0.542812E-03
      0.200000          0.532766E-03
      0.205000          0.521364E-03
      0.210000          0.505962E-03
      0.215000          0.485400E-03
      0.220000          0.460204E-03
      0.225000          0.432325E-03
      0.230000          0.404537E-03
      0.235000          0.379683E-03
      0.240000          0.359961E-03
      0.245000          0.346435E-03
      0.250000          0.338838E-03
      0.255000          0.335716E-03
      0.260000          0.334825E-03
      0.265000          0.333681E-03
      0.270000          0.330121E-03
      0.275000          0.322739E-03
      0.280000          0.311116E-03
      0.285000          0.295824E-03
      0.290000          0.278208E-03
      0.295000          0.260043E-03
      0.300000          0.243133E-03
      0.305000          0.228961E-03
      0.310000          0.218431E-03
      0.315000          0.211750E-03
      0.320000          0.208441E-03
      0.325000          0.207481E-03
      0.330000          0.207526E-03
      0.335000          0.207176E-03
      0.340000          0.205248E-03
      0.345000          0.200998E-03
      0.350000          0.194250E-03
      0.355000          0.185404E-03
      0.360000          0.175316E-03
      0.365000          0.165070E-03
      0.370000          0.155709E-03
      0.375000          0.147974E-03
      0.380000          0.142143E-03
      0.385000          0.138002E-03
      0.390000          0.134951E-03
      0.395000          0.132214E-03
      0.400000          0.129085E-03
      0.405000          0.125123E-03
      0.410000          0.120259E-03
      0.415000          0.114769E-03
      0.420000          0.109146E-03
      0.425000          0.103922E-03
      0.430000          0.994934E-04
      0.435000          0.960206E-04
      0.440000          0.934103E-04
      0.445000          0.913857E-04
      0.450000          0.896023E-04
      0.455000          0.877666E-04
      0.460000          0.857151E-04
      0.465000          0.834339E-04
      0.470000          0.810251E-04
      0.475000          0.786399E-04
      0.480000          0.764114E-04
      0.485000          0.744112E-04
      0.490000          0.726406E-04
      0.495000          0.710528E-04
      0.500000          0.695886E-04
