 I_abs(s)[cm^-1]/c[mg/ml]
       0.00000          0.119371E-01
      0.500000E-02      0.117256E-01
      0.100000E-01      0.111203E-01
      0.150000E-01      0.102017E-01
      0.200000E-01      0.908503E-02
      0.250000E-01      0.789599E-02
      0.300000E-01      0.674785E-02
      0.350000E-01      0.572378E-02
      0.400000E-01      0.486884E-02
      0.450000E-01      0.419180E-02
      0.500000E-01      0.367439E-02
      0.550000E-01      0.328408E-02
      0.600000E-01      0.298586E-02
      0.650000E-01      0.275039E-02
      0.700000E-01      0.255705E-02
      0.750000E-01      0.239309E-02
      0.800000E-01      0.225060E-02
      0.850000E-01      0.212347E-02
      0.900000E-01      0.200581E-02
      0.950000E-01      0.189208E-02
      0.100000          0.177827E-02
      0.105000          0.166312E-02
      0.110000          0.154843E-02
      0.115000          0.143819E-02
      0.120000          0.133686E-02
      0.125000          0.124752E-02
      0.130000          0.117071E-02
      0.135000          0.110442E-02
      0.140000          0.104498E-02
      0.145000          0.988540E-03
      0.150000          0.932324E-03
      0.155000          0.875294E-03
      0.160000          0.818000E-03
      0.165000          0.761863E-03
      0.170000          0.708308E-03
      0.175000          0.658143E-03
      0.180000          0.611420E-03
      0.185000          0.567714E-03
      0.190000          0.526594E-03
      0.195000          0.488007E-03
      0.200000          0.452369E-03
      0.205000          0.420359E-03
      0.210000          0.392549E-03
      0.215000          0.369065E-03
      0.220000          0.349458E-03
      0.225000          0.332827E-03
      0.230000          0.318119E-03
      0.235000          0.304447E-03
      0.240000          0.291311E-03
      0.245000          0.278615E-03
      0.250000          0.266532E-03
      0.255000          0.255297E-03
      0.260000          0.245038E-03
      0.265000          0.235710E-03
      0.270000          0.227142E-03
      0.275000          0.219149E-03
      0.280000          0.211628E-03
      0.285000          0.204589E-03
      0.290000          0.198110E-03
      0.295000          0.192250E-03
      0.300000          0.186964E-03
      0.305000          0.182085E-03
      0.310000          0.177364E-03
      0.315000          0.172572E-03
      0.320000          0.167594E-03
      0.325000          0.162496E-03
      0.330000          0.157520E-03
      0.335000          0.153015E-03
      0.340000          0.149331E-03
      0.345000          0.146714E-03
      0.350000          0.145241E-03
      0.355000          0.144797E-03
      0.360000          0.145112E-03
      0.365000          0.145823E-03
      0.370000          0.146547E-03
      0.375000          0.146945E-03
      0.380000          0.146762E-03
      0.385000          0.145836E-03
      0.390000          0.144098E-03
      0.395000          0.141561E-03
      0.400000          0.138300E-03
      0.405000          0.134451E-03
      0.410000          0.130194E-03
      0.415000          0.125753E-03
      0.420000          0.121376E-03
      0.425000          0.117309E-03
      0.430000          0.113760E-03
      0.435000          0.110860E-03
      0.440000          0.108633E-03
      0.445000          0.106986E-03
      0.450000          0.105729E-03
      0.455000          0.104608E-03
      0.460000          0.103369E-03
      0.465000          0.101801E-03
      0.470000          0.997762E-04
      0.475000          0.972612E-04
      0.480000          0.943053E-04
      0.485000          0.910164E-04
      0.490000          0.875361E-04
      0.495000          0.840213E-04
      0.500000          0.806344E-04
