 I_abs(s)[cm^-1]/c[mg/ml]
       0.00000          0.116443E-01
      0.500000E-02      0.113809E-01
      0.100000E-01      0.106346E-01
      0.150000E-01      0.952588E-02
      0.200000E-01      0.822178E-02
      0.250000E-01      0.689565E-02
      0.300000E-01      0.569029E-02
      0.350000E-01      0.469353E-02
      0.400000E-01      0.393211E-02
      0.450000E-01      0.338232E-02
      0.500000E-01      0.299135E-02
      0.550000E-01      0.270049E-02
      0.600000E-01      0.246276E-02
      0.650000E-01      0.225080E-02
      0.700000E-01      0.205544E-02
      0.750000E-01      0.187834E-02
      0.800000E-01      0.172359E-02
      0.850000E-01      0.159199E-02
      0.900000E-01      0.147962E-02
      0.950000E-01      0.137983E-02
      0.100000          0.128668E-02
      0.105000          0.119736E-02
      0.110000          0.111261E-02
      0.115000          0.103524E-02
      0.120000          0.967820E-03
      0.125000          0.911041E-03
      0.130000          0.863337E-03
      0.135000          0.821836E-03
      0.140000          0.783830E-03
      0.145000          0.747889E-03
      0.150000          0.714051E-03
      0.155000          0.683149E-03
      0.160000          0.655780E-03
      0.165000          0.631592E-03
      0.170000          0.609256E-03
      0.175000          0.587106E-03
      0.180000          0.564011E-03
      0.185000          0.539974E-03
      0.190000          0.516130E-03
      0.195000          0.494154E-03
      0.200000          0.475426E-03
      0.205000          0.460381E-03
      0.210000          0.448341E-03
      0.215000          0.437879E-03
      0.220000          0.427471E-03
      0.225000          0.416101E-03
      0.230000          0.403550E-03
      0.235000          0.390289E-03
      0.240000          0.377086E-03
      0.245000          0.364582E-03
      0.250000          0.353023E-03
      0.255000          0.342231E-03
      0.260000          0.331792E-03
      0.265000          0.321288E-03
      0.270000          0.310478E-03
      0.275000          0.299337E-03
      0.280000          0.288002E-03
      0.285000          0.276667E-03
      0.290000          0.265519E-03
      0.295000          0.254719E-03
      0.300000          0.244416E-03
      0.305000          0.234763E-03
      0.310000          0.225900E-03
      0.315000          0.217915E-03
      0.320000          0.210807E-03
      0.325000          0.204476E-03
      0.330000          0.198753E-03
      0.335000          0.193430E-03
      0.340000          0.188290E-03
      0.345000          0.183108E-03
      0.350000          0.177635E-03
      0.355000          0.171611E-03
      0.360000          0.164816E-03
      0.365000          0.157156E-03
      0.370000          0.148766E-03
      0.375000          0.140039E-03
      0.380000          0.131573E-03
      0.385000          0.124020E-03
      0.390000          0.117879E-03
      0.395000          0.113335E-03
      0.400000          0.110198E-03
      0.405000          0.107980E-03
      0.410000          0.106080E-03
      0.415000          0.103990E-03
      0.420000          0.101449E-03
      0.425000          0.984824E-04
      0.430000          0.953302E-04
      0.435000          0.923040E-04
      0.440000          0.896517E-04
      0.445000          0.874804E-04
      0.450000          0.857586E-04
      0.455000          0.843732E-04
      0.460000          0.831996E-04
      0.465000          0.821419E-04
      0.470000          0.811317E-04
      0.475000          0.800970E-04
      0.480000          0.789348E-04
      0.485000          0.775132E-04
      0.490000          0.757095E-04
      0.495000          0.734679E-04
      0.500000          0.708448E-04
