 I_abs(s)[cm^-1]/c[mg/ml]
       0.00000          0.121681E-01
      0.500000E-02      0.119040E-01
      0.100000E-01      0.111576E-01
      0.150000E-01      0.100543E-01
      0.200000E-01      0.876559E-02
      0.250000E-01      0.746586E-02
      0.300000E-01      0.629313E-02
      0.350000E-01      0.532554E-02
      0.400000E-01      0.457811E-02
      0.450000E-01      0.401774E-02
      0.500000E-01      0.358823E-02
      0.550000E-01      0.323507E-02
      0.600000E-01      0.292180E-02
      0.650000E-01      0.263446E-02
      0.700000E-01      0.237586E-02
      0.750000E-01      0.215471E-02
      0.800000E-01      0.197573E-02
      0.850000E-01      0.183478E-02
      0.900000E-01      0.171997E-02
      0.950000E-01      0.161681E-02
      0.100000          0.151405E-02
      0.105000          0.140731E-02
      0.110000          0.129911E-02
      0.115000          0.119600E-02
      0.120000          0.110455E-02
      0.125000          0.102828E-02
      0.130000          0.966631E-03
      0.135000          0.916005E-03
      0.140000          0.871833E-03
      0.145000          0.830529E-03
      0.150000          0.790417E-03
      0.155000          0.751490E-03
      0.160000          0.714470E-03
      0.165000          0.679858E-03
      0.170000          0.647499E-03
      0.175000          0.616784E-03
      0.180000          0.587191E-03
      0.185000          0.558767E-03
      0.190000          0.532197E-03
      0.195000          0.508448E-03
      0.200000          0.488193E-03
      0.205000          0.471354E-03
      0.210000          0.457011E-03
      0.215000          0.443716E-03
      0.220000          0.430052E-03
      0.225000          0.415155E-03
      0.230000          0.398972E-03
      0.235000          0.382162E-03
      0.240000          0.365721E-03
      0.245000          0.350524E-03
      0.250000          0.336992E-03
      0.255000          0.324999E-03
      0.260000          0.314036E-03
      0.265000          0.303506E-03
      0.270000          0.293025E-03
      0.275000          0.282585E-03
      0.280000          0.272531E-03
      0.285000          0.263380E-03
      0.290000          0.255578E-03
      0.295000          0.249284E-03
      0.300000          0.244273E-03
      0.305000          0.239990E-03
      0.310000          0.235710E-03
      0.315000          0.230758E-03
      0.320000          0.224709E-03
      0.325000          0.217500E-03
      0.330000          0.209439E-03
      0.335000          0.201108E-03
      0.340000          0.193197E-03
      0.345000          0.186317E-03
      0.350000          0.180839E-03
      0.355000          0.176804E-03
      0.360000          0.173920E-03
      0.365000          0.171652E-03
      0.370000          0.169360E-03
      0.375000          0.166474E-03
      0.380000          0.162625E-03
      0.385000          0.157714E-03
      0.390000          0.151892E-03
      0.395000          0.145476E-03
      0.400000          0.138827E-03
      0.405000          0.132250E-03
      0.410000          0.125940E-03
      0.415000          0.120001E-03
      0.420000          0.114492E-03
      0.425000          0.109486E-03
      0.430000          0.105081E-03
      0.435000          0.101379E-03
      0.440000          0.984138E-04
      0.445000          0.961041E-04
      0.450000          0.942379E-04
      0.455000          0.925218E-04
      0.460000          0.906730E-04
      0.465000          0.885151E-04
      0.470000          0.860342E-04
      0.475000          0.833678E-04
      0.480000          0.807346E-04
      0.485000          0.783378E-04
      0.490000          0.762865E-04
      0.495000          0.745681E-04
      0.500000          0.730771E-04
