 I_abs(s)[cm^-1]/c[mg/ml]
       0.00000          0.122772E-01
      0.500000E-02      0.120658E-01
      0.100000E-01      0.114579E-01
      0.150000E-01      0.105277E-01
      0.200000E-01      0.938326E-02
      0.250000E-01      0.814731E-02
      0.300000E-01      0.693640E-02
      0.350000E-01      0.584332E-02
      0.400000E-01      0.492587E-02
      0.450000E-01      0.420388E-02
      0.500000E-01      0.366397E-02
      0.550000E-01      0.326994E-02
      0.600000E-01      0.297572E-02
      0.650000E-01      0.273745E-02
      0.700000E-01      0.252219E-02
      0.750000E-01      0.231180E-02
      0.800000E-01      0.210230E-02
      0.850000E-01      0.189957E-02
      0.900000E-01      0.171375E-02
      0.950000E-01      0.155378E-02
      0.100000          0.142393E-02
      0.105000          0.132258E-02
      0.110000          0.124325E-02
      0.115000          0.117708E-02
      0.120000          0.111556E-02
      0.125000          0.105273E-02
      0.130000          0.986284E-03
      0.135000          0.917302E-03
      0.140000          0.849153E-03
      0.145000          0.785915E-03
      0.150000          0.730936E-03
      0.155000          0.685917E-03
      0.160000          0.650677E-03
      0.165000          0.623502E-03
      0.170000          0.601872E-03
      0.175000          0.583235E-03
      0.180000          0.565625E-03
      0.185000          0.547963E-03
      0.190000          0.530048E-03
      0.195000          0.512309E-03
      0.200000          0.495463E-03
      0.205000          0.480175E-03
      0.210000          0.466829E-03
      0.215000          0.455423E-03
      0.220000          0.445588E-03
      0.225000          0.436690E-03
      0.230000          0.427967E-03
      0.235000          0.418674E-03
      0.240000          0.408208E-03
      0.245000          0.396189E-03
      0.250000          0.382511E-03
      0.255000          0.367346E-03
      0.260000          0.351112E-03
      0.265000          0.334406E-03
      0.270000          0.317907E-03
      0.275000          0.302272E-03
      0.280000          0.288043E-03
      0.285000          0.275558E-03
      0.290000          0.264920E-03
      0.295000          0.255986E-03
      0.300000          0.248414E-03
      0.305000          0.241727E-03
      0.310000          0.235411E-03
      0.315000          0.229002E-03
      0.320000          0.222165E-03
      0.325000          0.214741E-03
      0.330000          0.206755E-03
      0.335000          0.198394E-03
      0.340000          0.189944E-03
      0.345000          0.181713E-03
      0.350000          0.173963E-03
      0.355000          0.166851E-03
      0.360000          0.160411E-03
      0.365000          0.154569E-03
      0.370000          0.149190E-03
      0.375000          0.144137E-03
      0.380000          0.139326E-03
      0.385000          0.134756E-03
      0.390000          0.130501E-03
      0.395000          0.126682E-03
      0.400000          0.123404E-03
      0.405000          0.120708E-03
      0.410000          0.118538E-03
      0.415000          0.116741E-03
      0.420000          0.115104E-03
      0.425000          0.113413E-03
      0.430000          0.111520E-03
      0.435000          0.109377E-03
      0.440000          0.107053E-03
      0.445000          0.104700E-03
      0.450000          0.102496E-03
      0.455000          0.100574E-03
      0.460000          0.989676E-04
      0.465000          0.975952E-04
      0.470000          0.962737E-04
      0.475000          0.947749E-04
      0.480000          0.928957E-04
      0.485000          0.905227E-04
      0.490000          0.876696E-04
      0.495000          0.844753E-04
      0.500000          0.811654E-04
