 I_abs(s)[cm^-1]/c[mg/ml]
       0.00000          0.121174E-01
      0.500000E-02      0.118108E-01
      0.100000E-01      0.109544E-01
      0.150000E-01      0.971555E-02
      0.200000E-01      0.831008E-02
      0.250000E-01      0.693683E-02
      0.300000E-01      0.573052E-02
      0.350000E-01      0.474733E-02
      0.400000E-01      0.398079E-02
      0.450000E-01      0.339268E-02
      0.500000E-01      0.294094E-02
      0.550000E-01      0.259370E-02
      0.600000E-01      0.232941E-02
      0.650000E-01      0.213048E-02
      0.700000E-01      0.197852E-02
      0.750000E-01      0.185477E-02
      0.800000E-01      0.174394E-02
      0.850000E-01      0.163753E-02
      0.900000E-01      0.153379E-02
      0.950000E-01      0.143472E-02
      0.100000          0.134249E-02
      0.105000          0.125767E-02
      0.110000          0.117955E-02
      0.115000          0.110755E-02
      0.120000          0.104194E-02
      0.125000          0.983524E-03
      0.130000          0.932684E-03
      0.135000          0.888748E-03
      0.140000          0.850169E-03
      0.145000          0.815223E-03
      0.150000          0.782608E-03
      0.155000          0.751605E-03
      0.160000          0.721898E-03
      0.165000          0.693402E-03
      0.170000          0.666264E-03
      0.175000          0.640887E-03
      0.180000          0.617762E-03
      0.185000          0.597065E-03
      0.190000          0.578294E-03
      0.195000          0.560256E-03
      0.200000          0.541499E-03
      0.205000          0.520933E-03
      0.210000          0.498265E-03
      0.215000          0.474032E-03
      0.220000          0.449293E-03
      0.225000          0.425254E-03
      0.230000          0.402994E-03
      0.235000          0.383317E-03
      0.240000          0.366615E-03
      0.245000          0.352710E-03
      0.250000          0.340795E-03
      0.255000          0.329622E-03
      0.260000          0.317959E-03
      0.265000          0.305103E-03
      0.270000          0.291146E-03
      0.275000          0.276832E-03
      0.280000          0.263111E-03
      0.285000          0.250675E-03
      0.290000          0.239767E-03
      0.295000          0.230285E-03
      0.300000          0.222032E-03
      0.305000          0.214874E-03
      0.310000          0.208729E-03
      0.315000          0.203462E-03
      0.320000          0.198828E-03
      0.325000          0.194533E-03
      0.330000          0.190340E-03
      0.335000          0.186112E-03
      0.340000          0.181759E-03
      0.345000          0.177165E-03
      0.350000          0.172189E-03
      0.355000          0.166770E-03
      0.360000          0.161031E-03
      0.365000          0.155284E-03
      0.370000          0.149887E-03
      0.375000          0.145047E-03
      0.380000          0.140737E-03
      0.385000          0.136762E-03
      0.390000          0.132926E-03
      0.395000          0.129151E-03
      0.400000          0.125453E-03
      0.405000          0.121822E-03
      0.410000          0.118142E-03
      0.415000          0.114239E-03
      0.420000          0.110036E-03
      0.425000          0.105680E-03
      0.430000          0.101515E-03
      0.435000          0.979098E-04
      0.440000          0.950416E-04
      0.445000          0.928149E-04
      0.450000          0.909494E-04
      0.455000          0.891714E-04
      0.460000          0.873597E-04
      0.465000          0.855558E-04
      0.470000          0.838577E-04
      0.475000          0.823024E-04
      0.480000          0.808255E-04
      0.485000          0.793119E-04
      0.490000          0.776723E-04
      0.495000          0.758790E-04
      0.500000          0.739449E-04
