 I_abs(s)[cm^-1]/c[mg/ml]
       0.00000          0.117297E-01
      0.500000E-02      0.114316E-01
      0.100000E-01      0.105935E-01
      0.150000E-01      0.936844E-02
      0.200000E-01      0.796487E-02
      0.250000E-01      0.659353E-02
      0.300000E-01      0.541800E-02
      0.350000E-01      0.452426E-02
      0.400000E-01      0.391590E-02
      0.450000E-01      0.353310E-02
      0.500000E-01      0.328576E-02
      0.550000E-01      0.308801E-02
      0.600000E-01      0.288275E-02
      0.650000E-01      0.265019E-02
      0.700000E-01      0.240131E-02
      0.750000E-01      0.216206E-02
      0.800000E-01      0.195646E-02
      0.850000E-01      0.179546E-02
      0.900000E-01      0.167449E-02
      0.950000E-01      0.157852E-02
      0.100000          0.149074E-02
      0.105000          0.140001E-02
      0.110000          0.130414E-02
      0.115000          0.120825E-02
      0.120000          0.112009E-02
      0.125000          0.104503E-02
      0.130000          0.983339E-03
      0.135000          0.930534E-03
      0.140000          0.880177E-03
      0.145000          0.827330E-03
      0.150000          0.770838E-03
      0.155000          0.713475E-03
      0.160000          0.660122E-03
      0.165000          0.615122E-03
      0.170000          0.580169E-03
      0.175000          0.553687E-03
      0.180000          0.531821E-03
      0.185000          0.510383E-03
      0.190000          0.486748E-03
      0.195000          0.460813E-03
      0.200000          0.434706E-03
      0.205000          0.411527E-03
      0.210000          0.393798E-03
      0.215000          0.382345E-03
      0.220000          0.376053E-03
      0.225000          0.372473E-03
      0.230000          0.368909E-03
      0.235000          0.363439E-03
      0.240000          0.355474E-03
      0.245000          0.345673E-03
      0.250000          0.335369E-03
      0.255000          0.325819E-03
      0.260000          0.317631E-03
      0.265000          0.310565E-03
      0.270000          0.303749E-03
      0.275000          0.296145E-03
      0.280000          0.287030E-03
      0.285000          0.276311E-03
      0.290000          0.264535E-03
      0.295000          0.252644E-03
      0.300000          0.241596E-03
      0.305000          0.232009E-03
      0.310000          0.223981E-03
      0.315000          0.217126E-03
      0.320000          0.210804E-03
      0.325000          0.204429E-03
      0.330000          0.197720E-03
      0.335000          0.190807E-03
      0.340000          0.184138E-03
      0.345000          0.178252E-03
      0.350000          0.173524E-03
      0.355000          0.169980E-03
      0.360000          0.167285E-03
      0.365000          0.164872E-03
      0.370000          0.162178E-03
      0.375000          0.158858E-03
      0.380000          0.154882E-03
      0.385000          0.150498E-03
      0.390000          0.146058E-03
      0.395000          0.141825E-03
      0.400000          0.137829E-03
      0.405000          0.133857E-03
      0.410000          0.129565E-03
      0.415000          0.124655E-03
      0.420000          0.119035E-03
      0.425000          0.112878E-03
      0.430000          0.106570E-03
      0.435000          0.100565E-03
      0.440000          0.952216E-04
      0.445000          0.906909E-04
      0.450000          0.869003E-04
      0.455000          0.836264E-04
      0.460000          0.806128E-04
      0.465000          0.776763E-04
      0.470000          0.747554E-04
      0.475000          0.718927E-04
      0.480000          0.691720E-04
      0.485000          0.666507E-04
      0.490000          0.643238E-04
      0.495000          0.621318E-04
      0.500000          0.600027E-04
