 I_abs(s)[cm^-1]/c[mg/ml]
       0.00000          0.121536E-01
      0.500000E-02      0.118870E-01
      0.100000E-01      0.111311E-01
      0.150000E-01      0.100059E-01
      0.200000E-01      0.867669E-02
      0.250000E-01      0.731376E-02
      0.300000E-01      0.605651E-02
      0.350000E-01      0.499082E-02
      0.400000E-01      0.414512E-02
      0.450000E-01      0.350223E-02
      0.500000E-01      0.301983E-02
      0.550000E-01      0.265106E-02
      0.600000E-01      0.235846E-02
      0.650000E-01      0.211898E-02
      0.700000E-01      0.192151E-02
      0.750000E-01      0.176104E-02
      0.800000E-01      0.163330E-02
      0.850000E-01      0.153221E-02
      0.900000E-01      0.145032E-02
      0.950000E-01      0.138061E-02
      0.100000          0.131817E-02
      0.105000          0.126046E-02
      0.110000          0.120643E-02
      0.115000          0.115529E-02
      0.120000          0.110570E-02
      0.125000          0.105598E-02
      0.130000          0.100479E-02
      0.135000          0.951862E-03
      0.140000          0.898146E-03
      0.145000          0.845287E-03
      0.150000          0.794835E-03
      0.155000          0.747655E-03
      0.160000          0.703893E-03
      0.165000          0.663450E-03
      0.170000          0.626581E-03
      0.175000          0.594177E-03
      0.180000          0.567498E-03
      0.185000          0.547472E-03
      0.190000          0.533953E-03
      0.195000          0.525357E-03
      0.200000          0.518925E-03
      0.205000          0.511511E-03
      0.210000          0.500561E-03
      0.215000          0.484859E-03
      0.220000          0.464748E-03
      0.225000          0.441802E-03
      0.230000          0.418121E-03
      0.235000          0.395594E-03
      0.240000          0.375386E-03
      0.245000          0.357796E-03
      0.250000          0.342458E-03
      0.255000          0.328709E-03
      0.260000          0.315948E-03
      0.265000          0.303839E-03
      0.270000          0.292321E-03
      0.275000          0.281476E-03
      0.280000          0.271356E-03
      0.285000          0.261872E-03
      0.290000          0.252799E-03
      0.295000          0.243875E-03
      0.300000          0.234933E-03
      0.305000          0.225981E-03
      0.310000          0.217183E-03
      0.315000          0.208746E-03
      0.320000          0.200786E-03
      0.325000          0.193241E-03
      0.330000          0.185892E-03
      0.335000          0.178491E-03
      0.340000          0.170915E-03
      0.345000          0.163273E-03
      0.350000          0.155903E-03
      0.355000          0.149242E-03
      0.360000          0.143658E-03
      0.365000          0.139307E-03
      0.370000          0.136091E-03
      0.375000          0.133726E-03
      0.380000          0.131865E-03
      0.385000          0.130207E-03
      0.390000          0.128534E-03
      0.395000          0.126689E-03
      0.400000          0.124528E-03
      0.405000          0.121901E-03
      0.410000          0.118698E-03
      0.415000          0.114921E-03
      0.420000          0.110739E-03
      0.425000          0.106470E-03
      0.430000          0.102482E-03
      0.435000          0.990506E-04
      0.440000          0.962602E-04
      0.445000          0.939799E-04
      0.450000          0.919473E-04
      0.455000          0.899020E-04
      0.460000          0.877028E-04
      0.465000          0.853697E-04
      0.470000          0.830402E-04
      0.475000          0.808745E-04
      0.480000          0.789693E-04
      0.485000          0.773216E-04
      0.490000          0.758488E-04
      0.495000          0.744385E-04
      0.500000          0.729867E-04
