 I_abs(s)[cm^-1]/c[mg/ml]
       0.00000          0.118224E-01
      0.500000E-02      0.115308E-01
      0.100000E-01      0.107137E-01
      0.150000E-01      0.952645E-02
      0.200000E-01      0.817637E-02
      0.250000E-01      0.686456E-02
      0.300000E-01      0.573707E-02
      0.350000E-01      0.485984E-02
      0.400000E-01      0.422278E-02
      0.450000E-01      0.376649E-02
      0.500000E-01      0.341768E-02
      0.550000E-01      0.311850E-02
      0.600000E-01      0.284035E-02
      0.650000E-01      0.258093E-02
      0.700000E-01      0.235074E-02
      0.750000E-01      0.215824E-02
      0.800000E-01      0.200143E-02
      0.850000E-01      0.186840E-02
      0.900000E-01      0.174446E-02
      0.950000E-01      0.162026E-02
      0.100000          0.149604E-02
      0.105000          0.137984E-02
      0.110000          0.128146E-02
      0.115000          0.120590E-02
      0.120000          0.115007E-02
      0.125000          0.110422E-02
      0.130000          0.105694E-02
      0.135000          0.100063E-02
      0.140000          0.934743E-03
      0.145000          0.865055E-03
      0.150000          0.800081E-03
      0.155000          0.746599E-03
      0.160000          0.706731E-03
      0.165000          0.677777E-03
      0.170000          0.654407E-03
      0.175000          0.631694E-03
      0.180000          0.607272E-03
      0.185000          0.581660E-03
      0.190000          0.556974E-03
      0.195000          0.535038E-03
      0.200000          0.516104E-03
      0.205000          0.498785E-03
      0.210000          0.481051E-03
      0.215000          0.461511E-03
      0.220000          0.440186E-03
      0.225000          0.418365E-03
      0.230000          0.397776E-03
      0.235000          0.379629E-03
      0.240000          0.364132E-03
      0.245000          0.350674E-03
      0.250000          0.338456E-03
      0.255000          0.327097E-03
      0.260000          0.316814E-03
      0.265000          0.308099E-03
      0.270000          0.301147E-03
      0.275000          0.295457E-03
      0.280000          0.289889E-03
      0.285000          0.283161E-03
      0.290000          0.274505E-03
      0.295000          0.264085E-03
      0.300000          0.252922E-03
      0.305000          0.242379E-03
      0.310000          0.233484E-03
      0.315000          0.226468E-03
      0.320000          0.220742E-03
      0.325000          0.215293E-03
      0.330000          0.209241E-03
      0.335000          0.202243E-03
      0.340000          0.194546E-03
      0.345000          0.186712E-03
      0.350000          0.179213E-03
      0.355000          0.172163E-03
      0.360000          0.165341E-03
      0.365000          0.158448E-03
      0.370000          0.151435E-03
      0.375000          0.144656E-03
      0.380000          0.138762E-03
      0.385000          0.134361E-03
      0.390000          0.131661E-03
      0.395000          0.130282E-03
      0.400000          0.129365E-03
      0.405000          0.127907E-03
      0.410000          0.125164E-03
      0.415000          0.120917E-03
      0.420000          0.115484E-03
      0.425000          0.109513E-03
      0.430000          0.103670E-03
      0.435000          0.983990E-04
      0.440000          0.938470E-04
      0.445000          0.899456E-04
      0.450000          0.865642E-04
      0.455000          0.836227E-04
      0.460000          0.811029E-04
      0.465000          0.789741E-04
      0.470000          0.771064E-04
      0.475000          0.752494E-04
      0.480000          0.731055E-04
      0.485000          0.704649E-04
      0.490000          0.673230E-04
      0.495000          0.639120E-04
      0.500000          0.606201E-04
