 I_abs(s)[cm^-1]/c[mg/ml]
       0.00000          0.117083E-01
      0.500000E-02      0.114089E-01
      0.100000E-01      0.105697E-01
      0.150000E-01      0.935049E-02
      0.200000E-01      0.796594E-02
      0.250000E-01      0.662695E-02
      0.300000E-01      0.548972E-02
      0.350000E-01      0.462764E-02
      0.400000E-01      0.403216E-02
      0.450000E-01      0.363785E-02
      0.500000E-01      0.335876E-02
      0.550000E-01      0.312152E-02
      0.600000E-01      0.288432E-02
      0.650000E-01      0.263862E-02
      0.700000E-01      0.239762E-02
      0.750000E-01      0.217996E-02
      0.800000E-01      0.199680E-02
      0.850000E-01      0.184703E-02
      0.900000E-01      0.172037E-02
      0.950000E-01      0.160467E-02
      0.100000          0.149240E-02
      0.105000          0.138319E-02
      0.110000          0.128186E-02
      0.115000          0.119393E-02
      0.120000          0.112157E-02
      0.125000          0.106213E-02
      0.130000          0.100962E-02
      0.135000          0.957977E-03
      0.140000          0.904012E-03
      0.145000          0.848573E-03
      0.150000          0.795514E-03
      0.155000          0.749290E-03
      0.160000          0.712571E-03
      0.165000          0.685046E-03
      0.170000          0.663808E-03
      0.175000          0.644888E-03
      0.180000          0.625021E-03
      0.185000          0.602800E-03
      0.190000          0.578805E-03
      0.195000          0.554855E-03
      0.200000          0.532882E-03
      0.205000          0.513977E-03
      0.210000          0.497958E-03
      0.215000          0.483540E-03
      0.220000          0.468917E-03
      0.225000          0.452506E-03
      0.230000          0.433555E-03
      0.235000          0.412457E-03
      0.240000          0.390649E-03
      0.245000          0.370130E-03
      0.250000          0.352735E-03
      0.255000          0.339413E-03
      0.260000          0.329792E-03
      0.265000          0.322239E-03
      0.270000          0.314467E-03
      0.275000          0.304454E-03
      0.280000          0.291314E-03
      0.285000          0.275707E-03
      0.290000          0.259591E-03
      0.295000          0.245379E-03
      0.300000          0.234894E-03
      0.305000          0.228586E-03
      0.310000          0.225369E-03
      0.315000          0.223134E-03
      0.320000          0.219687E-03
      0.325000          0.213638E-03
      0.330000          0.204852E-03
      0.335000          0.194286E-03
      0.340000          0.183365E-03
      0.345000          0.173252E-03
      0.350000          0.164388E-03
      0.355000          0.156494E-03
      0.360000          0.148963E-03
      0.365000          0.141385E-03
      0.370000          0.133875E-03
      0.375000          0.127042E-03
      0.380000          0.121636E-03
      0.385000          0.118088E-03
      0.390000          0.116204E-03
      0.395000          0.115190E-03
      0.400000          0.113978E-03
      0.405000          0.111685E-03
      0.410000          0.107977E-03
      0.415000          0.103161E-03
      0.420000          0.980054E-04
      0.425000          0.933793E-04
      0.430000          0.899032E-04
      0.435000          0.877521E-04
      0.440000          0.866663E-04
      0.445000          0.861220E-04
      0.450000          0.855584E-04
      0.455000          0.845603E-04
      0.460000          0.829409E-04
      0.465000          0.807301E-04
      0.470000          0.781030E-04
      0.475000          0.752948E-04
      0.480000          0.725289E-04
      0.485000          0.699663E-04
      0.490000          0.676780E-04
      0.495000          0.656397E-04
      0.500000          0.637515E-04
