 I_abs(s)[cm^-1]/c[mg/ml]
       0.00000          0.124014E-01
      0.500000E-02      0.121969E-01
      0.100000E-01      0.116061E-01
      0.150000E-01      0.106933E-01
      0.200000E-01      0.955349E-02
      0.250000E-01      0.829729E-02
      0.300000E-01      0.703381E-02
      0.350000E-01      0.585570E-02
      0.400000E-01      0.482860E-02
      0.450000E-01      0.398647E-02
      0.500000E-01      0.333321E-02
      0.550000E-01      0.284905E-02
      0.600000E-01      0.249985E-02
      0.650000E-01      0.224684E-02
      0.700000E-01      0.205469E-02
      0.750000E-01      0.189662E-02
      0.800000E-01      0.175620E-02
      0.850000E-01      0.162613E-02
      0.900000E-01      0.150537E-02
      0.950000E-01      0.139558E-02
      0.100000          0.129830E-02
      0.105000          0.121323E-02
      0.110000          0.113801E-02
      0.115000          0.106901E-02
      0.120000          0.100266E-02
      0.125000          0.936598E-03
      0.130000          0.870416E-03
      0.135000          0.805558E-03
      0.140000          0.744710E-03
      0.145000          0.690853E-03
      0.150000          0.646360E-03
      0.155000          0.612393E-03
      0.160000          0.588734E-03
      0.165000          0.574006E-03
      0.170000          0.566134E-03
      0.175000          0.562851E-03
      0.180000          0.562075E-03
      0.185000          0.562103E-03
      0.190000          0.561602E-03
      0.195000          0.559506E-03
      0.200000          0.554903E-03
      0.205000          0.546996E-03
      0.210000          0.535167E-03
      0.215000          0.519103E-03
      0.220000          0.498928E-03
      0.225000          0.475275E-03
      0.230000          0.449237E-03
      0.235000          0.422211E-03
      0.240000          0.395671E-03
      0.245000          0.370922E-03
      0.250000          0.348913E-03
      0.255000          0.330139E-03
      0.260000          0.314650E-03
      0.265000          0.302135E-03
      0.270000          0.292049E-03
      0.275000          0.283743E-03
      0.280000          0.276557E-03
      0.285000          0.269887E-03
      0.290000          0.263214E-03
      0.295000          0.256134E-03
      0.300000          0.248378E-03
      0.305000          0.239850E-03
      0.310000          0.230655E-03
      0.315000          0.221096E-03
      0.320000          0.211645E-03
      0.325000          0.202856E-03
      0.330000          0.195249E-03
      0.335000          0.189190E-03
      0.340000          0.184791E-03
      0.345000          0.181868E-03
      0.350000          0.179977E-03
      0.355000          0.178504E-03
      0.360000          0.176807E-03
      0.365000          0.174360E-03
      0.370000          0.170866E-03
      0.375000          0.166307E-03
      0.380000          0.160930E-03
      0.385000          0.155167E-03
      0.390000          0.149522E-03
      0.395000          0.144452E-03
      0.400000          0.140272E-03
      0.405000          0.137107E-03
      0.410000          0.134889E-03
      0.415000          0.133397E-03
      0.420000          0.132319E-03
      0.425000          0.131327E-03
      0.430000          0.130132E-03
      0.435000          0.128520E-03
      0.440000          0.126372E-03
      0.445000          0.123658E-03
      0.450000          0.120420E-03
      0.455000          0.116755E-03
      0.460000          0.112798E-03
      0.465000          0.108701E-03
      0.470000          0.104623E-03
      0.475000          0.100717E-03
      0.480000          0.971165E-04
      0.485000          0.939256E-04
      0.490000          0.912083E-04
      0.495000          0.889812E-04
      0.500000          0.872118E-04
