 I_abs(s)[cm^-1]/c[mg/ml]
       0.00000          0.120163E-01
      0.500000E-02      0.117283E-01
      0.100000E-01      0.109141E-01
      0.150000E-01      0.971074E-02
      0.200000E-01      0.830775E-02
      0.250000E-01      0.690183E-02
      0.300000E-01      0.565359E-02
      0.350000E-01      0.465838E-02
      0.400000E-01      0.393812E-02
      0.450000E-01      0.345345E-02
      0.500000E-01      0.312981E-02
      0.550000E-01      0.288737E-02
      0.600000E-01      0.266502E-02
      0.650000E-01      0.243232E-02
      0.700000E-01      0.218821E-02
      0.750000E-01      0.195001E-02
      0.800000E-01      0.173907E-02
      0.850000E-01      0.156899E-02
      0.900000E-01      0.144044E-02
      0.950000E-01      0.134300E-02
      0.100000          0.126161E-02
      0.105000          0.118387E-02
      0.110000          0.110471E-02
      0.115000          0.102687E-02
      0.120000          0.957625E-03
      0.125000          0.903810E-03
      0.130000          0.867727E-03
      0.135000          0.845662E-03
      0.140000          0.829406E-03
      0.145000          0.809742E-03
      0.150000          0.780149E-03
      0.155000          0.739057E-03
      0.160000          0.689843E-03
      0.165000          0.638823E-03
      0.170000          0.592349E-03
      0.175000          0.554327E-03
      0.180000          0.525156E-03
      0.185000          0.502300E-03
      0.190000          0.481999E-03
      0.195000          0.461199E-03
      0.200000          0.438816E-03
      0.205000          0.415878E-03
      0.210000          0.394664E-03
      0.215000          0.377372E-03
      0.220000          0.364998E-03
      0.225000          0.356912E-03
      0.230000          0.351237E-03
      0.235000          0.345758E-03
      0.240000          0.338885E-03
      0.245000          0.330217E-03
      0.250000          0.320500E-03
      0.255000          0.311068E-03
      0.260000          0.303065E-03
      0.265000          0.296835E-03
      0.270000          0.291742E-03
      0.275000          0.286457E-03
      0.280000          0.279556E-03
      0.285000          0.270138E-03
      0.290000          0.258197E-03
      0.295000          0.244615E-03
      0.300000          0.230789E-03
      0.305000          0.218102E-03
      0.310000          0.207438E-03
      0.315000          0.198950E-03
      0.320000          0.192128E-03
      0.325000          0.186118E-03
      0.330000          0.180132E-03
      0.335000          0.173768E-03
      0.340000          0.167124E-03
      0.345000          0.160687E-03
      0.350000          0.155052E-03
      0.355000          0.150620E-03
      0.360000          0.147395E-03
      0.365000          0.144965E-03
      0.370000          0.142656E-03
      0.375000          0.139802E-03
      0.380000          0.135998E-03
      0.385000          0.131237E-03
      0.390000          0.125887E-03
      0.395000          0.120513E-03
      0.400000          0.115635E-03
      0.405000          0.111515E-03
      0.410000          0.108067E-03
      0.415000          0.104923E-03
      0.420000          0.101613E-03
      0.425000          0.977919E-04
      0.430000          0.934040E-04
      0.435000          0.887256E-04
      0.440000          0.842640E-04
      0.445000          0.805599E-04
      0.450000          0.779785E-04
      0.455000          0.765729E-04
      0.460000          0.760762E-04
      0.465000          0.760185E-04
      0.470000          0.759162E-04
      0.475000          0.754516E-04
      0.480000          0.745695E-04
      0.485000          0.734559E-04
      0.490000          0.724146E-04
      0.495000          0.717011E-04
      0.500000          0.713865E-04
