 I_abs(s)[cm^-1]/c[mg/ml]
       0.00000          0.120235E-01
      0.500000E-02      0.117468E-01
      0.100000E-01      0.109665E-01
      0.150000E-01      0.981746E-02
      0.200000E-01      0.848200E-02
      0.250000E-01      0.714211E-02
      0.300000E-01      0.593831E-02
      0.350000E-01      0.494703E-02
      0.400000E-01      0.418096E-02
      0.450000E-01      0.360746E-02
      0.500000E-01      0.317473E-02
      0.550000E-01      0.283458E-02
      0.600000E-01      0.255481E-02
      0.650000E-01      0.232008E-02
      0.700000E-01      0.212521E-02
      0.750000E-01      0.196691E-02
      0.800000E-01      0.183872E-02
      0.850000E-01      0.173079E-02
      0.900000E-01      0.163302E-02
      0.950000E-01      0.153875E-02
      0.100000          0.144634E-02
      0.105000          0.135812E-02
      0.110000          0.127752E-02
      0.115000          0.120648E-02
      0.120000          0.114415E-02
      0.125000          0.108764E-02
      0.130000          0.103369E-02
      0.135000          0.980249E-03
      0.140000          0.927190E-03
      0.145000          0.875853E-03
      0.150000          0.828050E-03
      0.155000          0.785132E-03
      0.160000          0.747566E-03
      0.165000          0.715038E-03
      0.170000          0.686811E-03
      0.175000          0.662021E-03
      0.180000          0.639788E-03
      0.185000          0.619210E-03
      0.190000          0.599381E-03
      0.195000          0.579523E-03
      0.200000          0.559154E-03
      0.205000          0.538180E-03
      0.210000          0.516830E-03
      0.215000          0.495462E-03
      0.220000          0.474372E-03
      0.225000          0.453718E-03
      0.230000          0.433584E-03
      0.235000          0.414103E-03
      0.240000          0.395523E-03
      0.245000          0.378149E-03
      0.250000          0.362213E-03
      0.255000          0.347760E-03
      0.260000          0.334661E-03
      0.265000          0.322720E-03
      0.270000          0.311806E-03
      0.275000          0.301880E-03
      0.280000          0.292894E-03
      0.285000          0.284632E-03
      0.290000          0.276618E-03
      0.295000          0.268207E-03
      0.300000          0.258835E-03
      0.305000          0.248297E-03
      0.310000          0.236890E-03
      0.315000          0.225317E-03
      0.320000          0.214399E-03
      0.325000          0.204750E-03
      0.330000          0.196584E-03
      0.335000          0.189742E-03
      0.340000          0.183888E-03
      0.345000          0.178717E-03
      0.350000          0.174063E-03
      0.355000          0.169844E-03
      0.360000          0.165952E-03
      0.365000          0.162173E-03
      0.370000          0.158248E-03
      0.375000          0.154016E-03
      0.380000          0.149537E-03
      0.385000          0.145088E-03
      0.390000          0.140991E-03
      0.395000          0.137389E-03
      0.400000          0.134106E-03
      0.405000          0.130699E-03
      0.410000          0.126702E-03
      0.415000          0.121908E-03
      0.420000          0.116531E-03
      0.425000          0.111128E-03
      0.430000          0.106325E-03
      0.435000          0.102513E-03
      0.440000          0.996784E-04
      0.445000          0.974618E-04
      0.450000          0.954070E-04
      0.455000          0.932210E-04
      0.460000          0.908952E-04
      0.465000          0.886219E-04
      0.470000          0.865779E-04
      0.475000          0.847306E-04
      0.480000          0.828006E-04
      0.485000          0.804096E-04
      0.490000          0.773175E-04
      0.495000          0.735981E-04
      0.500000          0.696394E-04
