 I_abs(s)[cm^-1]/c[mg/ml]
       0.00000          0.119443E-01
      0.500000E-02      0.116788E-01
      0.100000E-01      0.109288E-01
      0.150000E-01      0.982110E-02
      0.200000E-01      0.852931E-02
      0.250000E-01      0.723018E-02
      0.300000E-01      0.606394E-02
      0.350000E-01      0.510977E-02
      0.400000E-01      0.438217E-02
      0.450000E-01      0.384593E-02
      0.500000E-01      0.344181E-02
      0.550000E-01      0.311239E-02
      0.600000E-01      0.281947E-02
      0.650000E-01      0.254899E-02
      0.700000E-01      0.230486E-02
      0.750000E-01      0.209717E-02
      0.800000E-01      0.193116E-02
      0.850000E-01      0.180186E-02
      0.900000E-01      0.169563E-02
      0.950000E-01      0.159659E-02
      0.100000          0.149382E-02
      0.105000          0.138580E-02
      0.110000          0.127991E-02
      0.115000          0.118784E-02
      0.120000          0.111930E-02
      0.125000          0.107717E-02
      0.130000          0.105600E-02
      0.135000          0.104428E-02
      0.140000          0.102916E-02
      0.145000          0.100115E-02
      0.150000          0.957003E-03
      0.155000          0.899796E-03
      0.160000          0.836600E-03
      0.165000          0.775106E-03
      0.170000          0.720762E-03
      0.175000          0.675460E-03
      0.180000          0.637956E-03
      0.185000          0.605427E-03
      0.190000          0.575209E-03
      0.195000          0.545918E-03
      0.200000          0.517600E-03
      0.205000          0.491123E-03
      0.210000          0.467311E-03
      0.215000          0.446324E-03
      0.220000          0.427571E-03
      0.225000          0.410075E-03
      0.230000          0.393026E-03
      0.235000          0.376185E-03
      0.240000          0.359951E-03
      0.245000          0.345093E-03
      0.250000          0.332323E-03
      0.255000          0.321934E-03
      0.260000          0.313639E-03
      0.265000          0.306673E-03
      0.270000          0.300053E-03
      0.275000          0.292882E-03
      0.280000          0.284583E-03
      0.285000          0.274991E-03
      0.290000          0.264322E-03
      0.295000          0.253046E-03
      0.300000          0.241736E-03
      0.305000          0.230924E-03
      0.310000          0.220991E-03
      0.315000          0.212123E-03
      0.320000          0.204312E-03
      0.325000          0.197415E-03
      0.330000          0.191230E-03
      0.335000          0.185565E-03
      0.340000          0.180270E-03
      0.345000          0.175222E-03
      0.350000          0.170289E-03
      0.355000          0.165301E-03
      0.360000          0.160068E-03
      0.365000          0.154454E-03
      0.370000          0.148471E-03
      0.375000          0.142337E-03
      0.380000          0.136456E-03
      0.385000          0.131290E-03
      0.390000          0.127183E-03
      0.395000          0.124189E-03
      0.400000          0.122023E-03
      0.405000          0.120141E-03
      0.410000          0.117944E-03
      0.415000          0.115022E-03
      0.420000          0.111302E-03
      0.425000          0.107057E-03
      0.430000          0.102751E-03
      0.435000          0.988094E-04
      0.440000          0.954147E-04
      0.445000          0.924473E-04
      0.450000          0.895817E-04
      0.455000          0.864969E-04
      0.460000          0.830835E-04
      0.465000          0.795401E-04
      0.470000          0.763020E-04
      0.475000          0.738354E-04
      0.480000          0.723985E-04
      0.485000          0.718903E-04
      0.490000          0.718654E-04
      0.495000          0.717127E-04
      0.500000          0.709134E-04
