 I_abs(s)[cm^-1]/c[mg/ml]
       0.00000          0.117796E-01
      0.500000E-02      0.114998E-01
      0.100000E-01      0.107143E-01
      0.150000E-01      0.956762E-02
      0.200000E-01      0.825346E-02
      0.250000E-01      0.696139E-02
      0.300000E-01      0.583200E-02
      0.350000E-01      0.493353E-02
      0.400000E-01      0.426461E-02
      0.450000E-01      0.377703E-02
      0.500000E-01      0.340646E-02
      0.550000E-01      0.309836E-02
      0.600000E-01      0.282121E-02
      0.650000E-01      0.256609E-02
      0.700000E-01      0.233741E-02
      0.750000E-01      0.214180E-02
      0.800000E-01      0.198079E-02
      0.850000E-01      0.184921E-02
      0.900000E-01      0.173805E-02
      0.950000E-01      0.163853E-02
      0.100000          0.154491E-02
      0.105000          0.145482E-02
      0.110000          0.136802E-02
      0.115000          0.128477E-02
      0.120000          0.120511E-02
      0.125000          0.112891E-02
      0.130000          0.105643E-02
      0.135000          0.988508E-03
      0.140000          0.926128E-03
      0.145000          0.869786E-03
      0.150000          0.819029E-03
      0.155000          0.772605E-03
      0.160000          0.729092E-03
      0.165000          0.687604E-03
      0.170000          0.648101E-03
      0.175000          0.611158E-03
      0.180000          0.577408E-03
      0.185000          0.547049E-03
      0.190000          0.519738E-03
      0.195000          0.494865E-03
      0.200000          0.471964E-03
      0.205000          0.450947E-03
      0.210000          0.431995E-03
      0.215000          0.415227E-03
      0.220000          0.400387E-03
      0.225000          0.386807E-03
      0.230000          0.373665E-03
      0.235000          0.360370E-03
      0.240000          0.346813E-03
      0.245000          0.333327E-03
      0.250000          0.320373E-03
      0.255000          0.308176E-03
      0.260000          0.296537E-03
      0.265000          0.284932E-03
      0.270000          0.272836E-03
      0.275000          0.260069E-03
      0.280000          0.246947E-03
      0.285000          0.234164E-03
      0.290000          0.222470E-03
      0.295000          0.212342E-03
      0.300000          0.203800E-03
      0.305000          0.196464E-03
      0.310000          0.189788E-03
      0.315000          0.183329E-03
      0.320000          0.176922E-03
      0.325000          0.170690E-03
      0.330000          0.164916E-03
      0.335000          0.159862E-03
      0.340000          0.155634E-03
      0.345000          0.152134E-03
      0.350000          0.149112E-03
      0.355000          0.146259E-03
      0.360000          0.143304E-03
      0.365000          0.140065E-03
      0.370000          0.136470E-03
      0.375000          0.132545E-03
      0.380000          0.128398E-03
      0.385000          0.124206E-03
      0.390000          0.120189E-03
      0.395000          0.116580E-03
      0.400000          0.113563E-03
      0.405000          0.111216E-03
      0.410000          0.109473E-03
      0.415000          0.108124E-03
      0.420000          0.106870E-03
      0.425000          0.105410E-03
      0.430000          0.103528E-03
      0.435000          0.101140E-03
      0.440000          0.982967E-04
      0.445000          0.951336E-04
      0.450000          0.918138E-04
      0.455000          0.884806E-04
      0.460000          0.852406E-04
      0.465000          0.821702E-04
      0.470000          0.793245E-04
      0.475000          0.767343E-04
      0.480000          0.743901E-04
      0.485000          0.722299E-04
      0.490000          0.701480E-04
      0.495000          0.680315E-04
      0.500000          0.658102E-04
