 I_abs(s)[cm^-1]/c[mg/ml]
       0.00000          0.122262E-01
      0.500000E-02      0.119744E-01
      0.100000E-01      0.112515E-01
      0.150000E-01      0.101497E-01
      0.200000E-01      0.880323E-02
      0.250000E-01      0.736441E-02
      0.300000E-01      0.597785E-02
      0.350000E-01      0.475837E-02
      0.400000E-01      0.377698E-02
      0.450000E-01      0.305683E-02
      0.500000E-01      0.257876E-02
      0.550000E-01      0.229384E-02
      0.600000E-01      0.213923E-02
      0.650000E-01      0.205320E-02
      0.700000E-01      0.198648E-02
      0.750000E-01      0.190804E-02
      0.800000E-01      0.180549E-02
      0.850000E-01      0.168126E-02
      0.900000E-01      0.154660E-02
      0.950000E-01      0.141537E-02
      0.100000          0.129923E-02
      0.105000          0.120494E-02
      0.110000          0.113372E-02
      0.115000          0.108222E-02
      0.120000          0.104428E-02
      0.125000          0.101277E-02
      0.130000          0.981223E-03
      0.135000          0.944782E-03
      0.140000          0.900816E-03
      0.145000          0.849037E-03
      0.150000          0.791322E-03
      0.155000          0.731255E-03
      0.160000          0.673409E-03
      0.165000          0.622432E-03
      0.170000          0.582063E-03
      0.175000          0.554293E-03
      0.180000          0.538877E-03
      0.185000          0.533366E-03
      0.190000          0.533681E-03
      0.195000          0.535096E-03
      0.200000          0.533364E-03
      0.205000          0.525678E-03
      0.210000          0.511194E-03
      0.215000          0.491000E-03
      0.220000          0.467567E-03
      0.225000          0.443885E-03
      0.230000          0.422563E-03
      0.235000          0.405159E-03
      0.240000          0.391898E-03
      0.245000          0.381830E-03
      0.250000          0.373297E-03
      0.255000          0.364552E-03
      0.260000          0.354305E-03
      0.265000          0.342054E-03
      0.270000          0.328135E-03
      0.275000          0.313522E-03
      0.280000          0.299465E-03
      0.285000          0.287112E-03
      0.290000          0.277196E-03
      0.295000          0.269873E-03
      0.300000          0.264728E-03
      0.305000          0.260903E-03
      0.310000          0.257319E-03
      0.315000          0.252915E-03
      0.320000          0.246868E-03
      0.325000          0.238745E-03
      0.330000          0.228575E-03
      0.335000          0.216827E-03
      0.340000          0.204308E-03
      0.345000          0.191995E-03
      0.350000          0.180828E-03
      0.355000          0.171525E-03
      0.360000          0.164432E-03
      0.365000          0.159469E-03
      0.370000          0.156173E-03
      0.375000          0.153818E-03
      0.380000          0.151609E-03
      0.385000          0.148869E-03
      0.390000          0.145190E-03
      0.395000          0.140503E-03
      0.400000          0.135055E-03
      0.405000          0.129311E-03
      0.410000          0.123799E-03
      0.415000          0.118962E-03
      0.420000          0.115044E-03
      0.425000          0.112043E-03
      0.430000          0.109729E-03
      0.435000          0.107736E-03
      0.440000          0.105666E-03
      0.445000          0.103209E-03
      0.450000          0.100215E-03
      0.455000          0.967293E-04
      0.460000          0.929609E-04
      0.465000          0.892173E-04
      0.470000          0.858113E-04
      0.475000          0.829747E-04
      0.480000          0.807992E-04
      0.485000          0.792204E-04
      0.490000          0.780462E-04
      0.495000          0.770198E-04
      0.500000          0.758965E-04
