 I_abs(s)[cm^-1]/c[mg/ml]
       0.00000          0.124527E-01
      0.500000E-02      0.121791E-01
      0.100000E-01      0.114086E-01
      0.150000E-01      0.102774E-01
      0.200000E-01      0.896656E-02
      0.250000E-01      0.765283E-02
      0.300000E-01      0.646793E-02
      0.350000E-01      0.547926E-02
      0.400000E-01      0.469444E-02
      0.450000E-01      0.408250E-02
      0.500000E-01      0.359944E-02
      0.550000E-01      0.320735E-02
      0.600000E-01      0.288201E-02
      0.650000E-01      0.261052E-02
      0.700000E-01      0.238461E-02
      0.750000E-01      0.219531E-02
      0.800000E-01      0.203189E-02
      0.850000E-01      0.188419E-02
      0.900000E-01      0.174575E-02
      0.950000E-01      0.161499E-02
      0.100000          0.149384E-02
      0.105000          0.138495E-02
      0.110000          0.128924E-02
      0.115000          0.120520E-02
      0.120000          0.112986E-02
      0.125000          0.106040E-02
      0.130000          0.995311E-03
      0.135000          0.934482E-03
      0.140000          0.878517E-03
      0.145000          0.827949E-03
      0.150000          0.782847E-03
      0.155000          0.742875E-03
      0.160000          0.707526E-03
      0.165000          0.676201E-03
      0.170000          0.648128E-03
      0.175000          0.622309E-03
      0.180000          0.597726E-03
      0.185000          0.573782E-03
      0.190000          0.550674E-03
      0.195000          0.529349E-03
      0.200000          0.510942E-03
      0.205000          0.495950E-03
      0.210000          0.483636E-03
      0.215000          0.472078E-03
      0.220000          0.458897E-03
      0.225000          0.442291E-03
      0.230000          0.421848E-03
      0.235000          0.398696E-03
      0.240000          0.374985E-03
      0.245000          0.352999E-03
      0.250000          0.334358E-03
      0.255000          0.319645E-03
      0.260000          0.308490E-03
      0.265000          0.299933E-03
      0.270000          0.292818E-03
      0.275000          0.286051E-03
      0.280000          0.278717E-03
      0.285000          0.270148E-03
      0.290000          0.259994E-03
      0.295000          0.248311E-03
      0.300000          0.235576E-03
      0.305000          0.222577E-03
      0.310000          0.210203E-03
      0.315000          0.199193E-03
      0.320000          0.189964E-03
      0.325000          0.182563E-03
      0.330000          0.176735E-03
      0.335000          0.172044E-03
      0.340000          0.167987E-03
      0.345000          0.164088E-03
      0.350000          0.159960E-03
      0.355000          0.155367E-03
      0.360000          0.150257E-03
      0.365000          0.144762E-03
      0.370000          0.139134E-03
      0.375000          0.133638E-03
      0.380000          0.128451E-03
      0.385000          0.123611E-03
      0.390000          0.119041E-03
      0.395000          0.114626E-03
      0.400000          0.110296E-03
      0.405000          0.106063E-03
      0.410000          0.102011E-03
      0.415000          0.982416E-04
      0.420000          0.948298E-04
      0.425000          0.917953E-04
      0.430000          0.891064E-04
      0.435000          0.866938E-04
      0.440000          0.844665E-04
      0.445000          0.823255E-04
      0.450000          0.801833E-04
      0.455000          0.779889E-04
      0.460000          0.757486E-04
      0.465000          0.735252E-04
      0.470000          0.714078E-04
      0.475000          0.694643E-04
      0.480000          0.677046E-04
      0.485000          0.660819E-04
      0.490000          0.645354E-04
      0.495000          0.630477E-04
      0.500000          0.616799E-04
