 I_abs(s)[cm^-1]/c[mg/ml]
       0.00000          0.115735E-01
      0.500000E-02      0.112999E-01
      0.100000E-01      0.105254E-01
      0.150000E-01      0.937755E-02
      0.200000E-01      0.803271E-02
      0.250000E-01      0.667434E-02
      0.300000E-01      0.545328E-02
      0.350000E-01      0.446166E-02
      0.400000E-01      0.372572E-02
      0.450000E-01      0.321690E-02
      0.500000E-01      0.287456E-02
      0.550000E-01      0.263134E-02
      0.600000E-01      0.243287E-02
      0.650000E-01      0.224721E-02
      0.700000E-01      0.206390E-02
      0.750000E-01      0.188612E-02
      0.800000E-01      0.172127E-02
      0.850000E-01      0.157404E-02
      0.900000E-01      0.144425E-02
      0.950000E-01      0.132866E-02
      0.100000          0.122448E-02
      0.105000          0.113198E-02
      0.110000          0.105463E-02
      0.115000          0.996906E-03
      0.120000          0.960947E-03
      0.125000          0.944174E-03
      0.130000          0.938945E-03
      0.135000          0.934553E-03
      0.140000          0.920626E-03
      0.145000          0.890443E-03
      0.150000          0.842845E-03
      0.155000          0.782110E-03
      0.160000          0.716052E-03
      0.165000          0.653263E-03
      0.170000          0.600543E-03
      0.175000          0.561351E-03
      0.180000          0.535531E-03
      0.185000          0.520097E-03
      0.190000          0.510582E-03
      0.195000          0.502436E-03
      0.200000          0.492097E-03
      0.205000          0.477616E-03
      0.210000          0.458805E-03
      0.215000          0.436993E-03
      0.220000          0.414461E-03
      0.225000          0.393684E-03
      0.230000          0.376539E-03
      0.235000          0.363702E-03
      0.240000          0.354449E-03
      0.245000          0.346949E-03
      0.250000          0.338984E-03
      0.255000          0.328818E-03
      0.260000          0.315871E-03
      0.265000          0.300904E-03
      0.270000          0.285635E-03
      0.275000          0.271946E-03
      0.280000          0.261050E-03
      0.285000          0.252983E-03
      0.290000          0.246646E-03
      0.295000          0.240367E-03
      0.300000          0.232707E-03
      0.305000          0.223135E-03
      0.310000          0.212256E-03
      0.315000          0.201518E-03
      0.320000          0.192529E-03
      0.325000          0.186329E-03
      0.330000          0.182938E-03
      0.335000          0.181351E-03
      0.340000          0.179989E-03
      0.345000          0.177339E-03
      0.350000          0.172531E-03
      0.355000          0.165596E-03
      0.360000          0.157336E-03
      0.365000          0.148920E-03
      0.370000          0.141394E-03
      0.375000          0.135336E-03
      0.380000          0.130756E-03
      0.385000          0.127255E-03
      0.390000          0.124300E-03
      0.395000          0.121495E-03
      0.400000          0.118713E-03
      0.405000          0.116064E-03
      0.410000          0.113754E-03
      0.415000          0.111917E-03
      0.420000          0.110516E-03
      0.425000          0.109331E-03
      0.430000          0.108049E-03
      0.435000          0.106376E-03
      0.440000          0.104140E-03
      0.445000          0.101332E-03
      0.450000          0.980893E-04
      0.455000          0.946424E-04
      0.460000          0.912366E-04
      0.465000          0.880688E-04
      0.470000          0.852419E-04
      0.475000          0.827446E-04
      0.480000          0.804596E-04
      0.485000          0.781990E-04
      0.490000          0.757626E-04
      0.495000          0.730095E-04
      0.500000          0.699187E-04
