 I_abs(s)[cm^-1]/c[mg/ml]
       0.00000          0.122408E-01
      0.500000E-02      0.120164E-01
      0.100000E-01      0.113760E-01
      0.150000E-01      0.104105E-01
      0.200000E-01      0.924704E-02
      0.250000E-01      0.802105E-02
      0.300000E-01      0.684912E-02
      0.350000E-01      0.581093E-02
      0.400000E-01      0.494331E-02
      0.450000E-01      0.424604E-02
      0.500000E-01      0.369506E-02
      0.550000E-01      0.325759E-02
      0.600000E-01      0.290387E-02
      0.650000E-01      0.261289E-02
      0.700000E-01      0.237231E-02
      0.750000E-01      0.217480E-02
      0.800000E-01      0.201372E-02
      0.850000E-01      0.188071E-02
      0.900000E-01      0.176576E-02
      0.950000E-01      0.165928E-02
      0.100000          0.155456E-02
      0.105000          0.144916E-02
      0.110000          0.134465E-02
      0.115000          0.124485E-02
      0.120000          0.115358E-02
      0.125000          0.107299E-02
      0.130000          0.100299E-02
      0.135000          0.941758E-03
      0.140000          0.886913E-03
      0.145000          0.836538E-03
      0.150000          0.789670E-03
      0.155000          0.746134E-03
      0.160000          0.706022E-03
      0.165000          0.669186E-03
      0.170000          0.635059E-03
      0.175000          0.602845E-03
      0.180000          0.571914E-03
      0.185000          0.542133E-03
      0.190000          0.513944E-03
      0.195000          0.488161E-03
      0.200000          0.465590E-03
      0.205000          0.446681E-03
      0.210000          0.431335E-03
      0.215000          0.418933E-03
      0.220000          0.408530E-03
      0.225000          0.399103E-03
      0.230000          0.389771E-03
      0.235000          0.379943E-03
      0.240000          0.369378E-03
      0.245000          0.358178E-03
      0.250000          0.346721E-03
      0.255000          0.335529E-03
      0.260000          0.325097E-03
      0.265000          0.315714E-03
      0.270000          0.307348E-03
      0.275000          0.299657E-03
      0.280000          0.292131E-03
      0.285000          0.284328E-03
      0.290000          0.276093E-03
      0.295000          0.267652E-03
      0.300000          0.259526E-03
      0.305000          0.252280E-03
      0.310000          0.246232E-03
      0.315000          0.241249E-03
      0.320000          0.236736E-03
      0.325000          0.231825E-03
      0.330000          0.225695E-03
      0.335000          0.217874E-03
      0.340000          0.208402E-03
      0.345000          0.197792E-03
      0.350000          0.186833E-03
      0.355000          0.176325E-03
      0.360000          0.166858E-03
      0.365000          0.158721E-03
      0.370000          0.151932E-03
      0.375000          0.146339E-03
      0.380000          0.141729E-03
      0.385000          0.137891E-03
      0.390000          0.134620E-03
      0.395000          0.131703E-03
      0.400000          0.128914E-03
      0.405000          0.126051E-03
      0.410000          0.122988E-03
      0.415000          0.119722E-03
      0.420000          0.116366E-03
      0.425000          0.113094E-03
      0.430000          0.110047E-03
      0.435000          0.107263E-03
      0.440000          0.104652E-03
      0.445000          0.102038E-03
      0.450000          0.992536E-04
      0.455000          0.962190E-04
      0.460000          0.929931E-04
      0.465000          0.897488E-04
      0.470000          0.867014E-04
      0.475000          0.840189E-04
      0.480000          0.817595E-04
      0.485000          0.798579E-04
      0.490000          0.781621E-04
      0.495000          0.764964E-04
      0.500000          0.747200E-04
