 I_abs(s)[cm^-1]/c[mg/ml]
       0.00000          0.122481E-01
      0.500000E-02      0.119613E-01
      0.100000E-01      0.111520E-01
      0.150000E-01      0.995849E-02
      0.200000E-01      0.856998E-02
      0.250000E-01      0.717822E-02
      0.300000E-01      0.593455E-02
      0.350000E-01      0.492389E-02
      0.400000E-01      0.416173E-02
      0.450000E-01      0.361103E-02
      0.500000E-01      0.320978E-02
      0.550000E-01      0.289796E-02
      0.600000E-01      0.263476E-02
      0.650000E-01      0.240266E-02
      0.700000E-01      0.220068E-02
      0.750000E-01      0.203290E-02
      0.800000E-01      0.189893E-02
      0.850000E-01      0.179040E-02
      0.900000E-01      0.169377E-02
      0.950000E-01      0.159660E-02
      0.100000          0.149320E-02
      0.105000          0.138633E-02
      0.110000          0.128465E-02
      0.115000          0.119728E-02
      0.120000          0.112883E-02
      0.125000          0.107715E-02
      0.130000          0.103474E-02
      0.135000          0.992689E-03
      0.140000          0.944932E-03
      0.145000          0.890543E-03
      0.150000          0.833250E-03
      0.155000          0.778688E-03
      0.160000          0.731127E-03
      0.165000          0.691429E-03
      0.170000          0.657187E-03
      0.175000          0.624743E-03
      0.180000          0.591777E-03
      0.185000          0.558979E-03
      0.190000          0.529871E-03
      0.195000          0.508923E-03
      0.200000          0.498974E-03
      0.205000          0.499338E-03
      0.210000          0.505560E-03
      0.215000          0.510951E-03
      0.220000          0.509142E-03
      0.225000          0.496483E-03
      0.230000          0.473223E-03
      0.235000          0.443058E-03
      0.240000          0.411397E-03
      0.245000          0.383203E-03
      0.250000          0.361357E-03
      0.255000          0.346112E-03
      0.260000          0.335655E-03
      0.265000          0.327315E-03
      0.270000          0.318760E-03
      0.275000          0.308702E-03
      0.280000          0.296934E-03
      0.285000          0.283914E-03
      0.290000          0.270233E-03
      0.295000          0.256287E-03
      0.300000          0.242259E-03
      0.305000          0.228312E-03
      0.310000          0.214779E-03
      0.315000          0.202183E-03
      0.320000          0.191066E-03
      0.325000          0.181716E-03
      0.330000          0.173989E-03
      0.335000          0.167333E-03
      0.340000          0.161012E-03
      0.345000          0.154426E-03
      0.350000          0.147350E-03
      0.355000          0.139985E-03
      0.360000          0.132800E-03
      0.365000          0.126270E-03
      0.370000          0.120643E-03
      0.375000          0.115855E-03
      0.380000          0.111616E-03
      0.385000          0.107602E-03
      0.390000          0.103640E-03
      0.395000          0.997856E-04
      0.400000          0.962695E-04
      0.405000          0.933412E-04
      0.410000          0.911116E-04
      0.415000          0.894719E-04
      0.420000          0.881270E-04
      0.425000          0.867215E-04
      0.430000          0.849896E-04
      0.435000          0.828580E-04
      0.440000          0.804590E-04
      0.445000          0.780577E-04
      0.450000          0.759371E-04
      0.455000          0.742926E-04
      0.460000          0.731802E-04
      0.465000          0.725253E-04
      0.470000          0.721771E-04
      0.475000          0.719723E-04
      0.480000          0.717819E-04
      0.485000          0.715267E-04
      0.490000          0.711649E-04
      0.495000          0.706700E-04
      0.500000          0.700130E-04
