 I_abs(s)[cm^-1]/c[mg/ml]
       0.00000          0.120307E-01
      0.500000E-02      0.118019E-01
      0.100000E-01      0.111434E-01
      0.150000E-01      0.101334E-01
      0.200000E-01      0.888788E-02
      0.250000E-01      0.754095E-02
      0.300000E-01      0.622381E-02
      0.350000E-01      0.504559E-02
      0.400000E-01      0.407959E-02
      0.450000E-01      0.335710E-02
      0.500000E-01      0.286929E-02
      0.550000E-01      0.257586E-02
      0.600000E-01      0.241800E-02
      0.650000E-01      0.233269E-02
      0.700000E-01      0.226508E-02
      0.750000E-01      0.217707E-02
      0.800000E-01      0.205080E-02
      0.850000E-01      0.188719E-02
      0.900000E-01      0.170085E-02
      0.950000E-01      0.151307E-02
      0.100000          0.134473E-02
      0.105000          0.121092E-02
      0.110000          0.111799E-02
      0.115000          0.106330E-02
      0.120000          0.103722E-02
      0.125000          0.102649E-02
      0.130000          0.101774E-02
      0.135000          0.100046E-02
      0.140000          0.968803E-03
      0.145000          0.921865E-03
      0.150000          0.862911E-03
      0.155000          0.797767E-03
      0.160000          0.732984E-03
      0.165000          0.674245E-03
      0.170000          0.625303E-03
      0.175000          0.587581E-03
      0.180000          0.560367E-03
      0.185000          0.541415E-03
      0.190000          0.527733E-03
      0.195000          0.516325E-03
      0.200000          0.504751E-03
      0.205000          0.491425E-03
      0.210000          0.475671E-03
      0.215000          0.457586E-03
      0.220000          0.437799E-03
      0.225000          0.417201E-03
      0.230000          0.396715E-03
      0.235000          0.377126E-03
      0.240000          0.358987E-03
      0.245000          0.342592E-03
      0.250000          0.327997E-03
      0.255000          0.315068E-03
      0.260000          0.303551E-03
      0.265000          0.293143E-03
      0.270000          0.283561E-03
      0.275000          0.274602E-03
      0.280000          0.266176E-03
      0.285000          0.258317E-03
      0.290000          0.251161E-03
      0.295000          0.244895E-03
      0.300000          0.239682E-03
      0.305000          0.235590E-03
      0.310000          0.232529E-03
      0.315000          0.230230E-03
      0.320000          0.228265E-03
      0.325000          0.226117E-03
      0.330000          0.223277E-03
      0.335000          0.219353E-03
      0.340000          0.214160E-03
      0.345000          0.207764E-03
      0.350000          0.200466E-03
      0.355000          0.192733E-03
      0.360000          0.185087E-03
      0.365000          0.177983E-03
      0.370000          0.171706E-03
      0.375000          0.166314E-03
      0.380000          0.161648E-03
      0.385000          0.157386E-03
      0.390000          0.153150E-03
      0.395000          0.148605E-03
      0.400000          0.143555E-03
      0.405000          0.137978E-03
      0.410000          0.132020E-03
      0.415000          0.125944E-03
      0.420000          0.120043E-03
      0.425000          0.114563E-03
      0.430000          0.109638E-03
      0.435000          0.105271E-03
      0.440000          0.101346E-03
      0.445000          0.976792E-04
      0.450000          0.940765E-04
      0.455000          0.903937E-04
      0.460000          0.865707E-04
      0.465000          0.826399E-04
      0.470000          0.787087E-04
      0.475000          0.749238E-04
      0.480000          0.714304E-04
      0.485000          0.683396E-04
      0.490000          0.657089E-04
      0.495000          0.635411E-04
      0.500000          0.617962E-04
