 I_abs(s)[cm^-1]/c[mg/ml]
       0.00000          0.122190E-01
      0.500000E-02      0.119518E-01
      0.100000E-01      0.111959E-01
      0.150000E-01      0.100763E-01
      0.200000E-01      0.876537E-02
      0.250000E-01      0.744052E-02
      0.300000E-01      0.624545E-02
      0.350000E-01      0.526476E-02
      0.400000E-01      0.451824E-02
      0.450000E-01      0.397334E-02
      0.500000E-01      0.356897E-02
      0.550000E-01      0.324132E-02
      0.600000E-01      0.294331E-02
      0.650000E-01      0.265298E-02
      0.700000E-01      0.237101E-02
      0.750000E-01      0.211098E-02
      0.800000E-01      0.188795E-02
      0.850000E-01      0.170993E-02
      0.900000E-01      0.157453E-02
      0.950000E-01      0.147092E-02
      0.100000          0.138467E-02
      0.105000          0.130303E-02
      0.110000          0.121847E-02
      0.115000          0.112967E-02
      0.120000          0.104017E-02
      0.125000          0.955901E-03
      0.130000          0.882580E-03
      0.135000          0.823858E-03
      0.140000          0.780506E-03
      0.145000          0.750538E-03
      0.150000          0.730003E-03
      0.155000          0.714106E-03
      0.160000          0.698376E-03
      0.165000          0.679633E-03
      0.170000          0.656542E-03
      0.175000          0.629628E-03
      0.180000          0.600750E-03
      0.185000          0.572225E-03
      0.190000          0.545903E-03
      0.195000          0.522544E-03
      0.200000          0.501707E-03
      0.205000          0.482156E-03
      0.210000          0.462573E-03
      0.215000          0.442223E-03
      0.220000          0.421301E-03
      0.225000          0.400810E-03
      0.230000          0.382090E-03
      0.235000          0.366221E-03
      0.240000          0.353589E-03
      0.245000          0.343785E-03
      0.250000          0.335826E-03
      0.255000          0.328566E-03
      0.260000          0.321079E-03
      0.265000          0.312877E-03
      0.270000          0.303912E-03
      0.275000          0.294419E-03
      0.280000          0.284743E-03
      0.285000          0.275220E-03
      0.290000          0.266153E-03
      0.295000          0.257831E-03
      0.300000          0.250525E-03
      0.305000          0.244412E-03
      0.310000          0.239448E-03
      0.315000          0.235273E-03
      0.320000          0.231216E-03
      0.325000          0.226456E-03
      0.330000          0.220293E-03
      0.335000          0.212414E-03
      0.340000          0.203043E-03
      0.345000          0.192884E-03
      0.350000          0.182857E-03
      0.355000          0.173749E-03
      0.360000          0.165911E-03
      0.365000          0.159147E-03
      0.370000          0.152856E-03
      0.375000          0.146344E-03
      0.380000          0.139194E-03
      0.385000          0.131510E-03
      0.390000          0.123917E-03
      0.395000          0.117328E-03
      0.400000          0.112550E-03
      0.405000          0.109923E-03
      0.410000          0.109126E-03
      0.415000          0.109261E-03
      0.420000          0.109156E-03
      0.425000          0.107794E-03
      0.430000          0.104670E-03
      0.435000          0.999574E-04
      0.440000          0.944069E-04
      0.445000          0.890485E-04
      0.450000          0.848062E-04
      0.455000          0.821847E-04
      0.460000          0.811359E-04
      0.465000          0.811372E-04
      0.470000          0.814277E-04
      0.475000          0.812965E-04
      0.480000          0.803091E-04
      0.485000          0.783981E-04
      0.490000          0.758078E-04
      0.495000          0.729374E-04
      0.500000          0.701615E-04
