 I_abs(s)[cm^-1]/c[mg/ml]
       0.00000          0.123137E-01
      0.500000E-02      0.121107E-01
      0.100000E-01      0.115264E-01
      0.150000E-01      0.106299E-01
      0.200000E-01      0.952224E-02
      0.250000E-01      0.831805E-02
      0.300000E-01      0.712665E-02
      0.350000E-01      0.603573E-02
      0.400000E-01      0.510122E-02
      0.450000E-01      0.434466E-02
      0.500000E-01      0.375760E-02
      0.550000E-01      0.331095E-02
      0.600000E-01      0.296643E-02
      0.650000E-01      0.268700E-02
      0.700000E-01      0.244420E-02
      0.750000E-01      0.222125E-02
      0.800000E-01      0.201233E-02
      0.850000E-01      0.181911E-02
      0.900000E-01      0.164641E-02
      0.950000E-01      0.149829E-02
      0.100000          0.137590E-02
      0.105000          0.127696E-02
      0.110000          0.119682E-02
      0.115000          0.113007E-02
      0.120000          0.107207E-02
      0.125000          0.101970E-02
      0.130000          0.971426E-03
      0.135000          0.926595E-03
      0.140000          0.884682E-03
      0.145000          0.844728E-03
      0.150000          0.805280E-03
      0.155000          0.764795E-03
      0.160000          0.722275E-03
      0.165000          0.677812E-03
      0.170000          0.632755E-03
      0.175000          0.589408E-03
      0.180000          0.550348E-03
      0.185000          0.517621E-03
      0.190000          0.492105E-03
      0.195000          0.473269E-03
      0.200000          0.459400E-03
      0.205000          0.448192E-03
      0.210000          0.437482E-03
      0.215000          0.425863E-03
      0.220000          0.412981E-03
      0.225000          0.399463E-03
      0.230000          0.386515E-03
      0.235000          0.375396E-03
      0.240000          0.366931E-03
      0.245000          0.361248E-03
      0.250000          0.357776E-03
      0.255000          0.355475E-03
      0.260000          0.353175E-03
      0.265000          0.349899E-03
      0.270000          0.345048E-03
      0.275000          0.338431E-03
      0.280000          0.330153E-03
      0.285000          0.320450E-03
      0.290000          0.309540E-03
      0.295000          0.297560E-03
      0.300000          0.284600E-03
      0.305000          0.270784E-03
      0.310000          0.256367E-03
      0.315000          0.241767E-03
      0.320000          0.227530E-03
      0.325000          0.214217E-03
      0.330000          0.202271E-03
      0.335000          0.191903E-03
      0.340000          0.183055E-03
      0.345000          0.175428E-03
      0.350000          0.168599E-03
      0.355000          0.162146E-03
      0.360000          0.155770E-03
      0.365000          0.149353E-03
      0.370000          0.142958E-03
      0.375000          0.136763E-03
      0.380000          0.130980E-03
      0.385000          0.125770E-03
      0.390000          0.121199E-03
      0.395000          0.117234E-03
      0.400000          0.113768E-03
      0.405000          0.110676E-03
      0.410000          0.107846E-03
      0.415000          0.105209E-03
      0.420000          0.102734E-03
      0.425000          0.100405E-03
      0.430000          0.982012E-04
      0.435000          0.960811E-04
      0.440000          0.939823E-04
      0.445000          0.918393E-04
      0.450000          0.896084E-04
      0.455000          0.872894E-04
      0.460000          0.849349E-04
      0.465000          0.826432E-04
      0.470000          0.805355E-04
      0.475000          0.787257E-04
      0.480000          0.772921E-04
      0.485000          0.762581E-04
      0.490000          0.755894E-04
      0.495000          0.752050E-04
      0.500000          0.749984E-04
