 I_abs(s)[cm^-1]/c[mg/ml]
       0.00000          0.121464E-01
      0.500000E-02      0.118912E-01
      0.100000E-01      0.111693E-01
      0.150000E-01      0.100994E-01
      0.200000E-01      0.884320E-02
      0.250000E-01      0.756436E-02
      0.300000E-01      0.639216E-02
      0.350000E-01      0.540075E-02
      0.400000E-01      0.460783E-02
      0.450000E-01      0.398951E-02
      0.500000E-01      0.350290E-02
      0.550000E-01      0.310662E-02
      0.600000E-01      0.277279E-02
      0.650000E-01      0.248854E-02
      0.700000E-01      0.225014E-02
      0.750000E-01      0.205502E-02
      0.800000E-01      0.189641E-02
      0.850000E-01      0.176295E-02
      0.900000E-01      0.164212E-02
      0.950000E-01      0.152488E-02
      0.100000          0.140846E-02
      0.105000          0.129595E-02
      0.110000          0.119313E-02
      0.115000          0.110467E-02
      0.120000          0.103149E-02
      0.125000          0.970577E-03
      0.130000          0.916836E-03
      0.135000          0.865713E-03
      0.140000          0.815067E-03
      0.145000          0.765498E-03
      0.150000          0.719238E-03
      0.155000          0.678455E-03
      0.160000          0.643977E-03
      0.165000          0.615008E-03
      0.170000          0.589784E-03
      0.175000          0.566602E-03
      0.180000          0.544605E-03
      0.185000          0.523937E-03
      0.190000          0.505334E-03
      0.195000          0.489490E-03
      0.200000          0.476600E-03
      0.205000          0.466260E-03
      0.210000          0.457683E-03
      0.215000          0.449994E-03
      0.220000          0.442424E-03
      0.225000          0.434331E-03
      0.230000          0.425145E-03
      0.235000          0.414356E-03
      0.240000          0.401616E-03
      0.245000          0.386909E-03
      0.250000          0.370640E-03
      0.255000          0.353562E-03
      0.260000          0.336543E-03
      0.265000          0.320283E-03
      0.270000          0.305145E-03
      0.275000          0.291177E-03
      0.280000          0.278305E-03
      0.285000          0.266549E-03
      0.290000          0.256115E-03
      0.295000          0.247294E-03
      0.300000          0.240232E-03
      0.305000          0.234717E-03
      0.310000          0.230141E-03
      0.315000          0.225668E-03
      0.320000          0.220542E-03
      0.325000          0.214364E-03
      0.330000          0.207199E-03
      0.335000          0.199450E-03
      0.340000          0.191595E-03
      0.345000          0.183934E-03
      0.350000          0.176481E-03
      0.355000          0.169066E-03
      0.360000          0.161544E-03
      0.365000          0.153990E-03
      0.370000          0.146754E-03
      0.375000          0.140317E-03
      0.380000          0.135056E-03
      0.385000          0.131024E-03
      0.390000          0.127882E-03
      0.395000          0.125025E-03
      0.400000          0.121834E-03
      0.405000          0.117923E-03
      0.410000          0.113274E-03
      0.415000          0.108202E-03
      0.420000          0.103177E-03
      0.425000          0.986156E-04
      0.430000          0.947348E-04
      0.435000          0.915240E-04
      0.440000          0.888272E-04
      0.445000          0.864633E-04
      0.450000          0.843147E-04
      0.455000          0.823408E-04
      0.460000          0.805277E-04
      0.465000          0.788224E-04
      0.470000          0.771065E-04
      0.475000          0.752341E-04
      0.480000          0.731210E-04
      0.485000          0.708314E-04
      0.490000          0.686113E-04
      0.495000          0.668354E-04
      0.500000          0.658801E-04
