 I_abs(s)[cm^-1]/c[mg/ml]
       0.00000          0.119659E-01
      0.500000E-02      0.116725E-01
      0.100000E-01      0.108476E-01
      0.150000E-01      0.964015E-02
      0.200000E-01      0.825140E-02
      0.250000E-01      0.688131E-02
      0.300000E-01      0.568185E-02
      0.350000E-01      0.473090E-02
      0.400000E-01      0.403203E-02
      0.450000E-01      0.353583E-02
      0.500000E-01      0.317124E-02
      0.550000E-01      0.287426E-02
      0.600000E-01      0.260500E-02
      0.650000E-01      0.235023E-02
      0.700000E-01      0.211511E-02
      0.750000E-01      0.191085E-02
      0.800000E-01      0.174458E-02
      0.850000E-01      0.161522E-02
      0.900000E-01      0.151485E-02
      0.950000E-01      0.143328E-02
      0.100000          0.136217E-02
      0.105000          0.129702E-02
      0.110000          0.123650E-02
      0.115000          0.118050E-02
      0.120000          0.112836E-02
      0.125000          0.107830E-02
      0.130000          0.102806E-02
      0.135000          0.976029E-03
      0.140000          0.922088E-03
      0.145000          0.867558E-03
      0.150000          0.814506E-03
      0.155000          0.764786E-03
      0.160000          0.719397E-03
      0.165000          0.678378E-03
      0.170000          0.641183E-03
      0.175000          0.607205E-03
      0.180000          0.576153E-03
      0.185000          0.548118E-03
      0.190000          0.523359E-03
      0.195000          0.502004E-03
      0.200000          0.483821E-03
      0.205000          0.468176E-03
      0.210000          0.454170E-03
      0.215000          0.440856E-03
      0.220000          0.427452E-03
      0.225000          0.413475E-03
      0.230000          0.398767E-03
      0.235000          0.383434E-03
      0.240000          0.367754E-03
      0.245000          0.352073E-03
      0.250000          0.336732E-03
      0.255000          0.322018E-03
      0.260000          0.308131E-03
      0.265000          0.295150E-03
      0.270000          0.283016E-03
      0.275000          0.271536E-03
      0.280000          0.260439E-03
      0.285000          0.249475E-03
      0.290000          0.238521E-03
      0.295000          0.227654E-03
      0.300000          0.217134E-03
      0.305000          0.207309E-03
      0.310000          0.198475E-03
      0.315000          0.190776E-03
      0.320000          0.184201E-03
      0.325000          0.178672E-03
      0.330000          0.174155E-03
      0.335000          0.170704E-03
      0.340000          0.168378E-03
      0.345000          0.167062E-03
      0.350000          0.166302E-03
      0.355000          0.165293E-03
      0.360000          0.163075E-03
      0.365000          0.158901E-03
      0.370000          0.152598E-03
      0.375000          0.144728E-03
      0.380000          0.136432E-03
      0.385000          0.128994E-03
      0.390000          0.123322E-03
      0.395000          0.119577E-03
      0.400000          0.117143E-03
      0.405000          0.114943E-03
      0.410000          0.111950E-03
      0.415000          0.107645E-03
      0.420000          0.102209E-03
      0.425000          0.963832E-04
      0.430000          0.910852E-04
      0.435000          0.869917E-04
      0.440000          0.842768E-04
      0.445000          0.826109E-04
      0.450000          0.813801E-04
      0.455000          0.799915E-04
      0.460000          0.781098E-04
      0.465000          0.757285E-04
      0.470000          0.730789E-04
      0.475000          0.704525E-04
      0.480000          0.680426E-04
      0.485000          0.658754E-04
      0.490000          0.638448E-04
      0.495000          0.618099E-04
      0.500000          0.596923E-04
