 I_abs(s)[cm^-1]/c[mg/ml]
       0.00000          0.115876E-01
      0.500000E-02      0.113244E-01
      0.100000E-01      0.105771E-01
      0.150000E-01      0.946290E-02
      0.200000E-01      0.814635E-02
      0.250000E-01      0.680229E-02
      0.300000E-01      0.557994E-02
      0.350000E-01      0.457701E-02
      0.400000E-01      0.382967E-02
      0.450000E-01      0.331885E-02
      0.500000E-01      0.298846E-02
      0.550000E-01      0.276877E-02
      0.600000E-01      0.259716E-02
      0.650000E-01      0.243145E-02
      0.700000E-01      0.225349E-02
      0.750000E-01      0.206482E-02
      0.800000E-01      0.187774E-02
      0.850000E-01      0.170617E-02
      0.900000E-01      0.155924E-02
      0.950000E-01      0.143888E-02
      0.100000          0.134107E-02
      0.105000          0.125890E-02
      0.110000          0.118572E-02
      0.115000          0.111708E-02
      0.120000          0.105120E-02
      0.125000          0.988209E-03
      0.130000          0.929098E-03
      0.135000          0.874837E-03
      0.140000          0.826073E-03
      0.145000          0.783203E-03
      0.150000          0.746532E-03
      0.155000          0.716269E-03
      0.160000          0.692287E-03
      0.165000          0.673808E-03
      0.170000          0.659248E-03
      0.175000          0.646392E-03
      0.180000          0.632876E-03
      0.185000          0.616805E-03
      0.190000          0.597232E-03
      0.195000          0.574324E-03
      0.200000          0.549145E-03
      0.205000          0.523197E-03
      0.210000          0.497910E-03
      0.215000          0.474280E-03
      0.220000          0.452753E-03
      0.225000          0.433322E-03
      0.230000          0.415739E-03
      0.235000          0.399699E-03
      0.240000          0.384936E-03
      0.245000          0.371215E-03
      0.250000          0.358288E-03
      0.255000          0.345869E-03
      0.260000          0.333666E-03
      0.265000          0.321452E-03
      0.270000          0.309147E-03
      0.275000          0.296838E-03
      0.280000          0.284750E-03
      0.285000          0.273153E-03
      0.290000          0.262282E-03
      0.295000          0.252280E-03
      0.300000          0.243198E-03
      0.305000          0.235027E-03
      0.310000          0.227733E-03
      0.315000          0.221272E-03
      0.320000          0.215573E-03
      0.325000          0.210508E-03
      0.330000          0.205882E-03
      0.335000          0.201455E-03
      0.340000          0.196993E-03
      0.345000          0.192326E-03
      0.350000          0.187384E-03
      0.355000          0.182178E-03
      0.360000          0.176753E-03
      0.365000          0.171123E-03
      0.370000          0.165228E-03
      0.375000          0.158954E-03
      0.380000          0.152191E-03
      0.385000          0.144921E-03
      0.390000          0.137273E-03
      0.395000          0.129539E-03
      0.400000          0.122099E-03
      0.405000          0.115327E-03
      0.410000          0.109467E-03
      0.415000          0.104572E-03
      0.420000          0.100491E-03
      0.425000          0.969337E-04
      0.430000          0.935699E-04
      0.435000          0.901356E-04
      0.440000          0.865041E-04
      0.445000          0.827105E-04
      0.450000          0.789277E-04
      0.455000          0.754102E-04
      0.460000          0.724265E-04
      0.465000          0.701965E-04
      0.470000          0.688447E-04
      0.475000          0.683740E-04
      0.480000          0.686594E-04
      0.485000          0.694635E-04
      0.490000          0.704711E-04
      0.495000          0.713403E-04
      0.500000          0.717603E-04
