 I_abs(s)[cm^-1]/c[mg/ml]
       0.00000          0.117012E-01
      0.500000E-02      0.114226E-01
      0.100000E-01      0.106366E-01
      0.150000E-01      0.947895E-02
      0.200000E-01      0.813535E-02
      0.250000E-01      0.679485E-02
      0.300000E-01      0.560711E-02
      0.350000E-01      0.465607E-02
      0.400000E-01      0.395563E-02
      0.450000E-01      0.346526E-02
      0.500000E-01      0.311701E-02
      0.550000E-01      0.284333E-02
      0.600000E-01      0.259655E-02
      0.650000E-01      0.235575E-02
      0.700000E-01      0.212229E-02
      0.750000E-01      0.190876E-02
      0.800000E-01      0.172759E-02
      0.850000E-01      0.158373E-02
      0.900000E-01      0.147319E-02
      0.950000E-01      0.138605E-02
      0.100000          0.131124E-02
      0.105000          0.124043E-02
      0.110000          0.116955E-02
      0.115000          0.109806E-02
      0.120000          0.102715E-02
      0.125000          0.958265E-03
      0.130000          0.892427E-03
      0.135000          0.830513E-03
      0.140000          0.773709E-03
      0.145000          0.723572E-03
      0.150000          0.681487E-03
      0.155000          0.647827E-03
      0.160000          0.621368E-03
      0.165000          0.599415E-03
      0.170000          0.578664E-03
      0.175000          0.556423E-03
      0.180000          0.531590E-03
      0.185000          0.504919E-03
      0.190000          0.478483E-03
      0.195000          0.454623E-03
      0.200000          0.434909E-03
      0.205000          0.419576E-03
      0.210000          0.407623E-03
      0.215000          0.397420E-03
      0.220000          0.387484E-03
      0.225000          0.377023E-03
      0.230000          0.366047E-03
      0.235000          0.355088E-03
      0.240000          0.344734E-03
      0.245000          0.335243E-03
      0.250000          0.326411E-03
      0.255000          0.317713E-03
      0.260000          0.308590E-03
      0.265000          0.298714E-03
      0.270000          0.288107E-03
      0.275000          0.277067E-03
      0.280000          0.265990E-03
      0.285000          0.255178E-03
      0.290000          0.244736E-03
      0.295000          0.234600E-03
      0.300000          0.224653E-03
      0.305000          0.214863E-03
      0.310000          0.205369E-03
      0.315000          0.196470E-03
      0.320000          0.188528E-03
      0.325000          0.181827E-03
      0.330000          0.176454E-03
      0.335000          0.172255E-03
      0.340000          0.168874E-03
      0.345000          0.165876E-03
      0.350000          0.162881E-03
      0.355000          0.159674E-03
      0.360000          0.156231E-03
      0.365000          0.152666E-03
      0.370000          0.149116E-03
      0.375000          0.145624E-03
      0.380000          0.142069E-03
      0.385000          0.138185E-03
      0.390000          0.133655E-03
      0.395000          0.128251E-03
      0.400000          0.121961E-03
      0.405000          0.115039E-03
      0.410000          0.107964E-03
      0.415000          0.101327E-03
      0.420000          0.956718E-04
      0.425000          0.913611E-04
      0.430000          0.885030E-04
      0.435000          0.869504E-04
      0.440000          0.863643E-04
      0.445000          0.863085E-04
      0.450000          0.863437E-04
      0.455000          0.860992E-04
      0.460000          0.853170E-04
      0.465000          0.838704E-04
      0.470000          0.817666E-04
      0.475000          0.791334E-04
      0.480000          0.761915E-04
      0.485000          0.732104E-04
      0.490000          0.704507E-04
      0.495000          0.681056E-04
      0.500000          0.662573E-04
