 I_abs(s)[cm^-1]/c[mg/ml]
       0.00000          0.124380E-01
      0.500000E-02      0.121802E-01
      0.100000E-01      0.114515E-01
      0.150000E-01      0.103736E-01
      0.200000E-01      0.911129E-02
      0.250000E-01      0.782973E-02
      0.300000E-01      0.665785E-02
      0.350000E-01      0.566792E-02
      0.400000E-01      0.487540E-02
      0.450000E-01      0.425475E-02
      0.500000E-01      0.376208E-02
      0.550000E-01      0.335522E-02
      0.600000E-01      0.300520E-02
      0.650000E-01      0.269804E-02
      0.700000E-01      0.242990E-02
      0.750000E-01      0.220025E-02
      0.800000E-01      0.200689E-02
      0.850000E-01      0.184442E-02
      0.900000E-01      0.170556E-02
      0.950000E-01      0.158342E-02
      0.100000          0.147329E-02
      0.105000          0.137304E-02
      0.110000          0.128229E-02
      0.115000          0.120130E-02
      0.120000          0.112992E-02
      0.125000          0.106721E-02
      0.130000          0.101147E-02
      0.135000          0.960646E-03
      0.140000          0.912741E-03
      0.145000          0.866157E-03
      0.150000          0.819908E-03
      0.155000          0.773707E-03
      0.160000          0.727904E-03
      0.165000          0.683318E-03
      0.170000          0.640976E-03
      0.175000          0.601827E-03
      0.180000          0.566487E-03
      0.185000          0.535082E-03
      0.190000          0.507225E-03
      0.195000          0.482136E-03
      0.200000          0.458893E-03
      0.205000          0.436719E-03
      0.210000          0.415212E-03
      0.215000          0.394420E-03
      0.220000          0.374715E-03
      0.225000          0.356536E-03
      0.230000          0.340127E-03
      0.235000          0.325421E-03
      0.240000          0.312142E-03
      0.245000          0.300060E-03
      0.250000          0.289248E-03
      0.255000          0.280156E-03
      0.260000          0.273434E-03
      0.265000          0.269561E-03
      0.270000          0.268471E-03
      0.275000          0.269377E-03
      0.280000          0.270894E-03
      0.285000          0.271435E-03
      0.290000          0.269685E-03
      0.295000          0.264974E-03
      0.300000          0.257393E-03
      0.305000          0.247652E-03
      0.310000          0.236757E-03
      0.315000          0.225675E-03
      0.320000          0.215096E-03
      0.325000          0.205356E-03
      0.330000          0.196502E-03
      0.335000          0.188430E-03
      0.340000          0.181016E-03
      0.345000          0.174191E-03
      0.350000          0.167942E-03
      0.355000          0.162259E-03
      0.360000          0.157082E-03
      0.365000          0.152281E-03
      0.370000          0.147683E-03
      0.375000          0.143140E-03
      0.380000          0.138596E-03
      0.385000          0.134118E-03
      0.390000          0.129872E-03
      0.395000          0.126054E-03
      0.400000          0.122809E-03
      0.405000          0.120170E-03
      0.410000          0.118045E-03
      0.415000          0.116242E-03
      0.420000          0.114522E-03
      0.425000          0.112652E-03
      0.430000          0.110442E-03
      0.435000          0.107777E-03
      0.440000          0.104631E-03
      0.445000          0.101070E-03
      0.450000          0.972404E-04
      0.455000          0.933265E-04
      0.460000          0.895052E-04
      0.465000          0.858969E-04
      0.470000          0.825431E-04
      0.475000          0.794194E-04
      0.480000          0.764749E-04
      0.485000          0.736763E-04
      0.490000          0.710317E-04
      0.495000          0.685845E-04
      0.500000          0.663839E-04
