 I_abs(s)[cm^-1]/c[mg/ml]
       0.00000          0.118081E-01
      0.500000E-02      0.115234E-01
      0.100000E-01      0.107236E-01
      0.150000E-01      0.955562E-02
      0.200000E-01      0.821689E-02
      0.250000E-01      0.690195E-02
      0.300000E-01      0.575613E-02
      0.350000E-01      0.485047E-02
      0.400000E-01      0.418310E-02
      0.450000E-01      0.370209E-02
      0.500000E-01      0.333790E-02
      0.550000E-01      0.303183E-02
      0.600000E-01      0.275125E-02
      0.650000E-01      0.248943E-02
      0.700000E-01      0.225441E-02
      0.750000E-01      0.205520E-02
      0.800000E-01      0.189247E-02
      0.850000E-01      0.175719E-02
      0.900000E-01      0.163607E-02
      0.950000E-01      0.151904E-02
      0.100000          0.140431E-02
      0.105000          0.129812E-02
      0.110000          0.120997E-02
      0.115000          0.114634E-02
      0.120000          0.110635E-02
      0.125000          0.108159E-02
      0.130000          0.105981E-02
      0.135000          0.103032E-02
      0.140000          0.988154E-03
      0.145000          0.935255E-03
      0.150000          0.878345E-03
      0.155000          0.825050E-03
      0.160000          0.780308E-03
      0.165000          0.744715E-03
      0.170000          0.715222E-03
      0.175000          0.687385E-03
      0.180000          0.657760E-03
      0.185000          0.625252E-03
      0.190000          0.590987E-03
      0.195000          0.557125E-03
      0.200000          0.525478E-03
      0.205000          0.496717E-03
      0.210000          0.470442E-03
      0.215000          0.445857E-03
      0.220000          0.422520E-03
      0.225000          0.400676E-03
      0.230000          0.381058E-03
      0.235000          0.364339E-03
      0.240000          0.350628E-03
      0.245000          0.339300E-03
      0.250000          0.329216E-03
      0.255000          0.319171E-03
      0.260000          0.308321E-03
      0.265000          0.296378E-03
      0.270000          0.283559E-03
      0.275000          0.270381E-03
      0.280000          0.257431E-03
      0.285000          0.245241E-03
      0.290000          0.234223E-03
      0.295000          0.224657E-03
      0.300000          0.216661E-03
      0.305000          0.210145E-03
      0.310000          0.204809E-03
      0.315000          0.200203E-03
      0.320000          0.195853E-03
      0.325000          0.191408E-03
      0.330000          0.186720E-03
      0.335000          0.181832E-03
      0.340000          0.176890E-03
      0.345000          0.172040E-03
      0.350000          0.167378E-03
      0.355000          0.162958E-03
      0.360000          0.158837E-03
      0.365000          0.155088E-03
      0.370000          0.151744E-03
      0.375000          0.148724E-03
      0.380000          0.145779E-03
      0.385000          0.142551E-03
      0.390000          0.138720E-03
      0.395000          0.134184E-03
      0.400000          0.129150E-03
      0.405000          0.124051E-03
      0.410000          0.119337E-03
      0.415000          0.115215E-03
      0.420000          0.111526E-03
      0.425000          0.107835E-03
      0.430000          0.103699E-03
      0.435000          0.989751E-04
      0.440000          0.939765E-04
      0.445000          0.893668E-04
      0.450000          0.858289E-04
      0.455000          0.836880E-04
      0.460000          0.827039E-04
      0.465000          0.821650E-04
      0.470000          0.812477E-04
      0.475000          0.794463E-04
      0.480000          0.768328E-04
      0.485000          0.739937E-04
      0.490000          0.716745E-04
      0.495000          0.703309E-04
      0.500000          0.698430E-04
