 I_abs(s)[cm^-1]/c[mg/ml]
       0.00000          0.122553E-01
      0.500000E-02      0.120522E-01
      0.100000E-01      0.114637E-01
      0.150000E-01      0.105489E-01
      0.200000E-01      0.939737E-02
      0.250000E-01      0.811592E-02
      0.300000E-01      0.681463E-02
      0.350000E-01      0.559266E-02
      0.400000E-01      0.452678E-02
      0.450000E-01      0.366424E-02
      0.500000E-01      0.302054E-02
      0.550000E-01      0.258229E-02
      0.600000E-01      0.231401E-02
      0.650000E-01      0.216739E-02
      0.700000E-01      0.209120E-02
      0.750000E-01      0.204001E-02
      0.800000E-01      0.198041E-02
      0.850000E-01      0.189399E-02
      0.900000E-01      0.177704E-02
      0.950000E-01      0.163746E-02
      0.100000          0.149007E-02
      0.105000          0.135139E-02
      0.110000          0.123507E-02
      0.115000          0.114886E-02
      0.120000          0.109342E-02
      0.125000          0.106306E-02
      0.130000          0.104785E-02
      0.135000          0.103639E-02
      0.140000          0.101866E-02
      0.145000          0.988072E-03
      0.150000          0.942564E-03
      0.155000          0.884408E-03
      0.160000          0.819093E-03
      0.165000          0.753582E-03
      0.170000          0.694443E-03
      0.175000          0.646321E-03
      0.180000          0.611052E-03
      0.185000          0.587559E-03
      0.190000          0.572462E-03
      0.195000          0.561159E-03
      0.200000          0.549083E-03
      0.205000          0.532792E-03
      0.210000          0.510670E-03
      0.215000          0.483099E-03
      0.220000          0.452132E-03
      0.225000          0.420787E-03
      0.230000          0.392196E-03
      0.235000          0.368808E-03
      0.240000          0.351843E-03
      0.245000          0.341108E-03
      0.250000          0.335167E-03
      0.255000          0.331798E-03
      0.260000          0.328588E-03
      0.265000          0.323519E-03
      0.270000          0.315389E-03
      0.275000          0.304000E-03
      0.280000          0.290076E-03
      0.285000          0.274977E-03
      0.290000          0.260282E-03
      0.295000          0.247370E-03
      0.300000          0.237092E-03
      0.305000          0.229609E-03
      0.310000          0.224421E-03
      0.315000          0.220556E-03
      0.320000          0.216861E-03
      0.325000          0.212312E-03
      0.330000          0.206266E-03
      0.335000          0.198604E-03
      0.340000          0.189722E-03
      0.345000          0.180404E-03
      0.350000          0.171604E-03
      0.355000          0.164200E-03
      0.360000          0.158778E-03
      0.365000          0.155499E-03
      0.370000          0.154072E-03
      0.375000          0.153830E-03
      0.380000          0.153894E-03
      0.385000          0.153367E-03
      0.390000          0.151530E-03
      0.395000          0.147987E-03
      0.400000          0.142726E-03
      0.405000          0.136107E-03
      0.410000          0.128763E-03
      0.415000          0.121459E-03
      0.420000          0.114924E-03
      0.425000          0.109719E-03
      0.430000          0.106130E-03
      0.435000          0.104142E-03
      0.440000          0.103462E-03
      0.445000          0.103608E-03
      0.450000          0.104013E-03
      0.455000          0.104151E-03
      0.460000          0.103633E-03
      0.465000          0.102269E-03
      0.470000          0.100083E-03
      0.475000          0.972862E-04
      0.480000          0.942049E-04
      0.485000          0.911989E-04
      0.490000          0.885741E-04
      0.495000          0.865159E-04
      0.500000          0.850515E-04
