 I_abs(s)[cm^-1]/c[mg/ml]
       0.00000          0.118654E-01
      0.500000E-02      0.115816E-01
      0.100000E-01      0.107818E-01
      0.150000E-01      0.960597E-02
      0.200000E-01      0.824444E-02
      0.250000E-01      0.688838E-02
      0.300000E-01      0.568640E-02
      0.350000E-01      0.471926E-02
      0.400000E-01      0.399825E-02
      0.450000E-01      0.348351E-02
      0.500000E-01      0.311216E-02
      0.550000E-01      0.282474E-02
      0.600000E-01      0.258116E-02
      0.650000E-01      0.236367E-02
      0.700000E-01      0.216980E-02
      0.750000E-01      0.200173E-02
      0.800000E-01      0.185812E-02
      0.850000E-01      0.173176E-02
      0.900000E-01      0.161259E-02
      0.950000E-01      0.149286E-02
      0.100000          0.137091E-02
      0.105000          0.125138E-02
      0.110000          0.114209E-02
      0.115000          0.104960E-02
      0.120000          0.975911E-03
      0.125000          0.917941E-03
      0.130000          0.869576E-03
      0.135000          0.824906E-03
      0.140000          0.780783E-03
      0.145000          0.737493E-03
      0.150000          0.697528E-03
      0.155000          0.663447E-03
      0.160000          0.636130E-03
      0.165000          0.614312E-03
      0.170000          0.595427E-03
      0.175000          0.577052E-03
      0.180000          0.558045E-03
      0.185000          0.538754E-03
      0.190000          0.520342E-03
      0.195000          0.503739E-03
      0.200000          0.488912E-03
      0.205000          0.474858E-03
      0.210000          0.460232E-03
      0.215000          0.444183E-03
      0.220000          0.426860E-03
      0.225000          0.409326E-03
      0.230000          0.392952E-03
      0.235000          0.378684E-03
      0.240000          0.366584E-03
      0.245000          0.355859E-03
      0.250000          0.345302E-03
      0.255000          0.333861E-03
      0.260000          0.321013E-03
      0.265000          0.306824E-03
      0.270000          0.291734E-03
      0.275000          0.276272E-03
      0.280000          0.260899E-03
      0.285000          0.246015E-03
      0.290000          0.232065E-03
      0.295000          0.219584E-03
      0.300000          0.209086E-03
      0.305000          0.200842E-03
      0.310000          0.194685E-03
      0.315000          0.189991E-03
      0.320000          0.185895E-03
      0.325000          0.181661E-03
      0.330000          0.176998E-03
      0.335000          0.172161E-03
      0.340000          0.167754E-03
      0.345000          0.164342E-03
      0.350000          0.162085E-03
      0.355000          0.160580E-03
      0.360000          0.159011E-03
      0.365000          0.156528E-03
      0.370000          0.152647E-03
      0.375000          0.147479E-03
      0.380000          0.141660E-03
      0.385000          0.136039E-03
      0.390000          0.131293E-03
      0.395000          0.127644E-03
      0.400000          0.124821E-03
      0.405000          0.122248E-03
      0.410000          0.119345E-03
      0.415000          0.115777E-03
      0.420000          0.111549E-03
      0.425000          0.106919E-03
      0.430000          0.102219E-03
      0.435000          0.976923E-04
      0.440000          0.934271E-04
      0.445000          0.894067E-04
      0.450000          0.856176E-04
      0.455000          0.821326E-04
      0.460000          0.791127E-04
      0.465000          0.767267E-04
      0.470000          0.750399E-04
      0.475000          0.739419E-04
      0.480000          0.731602E-04
      0.485000          0.723552E-04
      0.490000          0.712479E-04
      0.495000          0.697163E-04
      0.500000          0.678161E-04
