 I_abs(s)[cm^-1]/c[mg/ml]
       0.00000          0.122553E-01
      0.500000E-02      0.119780E-01
      0.100000E-01      0.111992E-01
      0.150000E-01      0.100613E-01
      0.200000E-01      0.875205E-02
      0.250000E-01      0.745063E-02
      0.300000E-01      0.628559E-02
      0.350000E-01      0.531685E-02
      0.400000E-01      0.454410E-02
      0.450000E-01      0.393204E-02
      0.500000E-01      0.343813E-02
      0.550000E-01      0.303074E-02
      0.600000E-01      0.269338E-02
      0.650000E-01      0.241838E-02
      0.700000E-01      0.219788E-02
      0.750000E-01      0.201899E-02
      0.800000E-01      0.186549E-02
      0.850000E-01      0.172363E-02
      0.900000E-01      0.158737E-02
      0.950000E-01      0.145913E-02
      0.100000          0.134604E-02
      0.105000          0.125403E-02
      0.110000          0.118345E-02
      0.115000          0.112867E-02
      0.120000          0.108117E-02
      0.125000          0.103384E-02
      0.130000          0.983918E-03
      0.135000          0.933039E-03
      0.140000          0.884960E-03
      0.145000          0.842705E-03
      0.150000          0.806868E-03
      0.155000          0.775776E-03
      0.160000          0.746961E-03
      0.165000          0.718710E-03
      0.170000          0.690721E-03
      0.175000          0.663666E-03
      0.180000          0.638230E-03
      0.185000          0.614405E-03
      0.190000          0.591487E-03
      0.195000          0.568645E-03
      0.200000          0.545539E-03
      0.205000          0.522519E-03
      0.210000          0.500296E-03
      0.215000          0.479364E-03
      0.220000          0.459621E-03
      0.225000          0.440430E-03
      0.230000          0.421068E-03
      0.235000          0.401227E-03
      0.240000          0.381235E-03
      0.245000          0.361869E-03
      0.250000          0.343903E-03
      0.255000          0.327681E-03
      0.260000          0.312956E-03
      0.265000          0.299077E-03
      0.270000          0.285362E-03
      0.275000          0.271449E-03
      0.280000          0.257439E-03
      0.285000          0.243801E-03
      0.290000          0.231122E-03
      0.295000          0.219869E-03
      0.300000          0.210244E-03
      0.305000          0.202192E-03
      0.310000          0.195492E-03
      0.315000          0.189865E-03
      0.320000          0.185037E-03
      0.325000          0.180751E-03
      0.330000          0.176743E-03
      0.335000          0.172732E-03
      0.340000          0.168436E-03
      0.345000          0.163624E-03
      0.350000          0.158175E-03
      0.355000          0.152120E-03
      0.360000          0.145629E-03
      0.365000          0.138962E-03
      0.370000          0.132392E-03
      0.375000          0.126126E-03
      0.380000          0.120265E-03
      0.385000          0.114807E-03
      0.390000          0.109686E-03
      0.395000          0.104837E-03
      0.400000          0.100237E-03
      0.405000          0.959352E-04
      0.410000          0.920347E-04
      0.415000          0.886561E-04
      0.420000          0.858846E-04
      0.425000          0.837261E-04
      0.430000          0.820887E-04
      0.435000          0.808003E-04
      0.440000          0.796595E-04
      0.445000          0.785012E-04
      0.450000          0.772480E-04
      0.455000          0.759236E-04
      0.460000          0.746189E-04
      0.465000          0.734293E-04
      0.470000          0.723978E-04
      0.475000          0.714978E-04
      0.480000          0.706671E-04
      0.485000          0.698687E-04
      0.490000          0.691384E-04
      0.495000          0.685802E-04
      0.500000          0.683053E-04
