 I_abs(s)[cm^-1]/c[mg/ml]
       0.00000          0.114606E-01
      0.500000E-02      0.111491E-01
      0.100000E-01      0.102792E-01
      0.150000E-01      0.902454E-02
      0.200000E-01      0.761605E-02
      0.250000E-01      0.627621E-02
      0.300000E-01      0.516362E-02
      0.350000E-01      0.434462E-02
      0.400000E-01      0.379813E-02
      0.450000E-01      0.344647E-02
      0.500000E-01      0.319668E-02
      0.550000E-01      0.297549E-02
      0.600000E-01      0.274660E-02
      0.650000E-01      0.250867E-02
      0.700000E-01      0.227990E-02
      0.750000E-01      0.207987E-02
      0.800000E-01      0.191717E-02
      0.850000E-01      0.178693E-02
      0.900000E-01      0.167640E-02
      0.950000E-01      0.157332E-02
      0.100000          0.147195E-02
      0.105000          0.137382E-02
      0.110000          0.128413E-02
      0.115000          0.120674E-02
      0.120000          0.114103E-02
      0.125000          0.108210E-02
      0.130000          0.102386E-02
      0.135000          0.962586E-03
      0.140000          0.898966E-03
      0.145000          0.837462E-03
      0.150000          0.783647E-03
      0.155000          0.741164E-03
      0.160000          0.709955E-03
      0.165000          0.686544E-03
      0.170000          0.665959E-03
      0.175000          0.644092E-03
      0.180000          0.619250E-03
      0.185000          0.592286E-03
      0.190000          0.565498E-03
      0.195000          0.541098E-03
      0.200000          0.520071E-03
      0.205000          0.501899E-03
      0.210000          0.485078E-03
      0.215000          0.467975E-03
      0.220000          0.449532E-03
      0.225000          0.429539E-03
      0.230000          0.408501E-03
      0.235000          0.387299E-03
      0.240000          0.366882E-03
      0.245000          0.348080E-03
      0.250000          0.331504E-03
      0.255000          0.317463E-03
      0.260000          0.305847E-03
      0.265000          0.296064E-03
      0.270000          0.287126E-03
      0.275000          0.277927E-03
      0.280000          0.267658E-03
      0.285000          0.256170E-03
      0.290000          0.244082E-03
      0.295000          0.232558E-03
      0.300000          0.222810E-03
      0.305000          0.215551E-03
      0.310000          0.210653E-03
      0.315000          0.207184E-03
      0.320000          0.203797E-03
      0.325000          0.199304E-03
      0.330000          0.193146E-03
      0.335000          0.185574E-03
      0.340000          0.177444E-03
      0.345000          0.169766E-03
      0.350000          0.163225E-03
      0.355000          0.157897E-03
      0.360000          0.153280E-03
      0.365000          0.148600E-03
      0.370000          0.143219E-03
      0.375000          0.136947E-03
      0.380000          0.130104E-03
      0.385000          0.123339E-03
      0.390000          0.117295E-03
      0.395000          0.112317E-03
      0.400000          0.108333E-03
      0.405000          0.104957E-03
      0.410000          0.101739E-03
      0.415000          0.984233E-04
      0.420000          0.950705E-04
      0.425000          0.919883E-04
      0.430000          0.895199E-04
      0.435000          0.878129E-04
      0.440000          0.867022E-04
      0.445000          0.857686E-04
      0.450000          0.845402E-04
      0.455000          0.827220E-04
      0.460000          0.803287E-04
      0.465000          0.776508E-04
      0.470000          0.750804E-04
      0.475000          0.728978E-04
      0.480000          0.711355E-04
      0.485000          0.695882E-04
      0.490000          0.679510E-04
      0.495000          0.659984E-04
      0.500000          0.637059E-04
