 I_abs(s)[cm^-1]/c[mg/ml]
       0.00000          0.124307E-01
      0.500000E-02      0.122233E-01
      0.100000E-01      0.116237E-01
      0.150000E-01      0.106960E-01
      0.200000E-01      0.953584E-02
      0.250000E-01      0.825569E-02
      0.300000E-01      0.696839E-02
      0.350000E-01      0.577192E-02
      0.400000E-01      0.473793E-02
      0.450000E-01      0.390569E-02
      0.500000E-01      0.328205E-02
      0.550000E-01      0.284666E-02
      0.600000E-01      0.256081E-02
      0.650000E-01      0.237777E-02
      0.700000E-01      0.225242E-02
      0.750000E-01      0.214857E-02
      0.800000E-01      0.204280E-02
      0.850000E-01      0.192503E-02
      0.900000E-01      0.179605E-02
      0.950000E-01      0.166356E-02
      0.100000          0.153760E-02
      0.105000          0.142676E-02
      0.110000          0.133581E-02
      0.115000          0.126487E-02
      0.120000          0.121010E-02
      0.125000          0.116533E-02
      0.130000          0.112398E-02
      0.135000          0.108065E-02
      0.140000          0.103221E-02
      0.145000          0.978023E-03
      0.150000          0.919572E-03
      0.155000          0.859642E-03
      0.160000          0.801411E-03
      0.165000          0.747678E-03
      0.170000          0.700373E-03
      0.175000          0.660413E-03
      0.180000          0.627814E-03
      0.185000          0.601952E-03
      0.190000          0.581852E-03
      0.195000          0.566417E-03
      0.200000          0.554544E-03
      0.205000          0.545164E-03
      0.210000          0.537224E-03
      0.215000          0.529674E-03
      0.220000          0.521500E-03
      0.225000          0.511796E-03
      0.230000          0.499873E-03
      0.235000          0.485361E-03
      0.240000          0.468273E-03
      0.245000          0.449001E-03
      0.250000          0.428243E-03
      0.255000          0.406869E-03
      0.260000          0.385764E-03
      0.265000          0.365677E-03
      0.270000          0.347109E-03
      0.275000          0.330269E-03
      0.280000          0.315091E-03
      0.285000          0.301303E-03
      0.290000          0.288537E-03
      0.295000          0.276435E-03
      0.300000          0.264741E-03
      0.305000          0.253356E-03
      0.310000          0.242344E-03
      0.315000          0.231897E-03
      0.320000          0.222263E-03
      0.325000          0.213670E-03
      0.330000          0.206250E-03
      0.335000          0.199982E-03
      0.340000          0.194684E-03
      0.345000          0.190035E-03
      0.350000          0.185630E-03
      0.355000          0.181065E-03
      0.360000          0.176010E-03
      0.365000          0.170281E-03
      0.370000          0.163868E-03
      0.375000          0.156939E-03
      0.380000          0.149795E-03
      0.385000          0.142805E-03
      0.390000          0.136338E-03
      0.395000          0.130685E-03
      0.400000          0.126021E-03
      0.405000          0.122383E-03
      0.410000          0.119684E-03
      0.415000          0.117744E-03
      0.420000          0.116339E-03
      0.425000          0.115239E-03
      0.430000          0.114241E-03
      0.435000          0.113186E-03
      0.440000          0.111951E-03
      0.445000          0.110445E-03
      0.450000          0.108594E-03
      0.455000          0.106334E-03
      0.460000          0.103617E-03
      0.465000          0.100419E-03
      0.470000          0.967599E-04
      0.475000          0.927171E-04
      0.480000          0.884281E-04
      0.485000          0.840825E-04
      0.490000          0.798970E-04
      0.495000          0.760821E-04
      0.500000          0.728051E-04
