 I_abs(s)[cm^-1]/c[mg/ml]
       0.00000          0.121391E-01
      0.500000E-02      0.118581E-01
      0.100000E-01      0.110655E-01
      0.150000E-01      0.989932E-02
      0.200000E-01      0.854767E-02
      0.250000E-01      0.720069E-02
      0.300000E-01      0.600707E-02
      0.350000E-01      0.504768E-02
      0.400000E-01      0.433247E-02
      0.450000E-01      0.381793E-02
      0.500000E-01      0.343598E-02
      0.550000E-01      0.312266E-02
      0.600000E-01      0.283692E-02
      0.650000E-01      0.256537E-02
      0.700000E-01      0.231472E-02
      0.750000E-01      0.209830E-02
      0.800000E-01      0.192376E-02
      0.850000E-01      0.178730E-02
      0.900000E-01      0.167554E-02
      0.950000E-01      0.157252E-02
      0.100000          0.146742E-02
      0.105000          0.135879E-02
      0.110000          0.125365E-02
      0.115000          0.116238E-02
      0.120000          0.109244E-02
      0.125000          0.104411E-02
      0.130000          0.101012E-02
      0.135000          0.979094E-03
      0.140000          0.940707E-03
      0.145000          0.889999E-03
      0.150000          0.828914E-03
      0.155000          0.764595E-03
      0.160000          0.705572E-03
      0.165000          0.657833E-03
      0.170000          0.622548E-03
      0.175000          0.596275E-03
      0.180000          0.573199E-03
      0.185000          0.548070E-03
      0.190000          0.518405E-03
      0.195000          0.485051E-03
      0.200000          0.451117E-03
      0.205000          0.420078E-03
      0.210000          0.394085E-03
      0.215000          0.373273E-03
      0.220000          0.356222E-03
      0.225000          0.341120E-03
      0.230000          0.326904E-03
      0.235000          0.313750E-03
      0.240000          0.302749E-03
      0.245000          0.295016E-03
      0.250000          0.290801E-03
      0.255000          0.289076E-03
      0.260000          0.287819E-03
      0.265000          0.284806E-03
      0.270000          0.278496E-03
      0.275000          0.268597E-03
      0.280000          0.256044E-03
      0.285000          0.242494E-03
      0.290000          0.229587E-03
      0.295000          0.218350E-03
      0.300000          0.208961E-03
      0.305000          0.200928E-03
      0.310000          0.193508E-03
      0.315000          0.186130E-03
      0.320000          0.178643E-03
      0.325000          0.171289E-03
      0.330000          0.164499E-03
      0.335000          0.158631E-03
      0.340000          0.153793E-03
      0.345000          0.149817E-03
      0.350000          0.146356E-03
      0.355000          0.143035E-03
      0.360000          0.139579E-03
      0.365000          0.135868E-03
      0.370000          0.131928E-03
      0.375000          0.127884E-03
      0.380000          0.123904E-03
      0.385000          0.120163E-03
      0.390000          0.116809E-03
      0.395000          0.113930E-03
      0.400000          0.111528E-03
      0.405000          0.109502E-03
      0.410000          0.107662E-03
      0.415000          0.105784E-03
      0.420000          0.103679E-03
      0.425000          0.101269E-03
      0.430000          0.986084E-04
      0.435000          0.958646E-04
      0.440000          0.932412E-04
      0.445000          0.908935E-04
      0.450000          0.888674E-04
      0.455000          0.870890E-04
      0.460000          0.854039E-04
      0.465000          0.836442E-04
      0.470000          0.816868E-04
      0.475000          0.794817E-04
      0.480000          0.770424E-04
      0.485000          0.744160E-04
      0.490000          0.716545E-04
      0.495000          0.688055E-04
      0.500000          0.659230E-04
