 I_abs(s)[cm^-1]/c[mg/ml]
       0.00000          0.123283E-01
      0.500000E-02      0.120603E-01
      0.100000E-01      0.113053E-01
      0.150000E-01      0.101950E-01
      0.200000E-01      0.890620E-02
      0.250000E-01      0.761267E-02
      0.300000E-01      0.644543E-02
      0.350000E-01      0.547223E-02
      0.400000E-01      0.470032E-02
      0.450000E-01      0.409632E-02
      0.500000E-01      0.361217E-02
      0.550000E-01      0.320608E-02
      0.600000E-01      0.285236E-02
      0.650000E-01      0.254041E-02
      0.700000E-01      0.226766E-02
      0.750000E-01      0.203249E-02
      0.800000E-01      0.183090E-02
      0.850000E-01      0.165736E-02
      0.900000E-01      0.150736E-02
      0.950000E-01      0.137902E-02
      0.100000          0.127236E-02
      0.105000          0.118675E-02
      0.110000          0.111882E-02
      0.115000          0.106220E-02
      0.120000          0.100954E-02
      0.125000          0.955457E-03
      0.130000          0.898572E-03
      0.135000          0.841414E-03
      0.140000          0.788280E-03
      0.145000          0.742409E-03
      0.150000          0.704114E-03
      0.155000          0.670805E-03
      0.160000          0.638643E-03
      0.165000          0.604700E-03
      0.170000          0.568328E-03
      0.175000          0.531126E-03
      0.180000          0.495785E-03
      0.185000          0.464666E-03
      0.190000          0.438949E-03
      0.195000          0.418636E-03
      0.200000          0.403094E-03
      0.205000          0.391559E-03
      0.210000          0.383245E-03
      0.215000          0.377115E-03
      0.220000          0.371725E-03
      0.225000          0.365503E-03
      0.230000          0.357429E-03
      0.235000          0.347729E-03
      0.240000          0.338006E-03
      0.245000          0.330571E-03
      0.250000          0.327210E-03
      0.255000          0.328054E-03
      0.260000          0.331222E-03
      0.265000          0.333507E-03
      0.270000          0.331786E-03
      0.275000          0.324409E-03
      0.280000          0.311860E-03
      0.285000          0.296374E-03
      0.290000          0.280786E-03
      0.295000          0.267274E-03
      0.300000          0.256620E-03
      0.305000          0.248276E-03
      0.310000          0.241024E-03
      0.315000          0.233766E-03
      0.320000          0.225993E-03
      0.325000          0.217766E-03
      0.330000          0.209390E-03
      0.335000          0.201088E-03
      0.340000          0.192904E-03
      0.345000          0.184848E-03
      0.350000          0.177085E-03
      0.355000          0.169957E-03
      0.360000          0.163799E-03
      0.365000          0.158669E-03
      0.370000          0.154217E-03
      0.375000          0.149845E-03
      0.380000          0.145063E-03
      0.385000          0.139843E-03
      0.390000          0.134691E-03
      0.395000          0.130379E-03
      0.400000          0.127458E-03
      0.405000          0.125866E-03
      0.410000          0.124862E-03
      0.415000          0.123348E-03
      0.420000          0.120412E-03
      0.425000          0.115761E-03
      0.430000          0.109828E-03
      0.435000          0.103509E-03
      0.440000          0.977088E-04
      0.445000          0.929684E-04
      0.450000          0.893612E-04
      0.455000          0.866691E-04
      0.460000          0.846655E-04
      0.465000          0.832970E-04
      0.470000          0.826493E-04
      0.475000          0.827477E-04
      0.480000          0.833633E-04
      0.485000          0.839872E-04
      0.490000          0.840192E-04
      0.495000          0.830620E-04
      0.500000          0.811346E-04
