 I_abs(s)[cm^-1]/c[mg/ml]
       0.00000          0.123721E-01
      0.500000E-02      0.120721E-01
      0.100000E-01      0.112311E-01
      0.150000E-01      0.100074E-01
      0.200000E-01      0.861075E-02
      0.250000E-01      0.724363E-02
      0.300000E-01      0.605239E-02
      0.350000E-01      0.510438E-02
      0.400000E-01      0.439393E-02
      0.450000E-01      0.386916E-02
      0.500000E-01      0.346478E-02
      0.550000E-01      0.312740E-02
      0.600000E-01      0.282623E-02
      0.650000E-01      0.255040E-02
      0.700000E-01      0.229955E-02
      0.750000E-01      0.207505E-02
      0.800000E-01      0.187622E-02
      0.850000E-01      0.170120E-02
      0.900000E-01      0.154946E-02
      0.950000E-01      0.142262E-02
      0.100000          0.132268E-02
      0.105000          0.124868E-02
      0.110000          0.119471E-02
      0.115000          0.115070E-02
      0.120000          0.110590E-02
      0.125000          0.105306E-02
      0.130000          0.990889E-03
      0.135000          0.923648E-03
      0.140000          0.858234E-03
      0.145000          0.800595E-03
      0.150000          0.753341E-03
      0.155000          0.715480E-03
      0.160000          0.683879E-03
      0.165000          0.655228E-03
      0.170000          0.627333E-03
      0.175000          0.599284E-03
      0.180000          0.570875E-03
      0.185000          0.542012E-03
      0.190000          0.512620E-03
      0.195000          0.482998E-03
      0.200000          0.454185E-03
      0.205000          0.427842E-03
      0.210000          0.405598E-03
      0.215000          0.388195E-03
      0.220000          0.375004E-03
      0.225000          0.364243E-03
      0.230000          0.353803E-03
      0.235000          0.342227E-03
      0.240000          0.329291E-03
      0.245000          0.315918E-03
      0.250000          0.303533E-03
      0.255000          0.293265E-03
      0.260000          0.285424E-03
      0.265000          0.279441E-03
      0.270000          0.274220E-03
      0.275000          0.268616E-03
      0.280000          0.261812E-03
      0.285000          0.253469E-03
      0.290000          0.243699E-03
      0.295000          0.232942E-03
      0.300000          0.221844E-03
      0.305000          0.211119E-03
      0.310000          0.201390E-03
      0.315000          0.193024E-03
      0.320000          0.186012E-03
      0.325000          0.179982E-03
      0.330000          0.174359E-03
      0.335000          0.168625E-03
      0.340000          0.162535E-03
      0.345000          0.156187E-03
      0.350000          0.149919E-03
      0.355000          0.144103E-03
      0.360000          0.138959E-03
      0.365000          0.134491E-03
      0.370000          0.130547E-03
      0.375000          0.126940E-03
      0.380000          0.123536E-03
      0.385000          0.120262E-03
      0.390000          0.117054E-03
      0.395000          0.113817E-03
      0.400000          0.110442E-03
      0.405000          0.106882E-03
      0.410000          0.103228E-03
      0.415000          0.997073E-04
      0.420000          0.966031E-04
      0.425000          0.941089E-04
      0.430000          0.922211E-04
      0.435000          0.907280E-04
      0.440000          0.893061E-04
      0.445000          0.876695E-04
      0.450000          0.856868E-04
      0.455000          0.834078E-04
      0.460000          0.809993E-04
      0.465000          0.786390E-04
      0.470000          0.764358E-04
      0.475000          0.744108E-04
      0.480000          0.725326E-04
      0.485000          0.707662E-04
      0.490000          0.690945E-04
      0.495000          0.675049E-04
      0.500000          0.659595E-04
