 I_abs(s)[cm^-1]/c[mg/ml]
       0.00000          0.149346E-01
      0.500000E-02      0.148937E-01
      0.100000E-01      0.147719E-01
      0.150000E-01      0.145710E-01
      0.200000E-01      0.142942E-01
      0.250000E-01      0.139459E-01
      0.300000E-01      0.135315E-01
      0.350000E-01      0.130575E-01
      0.400000E-01      0.125308E-01
      0.450000E-01      0.119592E-01
      0.500000E-01      0.113509E-01
      0.550000E-01      0.107141E-01
      0.600000E-01      0.100573E-01
      0.650000E-01      0.938879E-02
      0.700000E-01      0.871643E-02
      0.750000E-01      0.804778E-02
      0.800000E-01      0.738976E-02
      0.850000E-01      0.674861E-02
      0.900000E-01      0.612980E-02
      0.950000E-01      0.553799E-02
      0.100000          0.497694E-02
      0.105000          0.444960E-02
      0.110000          0.395802E-02
      0.115000          0.350349E-02
      0.120000          0.308650E-02
      0.125000          0.270689E-02
      0.130000          0.236389E-02
      0.135000          0.205623E-02
      0.140000          0.178220E-02
      0.145000          0.153979E-02
      0.150000          0.132676E-02
      0.155000          0.114070E-02
      0.160000          0.979178E-03
      0.165000          0.839723E-03
      0.170000          0.719950E-03
      0.175000          0.617577E-03
      0.180000          0.530469E-03
      0.185000          0.456663E-03
      0.190000          0.394379E-03
      0.195000          0.342032E-03
      0.200000          0.298225E-03
      0.205000          0.261742E-03
      0.210000          0.231538E-03
      0.215000          0.206714E-03
      0.220000          0.186507E-03
      0.225000          0.170265E-03
      0.230000          0.157432E-03
      0.235000          0.147524E-03
      0.240000          0.140123E-03
      0.245000          0.134852E-03
      0.250000          0.131377E-03
      0.255000          0.129387E-03
      0.260000          0.128597E-03
      0.265000          0.128744E-03
      0.270000          0.129580E-03
      0.275000          0.130880E-03
      0.280000          0.132437E-03
      0.285000          0.134069E-03
      0.290000          0.135617E-03
      0.295000          0.136947E-03
      0.300000          0.137954E-03
      0.305000          0.138559E-03
      0.310000          0.138713E-03
      0.315000          0.138390E-03
      0.320000          0.137589E-03
      0.325000          0.136331E-03
      0.330000          0.134653E-03
      0.335000          0.132606E-03
      0.340000          0.130253E-03
      0.345000          0.127661E-03
      0.350000          0.124898E-03
      0.355000          0.122034E-03
      0.360000          0.119131E-03
      0.365000          0.116247E-03
      0.370000          0.113430E-03
      0.375000          0.110721E-03
      0.380000          0.108150E-03
      0.385000          0.105735E-03
      0.390000          0.103490E-03
      0.395000          0.101417E-03
      0.400000          0.995139E-04
      0.405000          0.977725E-04
      0.410000          0.961815E-04
      0.415000          0.947276E-04
      0.420000          0.933968E-04
      0.425000          0.921757E-04
      0.430000          0.910524E-04
      0.435000          0.900167E-04
      0.440000          0.890611E-04
      0.445000          0.881804E-04
      0.450000          0.873718E-04
      0.455000          0.866343E-04
      0.460000          0.859683E-04
      0.465000          0.853754E-04
      0.470000          0.848570E-04
      0.475000          0.844146E-04
      0.480000          0.840484E-04
      0.485000          0.837574E-04
      0.490000          0.835390E-04
      0.495000          0.833887E-04
      0.500000          0.832998E-04
