 I_abs(s)[cm^-1]/c[mg/ml]
       0.00000          0.150394E-01
      0.500000E-02      0.149908E-01
      0.100000E-01      0.148459E-01
      0.150000E-01      0.146074E-01
      0.200000E-01      0.142797E-01
      0.250000E-01      0.138688E-01
      0.300000E-01      0.133822E-01
      0.350000E-01      0.128285E-01
      0.400000E-01      0.122171E-01
      0.450000E-01      0.115585E-01
      0.500000E-01      0.108631E-01
      0.550000E-01      0.101419E-01
      0.600000E-01      0.940544E-02
      0.650000E-01      0.866402E-02
      0.700000E-01      0.792731E-02
      0.750000E-01      0.720417E-02
      0.800000E-01      0.650252E-02
      0.850000E-01      0.582920E-02
      0.900000E-01      0.518990E-02
      0.950000E-01      0.458913E-02
      0.100000          0.403025E-02
      0.105000          0.351544E-02
      0.110000          0.304586E-02
      0.115000          0.262166E-02
      0.120000          0.224214E-02
      0.125000          0.190587E-02
      0.130000          0.161082E-02
      0.135000          0.135449E-02
      0.140000          0.113403E-02
      0.145000          0.946379E-03
      0.150000          0.788382E-03
      0.155000          0.656854E-03
      0.160000          0.548685E-03
      0.165000          0.460897E-03
      0.170000          0.390691E-03
      0.175000          0.335482E-03
      0.180000          0.292921E-03
      0.185000          0.260896E-03
      0.190000          0.237540E-03
      0.195000          0.221215E-03
      0.200000          0.210503E-03
      0.205000          0.204184E-03
      0.210000          0.201224E-03
      0.215000          0.200746E-03
      0.220000          0.202022E-03
      0.225000          0.204446E-03
      0.230000          0.207526E-03
      0.235000          0.210865E-03
      0.240000          0.214151E-03
      0.245000          0.217147E-03
      0.250000          0.219682E-03
      0.255000          0.221642E-03
      0.260000          0.222963E-03
      0.265000          0.223622E-03
      0.270000          0.223634E-03
      0.275000          0.223040E-03
      0.280000          0.221905E-03
      0.285000          0.220307E-03
      0.290000          0.218332E-03
      0.295000          0.216069E-03
      0.300000          0.213602E-03
      0.305000          0.211007E-03
      0.310000          0.208349E-03
      0.315000          0.205677E-03
      0.320000          0.203023E-03
      0.325000          0.200406E-03
      0.330000          0.197827E-03
      0.335000          0.195273E-03
      0.340000          0.192720E-03
      0.345000          0.190138E-03
      0.350000          0.187489E-03
      0.355000          0.184736E-03
      0.360000          0.181842E-03
      0.365000          0.178778E-03
      0.370000          0.175518E-03
      0.375000          0.172047E-03
      0.380000          0.168361E-03
      0.385000          0.164463E-03
      0.390000          0.160370E-03
      0.395000          0.156103E-03
      0.400000          0.151694E-03
      0.405000          0.147179E-03
      0.410000          0.142600E-03
      0.415000          0.138000E-03
      0.420000          0.133420E-03
      0.425000          0.128903E-03
      0.430000          0.124486E-03
      0.435000          0.120204E-03
      0.440000          0.116087E-03
      0.445000          0.112158E-03
      0.450000          0.108437E-03
      0.455000          0.104937E-03
      0.460000          0.101668E-03
      0.465000          0.986326E-04
      0.470000          0.958327E-04
      0.475000          0.932655E-04
      0.480000          0.909259E-04
      0.485000          0.888066E-04
      0.490000          0.868985E-04
      0.495000          0.851912E-04
      0.500000          0.836732E-04
