 I_abs(s)[cm^-1]/c[mg/ml]
       0.00000          0.138986E-01
      0.500000E-02      0.138128E-01
      0.100000E-01      0.135591E-01
      0.150000E-01      0.131477E-01
      0.200000E-01      0.125955E-01
      0.250000E-01      0.119242E-01
      0.300000E-01      0.111595E-01
      0.350000E-01      0.103293E-01
      0.400000E-01      0.946225E-02
      0.450000E-01      0.858585E-02
      0.500000E-01      0.772534E-02
      0.550000E-01      0.690243E-02
      0.600000E-01      0.613442E-02
      0.650000E-01      0.543373E-02
      0.700000E-01      0.480780E-02
      0.750000E-01      0.425933E-02
      0.800000E-01      0.378681E-02
      0.850000E-01      0.338525E-02
      0.900000E-01      0.304711E-02
      0.950000E-01      0.276328E-02
      0.100000          0.252397E-02
      0.105000          0.231955E-02
      0.110000          0.214125E-02
      0.115000          0.198165E-02
      0.120000          0.183492E-02
      0.125000          0.169695E-02
      0.130000          0.156526E-02
      0.135000          0.143876E-02
      0.140000          0.131742E-02
      0.145000          0.120197E-02
      0.150000          0.109350E-02
      0.155000          0.993145E-03
      0.160000          0.901842E-03
      0.165000          0.820154E-03
      0.170000          0.748186E-03
      0.175000          0.685576E-03
      0.180000          0.631558E-03
      0.185000          0.585070E-03
      0.190000          0.544885E-03
      0.195000          0.509745E-03
      0.200000          0.478487E-03
      0.205000          0.450132E-03
      0.210000          0.423944E-03
      0.215000          0.399448E-03
      0.220000          0.376413E-03
      0.225000          0.354812E-03
      0.230000          0.334755E-03
      0.235000          0.316423E-03
      0.240000          0.300003E-03
      0.245000          0.285625E-03
      0.250000          0.273335E-03
      0.255000          0.263066E-03
      0.260000          0.254645E-03
      0.265000          0.247807E-03
      0.270000          0.242224E-03
      0.275000          0.237542E-03
      0.280000          0.233418E-03
      0.285000          0.229547E-03
      0.290000          0.225690E-03
      0.295000          0.221686E-03
      0.300000          0.217458E-03
      0.305000          0.212997E-03
      0.310000          0.208357E-03
      0.315000          0.203628E-03
      0.320000          0.198920E-03
      0.325000          0.194338E-03
      0.330000          0.189968E-03
      0.335000          0.185866E-03
      0.340000          0.182056E-03
      0.345000          0.178522E-03
      0.350000          0.175226E-03
      0.355000          0.172108E-03
      0.360000          0.169100E-03
      0.365000          0.166136E-03
      0.370000          0.163164E-03
      0.375000          0.160147E-03
      0.380000          0.157073E-03
      0.385000          0.153950E-03
      0.390000          0.150802E-03
      0.395000          0.147670E-03
      0.400000          0.144597E-03
      0.405000          0.141631E-03
      0.410000          0.138809E-03
      0.415000          0.136159E-03
      0.420000          0.133692E-03
      0.425000          0.131407E-03
      0.430000          0.129285E-03
      0.435000          0.127296E-03
      0.440000          0.125402E-03
      0.445000          0.123558E-03
      0.450000          0.121720E-03
      0.455000          0.119849E-03
      0.460000          0.117910E-03
      0.465000          0.115878E-03
      0.470000          0.113741E-03
      0.475000          0.111495E-03
      0.480000          0.109146E-03
      0.485000          0.106713E-03
      0.490000          0.104219E-03
      0.495000          0.101695E-03
      0.500000          0.991739E-04
