 I_abs(s)[cm^-1]/c[mg/ml]
       0.00000          0.146701E-01
      0.500000E-02      0.146291E-01
      0.100000E-01      0.145069E-01
      0.150000E-01      0.143053E-01
      0.200000E-01      0.140276E-01
      0.250000E-01      0.136782E-01
      0.300000E-01      0.132626E-01
      0.350000E-01      0.127870E-01
      0.400000E-01      0.122587E-01
      0.450000E-01      0.116854E-01
      0.500000E-01      0.110752E-01
      0.550000E-01      0.104367E-01
      0.600000E-01      0.977826E-02
      0.650000E-01      0.910825E-02
      0.700000E-01      0.843473E-02
      0.750000E-01      0.776533E-02
      0.800000E-01      0.710711E-02
      0.850000E-01      0.646643E-02
      0.900000E-01      0.584892E-02
      0.950000E-01      0.525934E-02
      0.100000          0.470161E-02
      0.105000          0.417878E-02
      0.110000          0.369303E-02
      0.115000          0.324572E-02
      0.120000          0.283741E-02
      0.125000          0.246799E-02
      0.130000          0.213667E-02
      0.135000          0.184214E-02
      0.140000          0.158264E-02
      0.145000          0.135604E-02
      0.150000          0.115993E-02
      0.155000          0.991735E-03
      0.160000          0.848774E-03
      0.165000          0.728342E-03
      0.170000          0.627773E-03
      0.175000          0.544498E-03
      0.180000          0.476085E-03
      0.185000          0.420276E-03
      0.190000          0.375013E-03
      0.195000          0.338445E-03
      0.200000          0.308946E-03
      0.205000          0.285102E-03
      0.210000          0.265715E-03
      0.215000          0.249783E-03
      0.220000          0.236488E-03
      0.225000          0.225179E-03
      0.230000          0.215350E-03
      0.235000          0.206621E-03
      0.240000          0.198717E-03
      0.245000          0.191451E-03
      0.250000          0.184703E-03
      0.255000          0.178408E-03
      0.260000          0.172537E-03
      0.265000          0.167088E-03
      0.270000          0.162074E-03
      0.275000          0.157514E-03
      0.280000          0.153430E-03
      0.285000          0.149836E-03
      0.290000          0.146739E-03
      0.295000          0.144137E-03
      0.300000          0.142014E-03
      0.305000          0.140345E-03
      0.310000          0.139092E-03
      0.315000          0.138210E-03
      0.320000          0.137642E-03
      0.325000          0.137329E-03
      0.330000          0.137206E-03
      0.335000          0.137206E-03
      0.340000          0.137264E-03
      0.345000          0.137317E-03
      0.350000          0.137305E-03
      0.355000          0.137175E-03
      0.360000          0.136883E-03
      0.365000          0.136391E-03
      0.370000          0.135671E-03
      0.375000          0.134703E-03
      0.380000          0.133479E-03
      0.385000          0.131996E-03
      0.390000          0.130263E-03
      0.395000          0.128293E-03
      0.400000          0.126107E-03
      0.405000          0.123730E-03
      0.410000          0.121193E-03
      0.415000          0.118525E-03
      0.420000          0.115759E-03
      0.425000          0.112928E-03
      0.430000          0.110063E-03
      0.435000          0.107191E-03
      0.440000          0.104340E-03
      0.445000          0.101531E-03
      0.450000          0.987841E-04
      0.455000          0.961139E-04
      0.460000          0.935324E-04
      0.465000          0.910482E-04
      0.470000          0.886666E-04
      0.475000          0.863908E-04
      0.480000          0.842220E-04
      0.485000          0.821599E-04
      0.490000          0.802035E-04
      0.495000          0.783514E-04
      0.500000          0.766022E-04
