 I_abs(s)[cm^-1]/c[mg/ml]
       0.00000          0.140154E-01
      0.500000E-02      0.139374E-01
      0.100000E-01      0.137065E-01
      0.150000E-01      0.133319E-01
      0.200000E-01      0.128281E-01
      0.250000E-01      0.122142E-01
      0.300000E-01      0.115125E-01
      0.350000E-01      0.107471E-01
      0.400000E-01      0.994271E-02
      0.450000E-01      0.912306E-02
      0.500000E-01      0.830980E-02
      0.550000E-01      0.752154E-02
      0.600000E-01      0.677321E-02
      0.650000E-01      0.607570E-02
      0.700000E-01      0.543587E-02
      0.750000E-01      0.485684E-02
      0.800000E-01      0.433847E-02
      0.850000E-01      0.387804E-02
      0.900000E-01      0.347096E-02
      0.950000E-01      0.311154E-02
      0.100000          0.279367E-02
      0.105000          0.251136E-02
      0.110000          0.225922E-02
      0.115000          0.203266E-02
      0.120000          0.182804E-02
      0.125000          0.164267E-02
      0.130000          0.147465E-02
      0.135000          0.132269E-02
      0.140000          0.118593E-02
      0.145000          0.106369E-02
      0.150000          0.955327E-03
      0.155000          0.860103E-03
      0.160000          0.777108E-03
      0.165000          0.705249E-03
      0.170000          0.643285E-03
      0.175000          0.589886E-03
      0.180000          0.543713E-03
      0.185000          0.503497E-03
      0.190000          0.468107E-03
      0.195000          0.436597E-03
      0.200000          0.408231E-03
      0.205000          0.382480E-03
      0.210000          0.359000E-03
      0.215000          0.337597E-03
      0.220000          0.318182E-03
      0.225000          0.300731E-03
      0.230000          0.285243E-03
      0.235000          0.271711E-03
      0.240000          0.260106E-03
      0.245000          0.250364E-03
      0.250000          0.242389E-03
      0.255000          0.236051E-03
      0.260000          0.231199E-03
      0.265000          0.227662E-03
      0.270000          0.225255E-03
      0.275000          0.223779E-03
      0.280000          0.223023E-03
      0.285000          0.222760E-03
      0.290000          0.222750E-03
      0.295000          0.222744E-03
      0.300000          0.222487E-03
      0.305000          0.221734E-03
      0.310000          0.220264E-03
      0.315000          0.217892E-03
      0.320000          0.214493E-03
      0.325000          0.210010E-03
      0.330000          0.204463E-03
      0.335000          0.197956E-03
      0.340000          0.190664E-03
      0.345000          0.182825E-03
      0.350000          0.174718E-03
      0.355000          0.166637E-03
      0.360000          0.158867E-03
      0.365000          0.151660E-03
      0.370000          0.145210E-03
      0.375000          0.139641E-03
      0.380000          0.135002E-03
      0.385000          0.131266E-03
      0.390000          0.128338E-03
      0.395000          0.126077E-03
      0.400000          0.124310E-03
      0.405000          0.122856E-03
      0.410000          0.121543E-03
      0.415000          0.120232E-03
      0.420000          0.118822E-03
      0.425000          0.117256E-03
      0.430000          0.115525E-03
      0.435000          0.113658E-03
      0.440000          0.111711E-03
      0.445000          0.109756E-03
      0.450000          0.107865E-03
      0.455000          0.106102E-03
      0.460000          0.104508E-03
      0.465000          0.103098E-03
      0.470000          0.101860E-03
      0.475000          0.100758E-03
      0.480000          0.997376E-04
      0.485000          0.987342E-04
      0.490000          0.976830E-04
      0.495000          0.965283E-04
      0.500000          0.952300E-04
