 I_abs(s)[cm^-1]/c[mg/ml]
       0.00000          0.142503E-01
      0.500000E-02      0.141804E-01
      0.100000E-01      0.139733E-01
      0.150000E-01      0.136359E-01
      0.200000E-01      0.131795E-01
      0.250000E-01      0.126189E-01
      0.300000E-01      0.119718E-01
      0.350000E-01      0.112574E-01
      0.400000E-01      0.104959E-01
      0.450000E-01      0.970722E-02
      0.500000E-01      0.891003E-02
      0.550000E-01      0.812129E-02
      0.600000E-01      0.735547E-02
      0.650000E-01      0.662432E-02
      0.700000E-01      0.593667E-02
      0.750000E-01      0.529851E-02
      0.800000E-01      0.471319E-02
      0.850000E-01      0.418181E-02
      0.900000E-01      0.370354E-02
      0.950000E-01      0.327616E-02
      0.100000          0.289647E-02
      0.105000          0.256064E-02
      0.110000          0.226463E-02
      0.115000          0.200437E-02
      0.120000          0.177601E-02
      0.125000          0.157597E-02
      0.130000          0.140102E-02
      0.135000          0.124827E-02
      0.140000          0.111514E-02
      0.145000          0.999361E-03
      0.150000          0.898871E-03
      0.155000          0.811831E-03
      0.160000          0.736581E-03
      0.165000          0.671631E-03
      0.170000          0.615654E-03
      0.175000          0.567485E-03
      0.180000          0.526120E-03
      0.185000          0.490708E-03
      0.190000          0.460535E-03
      0.195000          0.435010E-03
      0.200000          0.413632E-03
      0.205000          0.395959E-03
      0.210000          0.381584E-03
      0.215000          0.370104E-03
      0.220000          0.361101E-03
      0.225000          0.354131E-03
      0.230000          0.348727E-03
      0.235000          0.344404E-03
      0.240000          0.340677E-03
      0.245000          0.337086E-03
      0.250000          0.333213E-03
      0.255000          0.328705E-03
      0.260000          0.323296E-03
      0.265000          0.316810E-03
      0.270000          0.309167E-03
      0.275000          0.300379E-03
      0.280000          0.290538E-03
      0.285000          0.279799E-03
      0.290000          0.268360E-03
      0.295000          0.256448E-03
      0.300000          0.244293E-03
      0.305000          0.232117E-03
      0.310000          0.220123E-03
      0.315000          0.208484E-03
      0.320000          0.197340E-03
      0.325000          0.186800E-03
      0.330000          0.176940E-03
      0.335000          0.167811E-03
      0.340000          0.159440E-03
      0.345000          0.151834E-03
      0.350000          0.144986E-03
      0.355000          0.138875E-03
      0.360000          0.133472E-03
      0.365000          0.128735E-03
      0.370000          0.124617E-03
      0.375000          0.121065E-03
      0.380000          0.118018E-03
      0.385000          0.115415E-03
      0.390000          0.113189E-03
      0.395000          0.111278E-03
      0.400000          0.109619E-03
      0.405000          0.108156E-03
      0.410000          0.106838E-03
      0.415000          0.105623E-03
      0.420000          0.104475E-03
      0.425000          0.103370E-03
      0.430000          0.102287E-03
      0.435000          0.101215E-03
      0.440000          0.100147E-03
      0.445000          0.990815E-04
      0.450000          0.980187E-04
      0.455000          0.969604E-04
      0.460000          0.959089E-04
      0.465000          0.948661E-04
      0.470000          0.938323E-04
      0.475000          0.928066E-04
      0.480000          0.917855E-04
      0.485000          0.907640E-04
      0.490000          0.897347E-04
      0.495000          0.886885E-04
      0.500000          0.876153E-04
