 I_abs(s)[cm^-1]/c[mg/ml]
       0.00000          0.147260E-01
      0.500000E-02      0.146800E-01
      0.100000E-01      0.145427E-01
      0.150000E-01      0.143166E-01
      0.200000E-01      0.140057E-01
      0.250000E-01      0.136156E-01
      0.300000E-01      0.131531E-01
      0.350000E-01      0.126261E-01
      0.400000E-01      0.120434E-01
      0.450000E-01      0.114145E-01
      0.500000E-01      0.107494E-01
      0.550000E-01      0.100581E-01
      0.600000E-01      0.935074E-02
      0.650000E-01      0.863700E-02
      0.700000E-01      0.792614E-02
      0.750000E-01      0.722669E-02
      0.800000E-01      0.654636E-02
      0.850000E-01      0.589191E-02
      0.900000E-01      0.526903E-02
      0.950000E-01      0.468232E-02
      0.100000          0.413530E-02
      0.105000          0.363038E-02
      0.110000          0.316893E-02
      0.115000          0.275138E-02
      0.120000          0.237728E-02
      0.125000          0.204542E-02
      0.130000          0.175397E-02
      0.135000          0.150058E-02
      0.140000          0.128251E-02
      0.145000          0.109677E-02
      0.150000          0.940204E-03
      0.155000          0.809617E-03
      0.160000          0.701847E-03
      0.165000          0.613846E-03
      0.170000          0.542737E-03
      0.175000          0.485857E-03
      0.180000          0.440788E-03
      0.185000          0.405371E-03
      0.190000          0.377712E-03
      0.195000          0.356180E-03
      0.200000          0.339389E-03
      0.205000          0.326184E-03
      0.210000          0.315620E-03
      0.215000          0.306936E-03
      0.220000          0.299530E-03
      0.225000          0.292939E-03
      0.230000          0.286815E-03
      0.235000          0.280903E-03
      0.240000          0.275026E-03
      0.245000          0.269067E-03
      0.250000          0.262962E-03
      0.255000          0.256682E-03
      0.260000          0.250230E-03
      0.265000          0.243632E-03
      0.270000          0.236930E-03
      0.275000          0.230180E-03
      0.280000          0.223445E-03
      0.285000          0.216794E-03
      0.290000          0.210293E-03
      0.295000          0.204008E-03
      0.300000          0.197999E-03
      0.305000          0.192315E-03
      0.310000          0.186996E-03
      0.315000          0.182066E-03
      0.320000          0.177538E-03
      0.325000          0.173405E-03
      0.330000          0.169650E-03
      0.335000          0.166238E-03
      0.340000          0.163124E-03
      0.345000          0.160252E-03
      0.350000          0.157558E-03
      0.355000          0.154975E-03
      0.360000          0.152435E-03
      0.365000          0.149873E-03
      0.370000          0.147231E-03
      0.375000          0.144458E-03
      0.380000          0.141516E-03
      0.385000          0.138379E-03
      0.390000          0.135035E-03
      0.395000          0.131487E-03
      0.400000          0.127752E-03
      0.405000          0.123860E-03
      0.410000          0.119851E-03
      0.415000          0.115776E-03
      0.420000          0.111689E-03
      0.425000          0.107653E-03
      0.430000          0.103726E-03
      0.435000          0.999689E-04
      0.440000          0.964355E-04
      0.445000          0.931740E-04
      0.450000          0.902243E-04
      0.455000          0.876163E-04
      0.460000          0.853695E-04
      0.465000          0.834924E-04
      0.470000          0.819826E-04
      0.475000          0.808276E-04
      0.480000          0.800052E-04
      0.485000          0.794854E-04
      0.490000          0.792315E-04
      0.495000          0.792016E-04
      0.500000          0.793506E-04
