 I_abs(s)[cm^-1]/c[mg/ml]
       0.00000          0.144713E-01
      0.500000E-02      0.144031E-01
      0.100000E-01      0.142004E-01
      0.150000E-01      0.138695E-01
      0.200000E-01      0.134204E-01
      0.250000E-01      0.128664E-01
      0.300000E-01      0.122234E-01
      0.350000E-01      0.115094E-01
      0.400000E-01      0.107434E-01
      0.450000E-01      0.994458E-02
      0.500000E-01      0.913184E-02
      0.550000E-01      0.832267E-02
      0.600000E-01      0.753275E-02
      0.650000E-01      0.677541E-02
      0.700000E-01      0.606133E-02
      0.750000E-01      0.539836E-02
      0.800000E-01      0.479157E-02
      0.850000E-01      0.424336E-02
      0.900000E-01      0.375375E-02
      0.950000E-01      0.332076E-02
      0.100000          0.294081E-02
      0.105000          0.260922E-02
      0.110000          0.232062E-02
      0.115000          0.206939E-02
      0.120000          0.185005E-02
      0.125000          0.165749E-02
      0.130000          0.148724E-02
      0.135000          0.133556E-02
      0.140000          0.119948E-02
      0.145000          0.107681E-02
      0.150000          0.966019E-03
      0.155000          0.866143E-03
      0.160000          0.776618E-03
      0.165000          0.697144E-03
      0.170000          0.627537E-03
      0.175000          0.567609E-03
      0.180000          0.517076E-03
      0.185000          0.475493E-03
      0.190000          0.442232E-03
      0.195000          0.416476E-03
      0.200000          0.397255E-03
      0.205000          0.383486E-03
      0.210000          0.374036E-03
      0.215000          0.367780E-03
      0.220000          0.363658E-03
      0.225000          0.360726E-03
      0.230000          0.358189E-03
      0.235000          0.355427E-03
      0.240000          0.351995E-03
      0.245000          0.347621E-03
      0.250000          0.342180E-03
      0.255000          0.335674E-03
      0.260000          0.328196E-03
      0.265000          0.319899E-03
      0.270000          0.310963E-03
      0.275000          0.301575E-03
      0.280000          0.291904E-03
      0.285000          0.282091E-03
      0.290000          0.272245E-03
      0.295000          0.262440E-03
      0.300000          0.252725E-03
      0.305000          0.243127E-03
      0.310000          0.233662E-03
      0.315000          0.224347E-03
      0.320000          0.215203E-03
      0.325000          0.206263E-03
      0.330000          0.197570E-03
      0.335000          0.189183E-03
      0.340000          0.181165E-03
      0.345000          0.173585E-03
      0.350000          0.166507E-03
      0.355000          0.159987E-03
      0.360000          0.154063E-03
      0.365000          0.148756E-03
      0.370000          0.144066E-03
      0.375000          0.139969E-03
      0.380000          0.136424E-03
      0.385000          0.133371E-03
      0.390000          0.130740E-03
      0.395000          0.128454E-03
      0.400000          0.126436E-03
      0.405000          0.124612E-03
      0.410000          0.122920E-03
      0.415000          0.121305E-03
      0.420000          0.119730E-03
      0.425000          0.118167E-03
      0.430000          0.116603E-03
      0.435000          0.115036E-03
      0.440000          0.113470E-03
      0.445000          0.111917E-03
      0.450000          0.110389E-03
      0.455000          0.108899E-03
      0.460000          0.107459E-03
      0.465000          0.106078E-03
      0.470000          0.104761E-03
      0.475000          0.103510E-03
      0.480000          0.102324E-03
      0.485000          0.101202E-03
      0.490000          0.100141E-03
      0.495000          0.991356E-04
      0.500000          0.981845E-04
