 I_abs(s)[cm^-1]/c[mg/ml]
       0.00000          0.146941E-01
      0.500000E-02      0.146240E-01
      0.100000E-01      0.144160E-01
      0.150000E-01      0.140766E-01
      0.200000E-01      0.136165E-01
      0.250000E-01      0.130497E-01
      0.300000E-01      0.123929E-01
      0.350000E-01      0.116649E-01
      0.400000E-01      0.108854E-01
      0.450000E-01      0.100743E-01
      0.500000E-01      0.925058E-02
      0.550000E-01      0.843202E-02
      0.600000E-01      0.763415E-02
      0.650000E-01      0.687001E-02
      0.700000E-01      0.614985E-02
      0.750000E-01      0.548104E-02
      0.800000E-01      0.486815E-02
      0.850000E-01      0.431315E-02
      0.900000E-01      0.381581E-02
      0.950000E-01      0.337402E-02
      0.100000          0.298431E-02
      0.105000          0.264227E-02
      0.110000          0.234297E-02
      0.115000          0.208137E-02
      0.120000          0.185254E-02
      0.125000          0.165198E-02
      0.130000          0.147567E-02
      0.135000          0.132021E-02
      0.140000          0.118278E-02
      0.145000          0.106108E-02
      0.150000          0.953303E-03
      0.155000          0.857988E-03
      0.160000          0.773943E-03
      0.165000          0.700151E-03
      0.170000          0.635686E-03
      0.175000          0.579665E-03
      0.180000          0.531215E-03
      0.185000          0.489458E-03
      0.190000          0.453518E-03
      0.195000          0.422536E-03
      0.200000          0.395695E-03
      0.205000          0.372243E-03
      0.210000          0.351511E-03
      0.215000          0.332933E-03
      0.220000          0.316049E-03
      0.225000          0.300507E-03
      0.230000          0.286053E-03
      0.235000          0.272519E-03
      0.240000          0.259805E-03
      0.245000          0.247865E-03
      0.250000          0.236683E-03
      0.255000          0.226265E-03
      0.260000          0.216623E-03
      0.265000          0.207765E-03
      0.270000          0.199696E-03
      0.275000          0.192409E-03
      0.280000          0.185887E-03
      0.285000          0.180105E-03
      0.290000          0.175029E-03
      0.295000          0.170619E-03
      0.300000          0.166828E-03
      0.305000          0.163604E-03
      0.310000          0.160888E-03
      0.315000          0.158617E-03
      0.320000          0.156719E-03
      0.325000          0.155121E-03
      0.330000          0.153744E-03
      0.335000          0.152508E-03
      0.340000          0.151334E-03
      0.345000          0.150151E-03
      0.350000          0.148894E-03
      0.355000          0.147511E-03
      0.360000          0.145967E-03
      0.365000          0.144241E-03
      0.370000          0.142328E-03
      0.375000          0.140240E-03
      0.380000          0.138002E-03
      0.385000          0.135649E-03
      0.390000          0.133222E-03
      0.395000          0.130763E-03
      0.400000          0.128313E-03
      0.405000          0.125908E-03
      0.410000          0.123575E-03
      0.415000          0.121331E-03
      0.420000          0.119185E-03
      0.425000          0.117136E-03
      0.430000          0.115174E-03
      0.435000          0.113287E-03
      0.440000          0.111458E-03
      0.445000          0.109671E-03
      0.450000          0.107911E-03
      0.455000          0.106169E-03
      0.460000          0.104439E-03
      0.465000          0.102722E-03
      0.470000          0.101024E-03
      0.475000          0.993535E-04
      0.480000          0.977236E-04
      0.485000          0.961473E-04
      0.490000          0.946368E-04
      0.495000          0.932023E-04
      0.500000          0.918504E-04
