 I_abs(s)[cm^-1]/c[mg/ml]
       0.00000          0.148783E-01
      0.500000E-02      0.148366E-01
      0.100000E-01      0.147121E-01
      0.150000E-01      0.145068E-01
      0.200000E-01      0.142238E-01
      0.250000E-01      0.138675E-01
      0.300000E-01      0.134434E-01
      0.350000E-01      0.129578E-01
      0.400000E-01      0.124178E-01
      0.450000E-01      0.118312E-01
      0.500000E-01      0.112063E-01
      0.550000E-01      0.105516E-01
      0.600000E-01      0.987563E-02
      0.650000E-01      0.918697E-02
      0.700000E-01      0.849388E-02
      0.750000E-01      0.780425E-02
      0.800000E-01      0.712542E-02
      0.850000E-01      0.646408E-02
      0.900000E-01      0.582618E-02
      0.950000E-01      0.521685E-02
      0.100000          0.464036E-02
      0.105000          0.410010E-02
      0.110000          0.359856E-02
      0.115000          0.313740E-02
      0.120000          0.271743E-02
      0.125000          0.233870E-02
      0.130000          0.200060E-02
      0.135000          0.170186E-02
      0.140000          0.144075E-02
      0.145000          0.121507E-02
      0.150000          0.102230E-02
      0.155000          0.859712E-03
      0.160000          0.724388E-03
      0.165000          0.613368E-03
      0.170000          0.523696E-03
      0.175000          0.452488E-03
      0.180000          0.396988E-03
      0.185000          0.354612E-03
      0.190000          0.322985E-03
      0.195000          0.299956E-03
      0.200000          0.283622E-03
      0.205000          0.272324E-03
      0.210000          0.264651E-03
      0.215000          0.259429E-03
      0.220000          0.255705E-03
      0.225000          0.252730E-03
      0.230000          0.249940E-03
      0.235000          0.246929E-03
      0.240000          0.243432E-03
      0.245000          0.239293E-03
      0.250000          0.234454E-03
      0.255000          0.228925E-03
      0.260000          0.222768E-03
      0.265000          0.216085E-03
      0.270000          0.208998E-03
      0.275000          0.201640E-03
      0.280000          0.194144E-03
      0.285000          0.186639E-03
      0.290000          0.179241E-03
      0.295000          0.172053E-03
      0.300000          0.165160E-03
      0.305000          0.158628E-03
      0.310000          0.152508E-03
      0.315000          0.146834E-03
      0.320000          0.141622E-03
      0.325000          0.136878E-03
      0.330000          0.132596E-03
      0.335000          0.128758E-03
      0.340000          0.125342E-03
      0.345000          0.122316E-03
      0.350000          0.119649E-03
      0.355000          0.117302E-03
      0.360000          0.115238E-03
      0.365000          0.113419E-03
      0.370000          0.111806E-03
      0.375000          0.110364E-03
      0.380000          0.109056E-03
      0.385000          0.107850E-03
      0.390000          0.106716E-03
      0.395000          0.105625E-03
      0.400000          0.104553E-03
      0.405000          0.103479E-03
      0.410000          0.102382E-03
      0.415000          0.101249E-03
      0.420000          0.100066E-03
      0.425000          0.988240E-04
      0.430000          0.975180E-04
      0.435000          0.961450E-04
      0.440000          0.947053E-04
      0.445000          0.932021E-04
      0.450000          0.916415E-04
      0.455000          0.900322E-04
      0.460000          0.883853E-04
      0.465000          0.867139E-04
      0.470000          0.850328E-04
      0.475000          0.833583E-04
      0.480000          0.817078E-04
      0.485000          0.800991E-04
      0.490000          0.785503E-04
      0.495000          0.770794E-04
      0.500000          0.757033E-04
