 I_abs(s)[cm^-1]/c[mg/ml]
       0.00000          0.137979E-01
      0.500000E-02      0.137231E-01
      0.100000E-01      0.135012E-01
      0.150000E-01      0.131392E-01
      0.200000E-01      0.126484E-01
      0.250000E-01      0.120440E-01
      0.300000E-01      0.113442E-01
      0.350000E-01      0.105696E-01
      0.400000E-01      0.974188E-02
      0.450000E-01      0.888346E-02
      0.500000E-01      0.801610E-02
      0.550000E-01      0.716024E-02
      0.600000E-01      0.633428E-02
      0.650000E-01      0.555395E-02
      0.700000E-01      0.483188E-02
      0.750000E-01      0.417742E-02
      0.800000E-01      0.359648E-02
      0.850000E-01      0.309171E-02
      0.900000E-01      0.266274E-02
      0.950000E-01      0.230651E-02
      0.100000          0.201781E-02
      0.105000          0.178972E-02
      0.110000          0.161423E-02
      0.115000          0.148271E-02
      0.120000          0.138644E-02
      0.125000          0.131702E-02
      0.130000          0.126672E-02
      0.135000          0.122874E-02
      0.140000          0.119737E-02
      0.145000          0.116808E-02
      0.150000          0.113754E-02
      0.155000          0.110350E-02
      0.160000          0.106472E-02
      0.165000          0.102080E-02
      0.170000          0.972007E-03
      0.175000          0.919110E-03
      0.180000          0.863193E-03
      0.185000          0.805512E-03
      0.190000          0.747361E-03
      0.195000          0.689976E-03
      0.200000          0.634454E-03
      0.205000          0.581713E-03
      0.210000          0.532459E-03
      0.215000          0.487190E-03
      0.220000          0.446205E-03
      0.225000          0.409621E-03
      0.230000          0.377406E-03
      0.235000          0.349402E-03
      0.240000          0.325360E-03
      0.245000          0.304962E-03
      0.250000          0.287845E-03
      0.255000          0.273619E-03
      0.260000          0.261886E-03
      0.265000          0.252248E-03
      0.270000          0.244320E-03
      0.275000          0.237738E-03
      0.280000          0.232164E-03
      0.285000          0.227292E-03
      0.290000          0.222859E-03
      0.295000          0.218639E-03
      0.300000          0.214454E-03
      0.305000          0.210176E-03
      0.310000          0.205719E-03
      0.315000          0.201047E-03
      0.320000          0.196161E-03
      0.325000          0.191101E-03
      0.330000          0.185932E-03
      0.335000          0.180739E-03
      0.340000          0.175619E-03
      0.345000          0.170666E-03
      0.350000          0.165968E-03
      0.355000          0.161598E-03
      0.360000          0.157607E-03
      0.365000          0.154021E-03
      0.370000          0.150840E-03
      0.375000          0.148036E-03
      0.380000          0.145560E-03
      0.385000          0.143343E-03
      0.390000          0.141303E-03
      0.395000          0.139348E-03
      0.400000          0.137390E-03
      0.405000          0.135344E-03
      0.410000          0.133138E-03
      0.415000          0.130716E-03
      0.420000          0.128042E-03
      0.425000          0.125103E-03
      0.430000          0.121905E-03
      0.435000          0.118480E-03
      0.440000          0.114873E-03
      0.445000          0.111149E-03
      0.450000          0.107381E-03
      0.455000          0.103648E-03
      0.460000          0.100031E-03
      0.465000          0.966048E-04
      0.470000          0.934380E-04
      0.475000          0.905863E-04
      0.480000          0.880907E-04
      0.485000          0.859760E-04
      0.490000          0.842501E-04
      0.495000          0.829042E-04
      0.500000          0.819147E-04
