 I_abs(s)[cm^-1]/c[mg/ml]
       0.00000          0.145110E-01
      0.500000E-02      0.144299E-01
      0.100000E-01      0.141896E-01
      0.150000E-01      0.137986E-01
      0.200000E-01      0.132707E-01
      0.250000E-01      0.126242E-01
      0.300000E-01      0.118805E-01
      0.350000E-01      0.110632E-01
      0.400000E-01      0.101970E-01
      0.450000E-01      0.930615E-02
      0.500000E-01      0.841350E-02
      0.550000E-01      0.753953E-02
      0.600000E-01      0.670165E-02
      0.650000E-01      0.591370E-02
      0.700000E-01      0.518576E-02
      0.750000E-01      0.452424E-02
      0.800000E-01      0.393208E-02
      0.850000E-01      0.340924E-02
      0.900000E-01      0.295321E-02
      0.950000E-01      0.255961E-02
      0.100000          0.222286E-02
      0.105000          0.193667E-02
      0.110000          0.169460E-02
      0.115000          0.149039E-02
      0.120000          0.131827E-02
      0.125000          0.117314E-02
      0.130000          0.105061E-02
      0.135000          0.947003E-03
      0.140000          0.859297E-03
      0.145000          0.785007E-03
      0.150000          0.722074E-03
      0.155000          0.668761E-03
      0.160000          0.623552E-03
      0.165000          0.585089E-03
      0.170000          0.552127E-03
      0.175000          0.523522E-03
      0.180000          0.498235E-03
      0.185000          0.475345E-03
      0.190000          0.454078E-03
      0.195000          0.433821E-03
      0.200000          0.414137E-03
      0.205000          0.394767E-03
      0.210000          0.375617E-03
      0.215000          0.356739E-03
      0.220000          0.338295E-03
      0.225000          0.320520E-03
      0.230000          0.303682E-03
      0.235000          0.288046E-03
      0.240000          0.273840E-03
      0.245000          0.261228E-03
      0.250000          0.250300E-03
      0.255000          0.241064E-03
      0.260000          0.233450E-03
      0.265000          0.227321E-03
      0.270000          0.222489E-03
      0.275000          0.218736E-03
      0.280000          0.215832E-03
      0.285000          0.213553E-03
      0.290000          0.211696E-03
      0.295000          0.210090E-03
      0.300000          0.208600E-03
      0.305000          0.207130E-03
      0.310000          0.205617E-03
      0.315000          0.204029E-03
      0.320000          0.202352E-03
      0.325000          0.200588E-03
      0.330000          0.198742E-03
      0.335000          0.196816E-03
      0.340000          0.194808E-03
      0.345000          0.192706E-03
      0.350000          0.190490E-03
      0.355000          0.188134E-03
      0.360000          0.185608E-03
      0.365000          0.182884E-03
      0.370000          0.179936E-03
      0.375000          0.176749E-03
      0.380000          0.173320E-03
      0.385000          0.169657E-03
      0.390000          0.165782E-03
      0.395000          0.161727E-03
      0.400000          0.157537E-03
      0.405000          0.153260E-03
      0.410000          0.148949E-03
      0.415000          0.144658E-03
      0.420000          0.140435E-03
      0.425000          0.136325E-03
      0.430000          0.132365E-03
      0.435000          0.128581E-03
      0.440000          0.124996E-03
      0.445000          0.121619E-03
      0.450000          0.118457E-03
      0.455000          0.115508E-03
      0.460000          0.112766E-03
      0.465000          0.110224E-03
      0.470000          0.107869E-03
      0.475000          0.105689E-03
      0.480000          0.103671E-03
      0.485000          0.101799E-03
      0.490000          0.100058E-03
      0.495000          0.984323E-04
      0.500000          0.969046E-04
