 I_abs(s)[cm^-1]/c[mg/ml]
       0.00000          0.147820E-01
      0.500000E-02      0.147425E-01
      0.100000E-01      0.146247E-01
      0.150000E-01      0.144304E-01
      0.200000E-01      0.141625E-01
      0.250000E-01      0.138252E-01
      0.300000E-01      0.134234E-01
      0.350000E-01      0.129632E-01
      0.400000E-01      0.124513E-01
      0.450000E-01      0.118948E-01
      0.500000E-01      0.113015E-01
      0.550000E-01      0.106792E-01
      0.600000E-01      0.100360E-01
      0.650000E-01      0.937980E-02
      0.700000E-01      0.871819E-02
      0.750000E-01      0.805849E-02
      0.800000E-01      0.740748E-02
      0.850000E-01      0.677135E-02
      0.900000E-01      0.615557E-02
      0.950000E-01      0.556488E-02
      0.100000          0.500323E-02
      0.105000          0.447375E-02
      0.110000          0.397879E-02
      0.115000          0.351991E-02
      0.120000          0.309796E-02
      0.125000          0.271310E-02
      0.130000          0.236489E-02
      0.135000          0.205234E-02
      0.140000          0.177405E-02
      0.145000          0.152821E-02
      0.150000          0.131276E-02
      0.155000          0.112543E-02
      0.160000          0.963823E-03
      0.165000          0.825500E-03
      0.170000          0.708013E-03
      0.175000          0.608982E-03
      0.180000          0.526124E-03
      0.185000          0.457295E-03
      0.190000          0.400511E-03
      0.195000          0.353964E-03
      0.200000          0.316031E-03
      0.205000          0.285277E-03
      0.210000          0.260448E-03
      0.215000          0.240465E-03
      0.220000          0.224409E-03
      0.225000          0.211510E-03
      0.230000          0.201127E-03
      0.235000          0.192734E-03
      0.240000          0.185904E-03
      0.245000          0.180291E-03
      0.250000          0.175617E-03
      0.255000          0.171660E-03
      0.260000          0.168242E-03
      0.265000          0.165219E-03
      0.270000          0.162474E-03
      0.275000          0.159913E-03
      0.280000          0.157457E-03
      0.285000          0.155041E-03
      0.290000          0.152611E-03
      0.295000          0.150125E-03
      0.300000          0.147548E-03
      0.305000          0.144855E-03
      0.310000          0.142029E-03
      0.315000          0.139064E-03
      0.320000          0.135958E-03
      0.325000          0.132720E-03
      0.330000          0.129367E-03
      0.335000          0.125920E-03
      0.340000          0.122409E-03
      0.345000          0.118866E-03
      0.350000          0.115328E-03
      0.355000          0.111834E-03
      0.360000          0.108423E-03
      0.365000          0.105134E-03
      0.370000          0.102005E-03
      0.375000          0.990679E-04
      0.380000          0.963536E-04
      0.385000          0.938862E-04
      0.390000          0.916845E-04
      0.395000          0.897610E-04
      0.400000          0.881216E-04
      0.405000          0.867660E-04
      0.410000          0.856873E-04
      0.415000          0.848728E-04
      0.420000          0.843044E-04
      0.425000          0.839592E-04
      0.430000          0.838104E-04
      0.435000          0.838283E-04
      0.440000          0.839808E-04
      0.445000          0.842348E-04
      0.450000          0.845568E-04
      0.455000          0.849136E-04
      0.460000          0.852738E-04
      0.465000          0.856075E-04
      0.470000          0.858879E-04
      0.475000          0.860910E-04
      0.480000          0.861965E-04
      0.485000          0.861876E-04
      0.490000          0.860518E-04
      0.495000          0.857800E-04
      0.500000          0.853673E-04
