 I_abs(s)[cm^-1]/c[mg/ml]
       0.00000          0.146143E-01
      0.500000E-02      0.145573E-01
      0.100000E-01      0.143877E-01
      0.150000E-01      0.141090E-01
      0.200000E-01      0.137274E-01
      0.250000E-01      0.132511E-01
      0.300000E-01      0.126901E-01
      0.350000E-01      0.120561E-01
      0.400000E-01      0.113619E-01
      0.450000E-01      0.106211E-01
      0.500000E-01      0.984767E-02
      0.550000E-01      0.905567E-02
      0.600000E-01      0.825866E-02
      0.650000E-01      0.746946E-02
      0.700000E-01      0.669982E-02
      0.750000E-01      0.596014E-02
      0.800000E-01      0.525926E-02
      0.850000E-01      0.460436E-02
      0.900000E-01      0.400086E-02
      0.950000E-01      0.345240E-02
      0.100000          0.296092E-02
      0.105000          0.252678E-02
      0.110000          0.214885E-02
      0.115000          0.182477E-02
      0.120000          0.155113E-02
      0.125000          0.132372E-02
      0.130000          0.113775E-02
      0.135000          0.988100E-03
      0.140000          0.869522E-03
      0.145000          0.776850E-03
      0.150000          0.705162E-03
      0.155000          0.649922E-03
      0.160000          0.607079E-03
      0.165000          0.573140E-03
      0.170000          0.545207E-03
      0.175000          0.520977E-03
      0.180000          0.498728E-03
      0.185000          0.477268E-03
      0.190000          0.455878E-03
      0.195000          0.434235E-03
      0.200000          0.412335E-03
      0.205000          0.390406E-03
      0.210000          0.368834E-03
      0.215000          0.348082E-03
      0.220000          0.328631E-03
      0.225000          0.310925E-03
      0.230000          0.295329E-03
      0.235000          0.282102E-03
      0.240000          0.271379E-03
      0.245000          0.263170E-03
      0.250000          0.257360E-03
      0.255000          0.253729E-03
      0.260000          0.251965E-03
      0.265000          0.251691E-03
      0.270000          0.252490E-03
      0.275000          0.253928E-03
      0.280000          0.255581E-03
      0.285000          0.257055E-03
      0.290000          0.258001E-03
      0.295000          0.258132E-03
      0.300000          0.257229E-03
      0.305000          0.255144E-03
      0.310000          0.251806E-03
      0.315000          0.247208E-03
      0.320000          0.241408E-03
      0.325000          0.234516E-03
      0.330000          0.226684E-03
      0.335000          0.218094E-03
      0.340000          0.208950E-03
      0.345000          0.199460E-03
      0.350000          0.189833E-03
      0.355000          0.180266E-03
      0.360000          0.170939E-03
      0.365000          0.162009E-03
      0.370000          0.153605E-03
      0.375000          0.145827E-03
      0.380000          0.138746E-03
      0.385000          0.132404E-03
      0.390000          0.126817E-03
      0.395000          0.121976E-03
      0.400000          0.117850E-03
      0.405000          0.114394E-03
      0.410000          0.111545E-03
      0.415000          0.109236E-03
      0.420000          0.107388E-03
      0.425000          0.105925E-03
      0.430000          0.104768E-03
      0.435000          0.103843E-03
      0.440000          0.103081E-03
      0.445000          0.102422E-03
      0.450000          0.101812E-03
      0.455000          0.101208E-03
      0.460000          0.100579E-03
      0.465000          0.999007E-04
      0.470000          0.991619E-04
      0.475000          0.983594E-04
      0.480000          0.974987E-04
      0.485000          0.965925E-04
      0.490000          0.956593E-04
      0.495000          0.947220E-04
      0.500000          0.938058E-04
