 I_abs(s)[cm^-1]/c[mg/ml]
       0.00000          0.144238E-01
      0.500000E-02      0.143717E-01
      0.100000E-01      0.142163E-01
      0.150000E-01      0.139610E-01
      0.200000E-01      0.136111E-01
      0.250000E-01      0.131736E-01
      0.300000E-01      0.126575E-01
      0.350000E-01      0.120730E-01
      0.400000E-01      0.114311E-01
      0.450000E-01      0.107441E-01
      0.500000E-01      0.100241E-01
      0.550000E-01      0.928365E-02
      0.600000E-01      0.853471E-02
      0.650000E-01      0.778876E-02
      0.700000E-01      0.705637E-02
      0.750000E-01      0.634701E-02
      0.800000E-01      0.566884E-02
      0.850000E-01      0.502865E-02
      0.900000E-01      0.443174E-02
      0.950000E-01      0.388192E-02
      0.100000          0.338159E-02
      0.105000          0.293175E-02
      0.110000          0.253217E-02
      0.115000          0.218154E-02
      0.120000          0.187760E-02
      0.125000          0.161735E-02
      0.130000          0.139726E-02
      0.135000          0.121338E-02
      0.140000          0.106160E-02
      0.145000          0.937728E-03
      0.150000          0.837678E-03
      0.155000          0.757556E-03
      0.160000          0.693758E-03
      0.165000          0.643030E-03
      0.170000          0.602509E-03
      0.175000          0.569739E-03
      0.180000          0.542672E-03
      0.185000          0.519651E-03
      0.190000          0.499377E-03
      0.195000          0.480877E-03
      0.200000          0.463456E-03
      0.205000          0.446650E-03
      0.210000          0.430184E-03
      0.215000          0.413925E-03
      0.220000          0.397843E-03
      0.225000          0.381978E-03
      0.230000          0.366407E-03
      0.235000          0.351228E-03
      0.240000          0.336533E-03
      0.245000          0.322406E-03
      0.250000          0.308909E-03
      0.255000          0.296079E-03
      0.260000          0.283932E-03
      0.265000          0.272460E-03
      0.270000          0.261635E-03
      0.275000          0.251414E-03
      0.280000          0.241746E-03
      0.285000          0.232571E-03
      0.290000          0.223828E-03
      0.295000          0.215455E-03
      0.300000          0.207398E-03
      0.305000          0.199606E-03
      0.310000          0.192039E-03
      0.315000          0.184664E-03
      0.320000          0.177459E-03
      0.325000          0.170413E-03
      0.330000          0.163522E-03
      0.335000          0.156794E-03
      0.340000          0.150247E-03
      0.345000          0.143902E-03
      0.350000          0.137790E-03
      0.355000          0.131946E-03
      0.360000          0.126407E-03
      0.365000          0.121214E-03
      0.370000          0.116403E-03
      0.375000          0.112010E-03
      0.380000          0.108068E-03
      0.385000          0.104601E-03
      0.390000          0.101627E-03
      0.395000          0.991529E-04
      0.400000          0.971787E-04
      0.405000          0.956921E-04
      0.410000          0.946708E-04
      0.415000          0.940827E-04
      0.420000          0.938864E-04
      0.425000          0.940326E-04
      0.430000          0.944657E-04
      0.435000          0.951255E-04
      0.440000          0.959495E-04
      0.445000          0.968744E-04
      0.450000          0.978390E-04
      0.455000          0.987852E-04
      0.460000          0.996605E-04
      0.465000          0.100419E-03
      0.470000          0.101023E-03
      0.475000          0.101442E-03
      0.480000          0.101656E-03
      0.485000          0.101654E-03
      0.490000          0.101431E-03
      0.495000          0.100992E-03
      0.500000          0.100349E-03
