 I_abs(s)[cm^-1]/c[mg/ml]
       0.00000          0.149507E-01
      0.500000E-02      0.148993E-01
      0.100000E-01      0.147463E-01
      0.150000E-01      0.144949E-01
      0.200000E-01      0.141501E-01
      0.250000E-01      0.137190E-01
      0.300000E-01      0.132104E-01
      0.350000E-01      0.126340E-01
      0.400000E-01      0.120008E-01
      0.450000E-01      0.113226E-01
      0.500000E-01      0.106112E-01
      0.550000E-01      0.987868E-02
      0.600000E-01      0.913665E-02
      0.650000E-01      0.839611E-02
      0.700000E-01      0.766717E-02
      0.750000E-01      0.695884E-02
      0.800000E-01      0.627886E-02
      0.850000E-01      0.563360E-02
      0.900000E-01      0.502798E-02
      0.950000E-01      0.446555E-02
      0.100000          0.394844E-02
      0.105000          0.347755E-02
      0.110000          0.305261E-02
      0.115000          0.267236E-02
      0.120000          0.233476E-02
      0.125000          0.203711E-02
      0.130000          0.177630E-02
      0.135000          0.154892E-02
      0.140000          0.135147E-02
      0.145000          0.118047E-02
      0.150000          0.103261E-02
      0.155000          0.904796E-03
      0.160000          0.794238E-03
      0.165000          0.698488E-03
      0.170000          0.615444E-03
      0.175000          0.543349E-03
      0.180000          0.480764E-03
      0.185000          0.426531E-03
      0.190000          0.379728E-03
      0.195000          0.339623E-03
      0.200000          0.305619E-03
      0.205000          0.277215E-03
      0.210000          0.253960E-03
      0.215000          0.235424E-03
      0.220000          0.221173E-03
      0.225000          0.210754E-03
      0.230000          0.203690E-03
      0.235000          0.199476E-03
      0.240000          0.197594E-03
      0.245000          0.197521E-03
      0.250000          0.198740E-03
      0.255000          0.200765E-03
      0.260000          0.203146E-03
      0.265000          0.205492E-03
      0.270000          0.207473E-03
      0.275000          0.208831E-03
      0.280000          0.209385E-03
      0.285000          0.209024E-03
      0.290000          0.207707E-03
      0.295000          0.205453E-03
      0.300000          0.202331E-03
      0.305000          0.198450E-03
      0.310000          0.193943E-03
      0.315000          0.188961E-03
      0.320000          0.183655E-03
      0.325000          0.178171E-03
      0.330000          0.172642E-03
      0.335000          0.167181E-03
      0.340000          0.161878E-03
      0.345000          0.156803E-03
      0.350000          0.151998E-03
      0.355000          0.147491E-03
      0.360000          0.143287E-03
      0.365000          0.139383E-03
      0.370000          0.135765E-03
      0.375000          0.132415E-03
      0.380000          0.129312E-03
      0.385000          0.126439E-03
      0.390000          0.123780E-03
      0.395000          0.121325E-03
      0.400000          0.119065E-03
      0.405000          0.116996E-03
      0.410000          0.115116E-03
      0.415000          0.113422E-03
      0.420000          0.111910E-03
      0.425000          0.110573E-03
      0.430000          0.109396E-03
      0.435000          0.108363E-03
      0.440000          0.107448E-03
      0.445000          0.106622E-03
      0.450000          0.105850E-03
      0.455000          0.105093E-03
      0.460000          0.104312E-03
      0.465000          0.103468E-03
      0.470000          0.102526E-03
      0.475000          0.101455E-03
      0.480000          0.100231E-03
      0.485000          0.988414E-04
      0.490000          0.972815E-04
      0.495000          0.955580E-04
      0.500000          0.936878E-04
