 I_abs(s)[cm^-1]/c[mg/ml]
       0.00000          0.143212E-01
      0.500000E-02      0.142427E-01
      0.100000E-01      0.140104E-01
      0.150000E-01      0.136325E-01
      0.200000E-01      0.131229E-01
      0.250000E-01      0.124994E-01
      0.300000E-01      0.117835E-01
      0.350000E-01      0.109985E-01
      0.400000E-01      0.101690E-01
      0.450000E-01      0.931906E-02
      0.500000E-01      0.847129E-02
      0.550000E-01      0.764593E-02
      0.600000E-01      0.685997E-02
      0.650000E-01      0.612665E-02
      0.700000E-01      0.545522E-02
      0.750000E-01      0.485096E-02
      0.800000E-01      0.431543E-02
      0.850000E-01      0.384695E-02
      0.900000E-01      0.344117E-02
      0.950000E-01      0.309179E-02
      0.100000          0.279132E-02
      0.105000          0.253171E-02
      0.110000          0.230508E-02
      0.115000          0.210414E-02
      0.120000          0.192263E-02
      0.125000          0.175556E-02
      0.130000          0.159925E-02
      0.135000          0.145135E-02
      0.140000          0.131069E-02
      0.145000          0.117703E-02
      0.150000          0.105083E-02
      0.155000          0.932951E-03
      0.160000          0.824425E-03
      0.165000          0.726201E-03
      0.170000          0.638987E-03
      0.175000          0.563131E-03
      0.180000          0.498565E-03
      0.185000          0.444815E-03
      0.190000          0.401038E-03
      0.195000          0.366115E-03
      0.200000          0.338741E-03
      0.205000          0.317540E-03
      0.210000          0.301160E-03
      0.215000          0.288359E-03
      0.220000          0.278071E-03
      0.225000          0.269438E-03
      0.230000          0.261831E-03
      0.235000          0.254833E-03
      0.240000          0.248222E-03
      0.245000          0.241924E-03
      0.250000          0.235974E-03
      0.255000          0.230470E-03
      0.260000          0.225528E-03
      0.265000          0.221253E-03
      0.270000          0.217711E-03
      0.275000          0.214912E-03
      0.280000          0.212811E-03
      0.285000          0.211303E-03
      0.290000          0.210240E-03
      0.295000          0.209440E-03
      0.300000          0.208704E-03
      0.305000          0.207834E-03
      0.310000          0.206646E-03
      0.315000          0.204986E-03
      0.320000          0.202738E-03
      0.325000          0.199827E-03
      0.330000          0.196231E-03
      0.335000          0.191972E-03
      0.340000          0.187117E-03
      0.345000          0.181771E-03
      0.350000          0.176069E-03
      0.355000          0.170170E-03
      0.360000          0.164241E-03
      0.365000          0.158452E-03
      0.370000          0.152963E-03
      0.375000          0.147914E-03
      0.380000          0.143418E-03
      0.385000          0.139553E-03
      0.390000          0.136357E-03
      0.395000          0.133832E-03
      0.400000          0.131936E-03
      0.405000          0.130595E-03
      0.410000          0.129704E-03
      0.415000          0.129139E-03
      0.420000          0.128764E-03
      0.425000          0.128442E-03
      0.430000          0.128048E-03
      0.435000          0.127473E-03
      0.440000          0.126634E-03
      0.445000          0.125481E-03
      0.450000          0.123992E-03
      0.455000          0.122181E-03
      0.460000          0.120088E-03
      0.465000          0.117776E-03
      0.470000          0.115322E-03
      0.475000          0.112810E-03
      0.480000          0.110322E-03
      0.485000          0.107931E-03
      0.490000          0.105693E-03
      0.495000          0.103644E-03
      0.500000          0.101799E-03
