 I_abs(s)[cm^-1]/c[mg/ml]
       0.00000          0.142896E-01
      0.500000E-02      0.142177E-01
      0.100000E-01      0.140045E-01
      0.150000E-01      0.136571E-01
      0.200000E-01      0.131870E-01
      0.250000E-01      0.126094E-01
      0.300000E-01      0.119426E-01
      0.350000E-01      0.112067E-01
      0.400000E-01      0.104228E-01
      0.450000E-01      0.961203E-02
      0.500000E-01      0.879452E-02
      0.550000E-01      0.798864E-02
      0.600000E-01      0.721027E-02
      0.650000E-01      0.647239E-02
      0.700000E-01      0.578475E-02
      0.750000E-01      0.515388E-02
      0.800000E-01      0.458319E-02
      0.850000E-01      0.407325E-02
      0.900000E-01      0.362227E-02
      0.950000E-01      0.322654E-02
      0.100000          0.288103E-02
      0.105000          0.257992E-02
      0.110000          0.231709E-02
      0.115000          0.208654E-02
      0.120000          0.188277E-02
      0.125000          0.170097E-02
      0.130000          0.153718E-02
      0.135000          0.138835E-02
      0.140000          0.125223E-02
      0.145000          0.112735E-02
      0.150000          0.101282E-02
      0.155000          0.908191E-03
      0.160000          0.813272E-03
      0.165000          0.728000E-03
      0.170000          0.652307E-03
      0.175000          0.586026E-03
      0.180000          0.528845E-03
      0.185000          0.480279E-03
      0.190000          0.439679E-03
      0.195000          0.406263E-03
      0.200000          0.379159E-03
      0.205000          0.357451E-03
      0.210000          0.340231E-03
      0.215000          0.326639E-03
      0.220000          0.315892E-03
      0.225000          0.307309E-03
      0.230000          0.300316E-03
      0.235000          0.294444E-03
      0.240000          0.289320E-03
      0.245000          0.284652E-03
      0.250000          0.280212E-03
      0.255000          0.275820E-03
      0.260000          0.271332E-03
      0.265000          0.266629E-03
      0.270000          0.261613E-03
      0.275000          0.256205E-03
      0.280000          0.250349E-03
      0.285000          0.244011E-03
      0.290000          0.237190E-03
      0.295000          0.229916E-03
      0.300000          0.222254E-03
      0.305000          0.214300E-03
      0.310000          0.206178E-03
      0.315000          0.198035E-03
      0.320000          0.190027E-03
      0.325000          0.182311E-03
      0.330000          0.175033E-03
      0.335000          0.168319E-03
      0.340000          0.162261E-03
      0.345000          0.156918E-03
      0.350000          0.152305E-03
      0.355000          0.148399E-03
      0.360000          0.145140E-03
      0.365000          0.142435E-03
      0.370000          0.140172E-03
      0.375000          0.138223E-03
      0.380000          0.136461E-03
      0.385000          0.134765E-03
      0.390000          0.133034E-03
      0.395000          0.131188E-03
      0.400000          0.129179E-03
      0.405000          0.126987E-03
      0.410000          0.124622E-03
      0.415000          0.122118E-03
      0.420000          0.119531E-03
      0.425000          0.116927E-03
      0.430000          0.114375E-03
      0.435000          0.111943E-03
      0.440000          0.109685E-03
      0.445000          0.107639E-03
      0.450000          0.105821E-03
      0.455000          0.104226E-03
      0.460000          0.102830E-03
      0.465000          0.101587E-03
      0.470000          0.100443E-03
      0.475000          0.993352E-04
      0.480000          0.982009E-04
      0.485000          0.969852E-04
      0.490000          0.956456E-04
      0.495000          0.941563E-04
      0.500000          0.925112E-04
