 I_abs(s)[cm^-1]/c[mg/ml]
       0.00000          0.144555E-01
      0.500000E-02      0.143781E-01
      0.100000E-01      0.141483E-01
      0.150000E-01      0.137733E-01
      0.200000E-01      0.132645E-01
      0.250000E-01      0.126372E-01
      0.300000E-01      0.119100E-01
      0.350000E-01      0.111033E-01
      0.400000E-01      0.102393E-01
      0.450000E-01      0.934038E-02
      0.500000E-01      0.842835E-02
      0.550000E-01      0.752379E-02
      0.600000E-01      0.664520E-02
      0.650000E-01      0.580848E-02
      0.700000E-01      0.502654E-02
      0.750000E-01      0.430911E-02
      0.800000E-01      0.366270E-02
      0.850000E-01      0.309074E-02
      0.900000E-01      0.259382E-02
      0.950000E-01      0.217005E-02
      0.100000          0.181551E-02
      0.105000          0.152474E-02
      0.110000          0.129116E-02
      0.115000          0.110755E-02
      0.120000          0.966491E-03
      0.125000          0.860643E-03
      0.130000          0.783075E-03
      0.135000          0.727452E-03
      0.140000          0.688163E-03
      0.145000          0.660402E-03
      0.150000          0.640176E-03
      0.155000          0.624286E-03
      0.160000          0.610268E-03
      0.165000          0.596316E-03
      0.170000          0.581199E-03
      0.175000          0.564170E-03
      0.180000          0.544883E-03
      0.185000          0.523306E-03
      0.190000          0.499655E-03
      0.195000          0.474324E-03
      0.200000          0.447832E-03
      0.205000          0.420767E-03
      0.210000          0.393747E-03
      0.215000          0.367377E-03
      0.220000          0.342216E-03
      0.225000          0.318750E-03
      0.230000          0.297368E-03
      0.235000          0.278350E-03
      0.240000          0.261856E-03
      0.245000          0.247925E-03
      0.250000          0.236484E-03
      0.255000          0.227362E-03
      0.260000          0.220305E-03
      0.265000          0.215000E-03
      0.270000          0.211101E-03
      0.275000          0.208252E-03
      0.280000          0.206108E-03
      0.285000          0.204356E-03
      0.290000          0.202729E-03
      0.295000          0.201014E-03
      0.300000          0.199054E-03
      0.305000          0.196753E-03
      0.310000          0.194062E-03
      0.315000          0.190978E-03
      0.320000          0.187530E-03
      0.325000          0.183770E-03
      0.330000          0.179762E-03
      0.335000          0.175575E-03
      0.340000          0.171278E-03
      0.345000          0.166931E-03
      0.350000          0.162592E-03
      0.355000          0.158306E-03
      0.360000          0.154117E-03
      0.365000          0.150060E-03
      0.370000          0.146173E-03
      0.375000          0.142487E-03
      0.380000          0.139036E-03
      0.385000          0.135850E-03
      0.390000          0.132959E-03
      0.395000          0.130385E-03
      0.400000          0.128144E-03
      0.405000          0.126241E-03
      0.410000          0.124668E-03
      0.415000          0.123406E-03
      0.420000          0.122420E-03
      0.425000          0.121663E-03
      0.430000          0.121080E-03
      0.435000          0.120607E-03
      0.440000          0.120177E-03
      0.445000          0.119726E-03
      0.450000          0.119196E-03
      0.455000          0.118537E-03
      0.460000          0.117714E-03
      0.465000          0.116706E-03
      0.470000          0.115509E-03
      0.475000          0.114132E-03
      0.480000          0.112603E-03
      0.485000          0.110958E-03
      0.490000          0.109244E-03
      0.495000          0.107511E-03
      0.500000          0.105814E-03
