 I_abs(s)[cm^-1]/c[mg/ml]
       0.00000          0.145507E-01
      0.500000E-02      0.144951E-01
      0.100000E-01      0.143294E-01
      0.150000E-01      0.140575E-01
      0.200000E-01      0.136852E-01
      0.250000E-01      0.132207E-01
      0.300000E-01      0.126738E-01
      0.350000E-01      0.120561E-01
      0.400000E-01      0.113799E-01
      0.450000E-01      0.106587E-01
      0.500000E-01      0.990599E-02
      0.550000E-01      0.913527E-02
      0.600000E-01      0.835959E-02
      0.650000E-01      0.759118E-02
      0.700000E-01      0.684118E-02
      0.750000E-01      0.611936E-02
      0.800000E-01      0.543398E-02
      0.850000E-01      0.479169E-02
      0.900000E-01      0.419745E-02
      0.950000E-01      0.365456E-02
      0.100000          0.316476E-02
      0.105000          0.272830E-02
      0.110000          0.234417E-02
      0.115000          0.201023E-02
      0.120000          0.172344E-02
      0.125000          0.148007E-02
      0.130000          0.127594E-02
      0.135000          0.110659E-02
      0.140000          0.967474E-03
      0.145000          0.854125E-03
      0.150000          0.762293E-03
      0.155000          0.688045E-03
      0.160000          0.627846E-03
      0.165000          0.578603E-03
      0.170000          0.537692E-03
      0.175000          0.502954E-03
      0.180000          0.472677E-03
      0.185000          0.445561E-03
      0.190000          0.420672E-03
      0.195000          0.397390E-03
      0.200000          0.375351E-03
      0.205000          0.354396E-03
      0.210000          0.334510E-03
      0.215000          0.315779E-03
      0.220000          0.298345E-03
      0.225000          0.282370E-03
      0.230000          0.268009E-03
      0.235000          0.255384E-03
      0.240000          0.244574E-03
      0.245000          0.235605E-03
      0.250000          0.228446E-03
      0.255000          0.223012E-03
      0.260000          0.219166E-03
      0.265000          0.216731E-03
      0.270000          0.215494E-03
      0.275000          0.215219E-03
      0.280000          0.215659E-03
      0.285000          0.216563E-03
      0.290000          0.217687E-03
      0.295000          0.218800E-03
      0.300000          0.219696E-03
      0.305000          0.220196E-03
      0.310000          0.220151E-03
      0.315000          0.219448E-03
      0.320000          0.218009E-03
      0.325000          0.215789E-03
      0.330000          0.212779E-03
      0.335000          0.208999E-03
      0.340000          0.204496E-03
      0.345000          0.199342E-03
      0.350000          0.193625E-03
      0.355000          0.187449E-03
      0.360000          0.180927E-03
      0.365000          0.174175E-03
      0.370000          0.167310E-03
      0.375000          0.160448E-03
      0.380000          0.153693E-03
      0.385000          0.147145E-03
      0.390000          0.140887E-03
      0.395000          0.134992E-03
      0.400000          0.129517E-03
      0.405000          0.124504E-03
      0.410000          0.119981E-03
      0.415000          0.115960E-03
      0.420000          0.112442E-03
      0.425000          0.109413E-03
      0.430000          0.106849E-03
      0.435000          0.104718E-03
      0.440000          0.102979E-03
      0.445000          0.101585E-03
      0.450000          0.100488E-03
      0.455000          0.996358E-04
      0.460000          0.989760E-04
      0.465000          0.984586E-04
      0.470000          0.980365E-04
      0.475000          0.976668E-04
      0.480000          0.973118E-04
      0.485000          0.969402E-04
      0.490000          0.965271E-04
      0.495000          0.960544E-04
      0.500000          0.955111E-04
