 I_abs(s)[cm^-1]/c[mg/ml]
       0.00000          0.148301E-01
      0.500000E-02      0.147884E-01
      0.100000E-01      0.146637E-01
      0.150000E-01      0.144583E-01
      0.200000E-01      0.141754E-01
      0.250000E-01      0.138196E-01
      0.300000E-01      0.133966E-01
      0.350000E-01      0.129129E-01
      0.400000E-01      0.123760E-01
      0.450000E-01      0.117939E-01
      0.500000E-01      0.111750E-01
      0.550000E-01      0.105280E-01
      0.600000E-01      0.986166E-02
      0.650000E-01      0.918442E-02
      0.700000E-01      0.850454E-02
      0.750000E-01      0.782974E-02
      0.800000E-01      0.716714E-02
      0.850000E-01      0.652312E-02
      0.900000E-01      0.590324E-02
      0.950000E-01      0.531220E-02
      0.100000          0.475380E-02
      0.105000          0.423091E-02
      0.110000          0.374555E-02
      0.115000          0.329887E-02
      0.120000          0.289125E-02
      0.125000          0.252237E-02
      0.130000          0.219126E-02
      0.135000          0.189648E-02
      0.140000          0.163611E-02
      0.145000          0.140794E-02
      0.150000          0.120953E-02
      0.155000          0.103827E-02
      0.160000          0.891530E-03
      0.165000          0.766670E-03
      0.170000          0.661132E-03
      0.175000          0.572482E-03
      0.180000          0.498447E-03
      0.185000          0.436941E-03
      0.190000          0.386083E-03
      0.195000          0.344198E-03
      0.200000          0.309823E-03
      0.205000          0.281689E-03
      0.210000          0.258717E-03
      0.215000          0.239994E-03
      0.220000          0.224757E-03
      0.225000          0.212372E-03
      0.230000          0.202315E-03
      0.235000          0.194153E-03
      0.240000          0.187528E-03
      0.245000          0.182139E-03
      0.250000          0.177734E-03
      0.255000          0.174100E-03
      0.260000          0.171052E-03
      0.265000          0.168430E-03
      0.270000          0.166097E-03
      0.275000          0.163934E-03
      0.280000          0.161839E-03
      0.285000          0.159731E-03
      0.290000          0.157543E-03
      0.295000          0.155226E-03
      0.300000          0.152750E-03
      0.305000          0.150099E-03
      0.310000          0.147272E-03
      0.315000          0.144280E-03
      0.320000          0.141148E-03
      0.325000          0.137906E-03
      0.330000          0.134591E-03
      0.335000          0.131246E-03
      0.340000          0.127909E-03
      0.345000          0.124620E-03
      0.350000          0.121414E-03
      0.355000          0.118321E-03
      0.360000          0.115362E-03
      0.365000          0.112553E-03
      0.370000          0.109901E-03
      0.375000          0.107407E-03
      0.380000          0.105065E-03
      0.385000          0.102863E-03
      0.390000          0.100785E-03
      0.395000          0.988152E-04
      0.400000          0.969334E-04
      0.405000          0.951214E-04
      0.410000          0.933627E-04
      0.415000          0.916432E-04
      0.420000          0.899525E-04
      0.425000          0.882844E-04
      0.430000          0.866368E-04
      0.435000          0.850116E-04
      0.440000          0.834150E-04
      0.445000          0.818559E-04
      0.450000          0.803462E-04
      0.455000          0.788991E-04
      0.460000          0.775288E-04
      0.465000          0.762494E-04
      0.470000          0.750740E-04
      0.475000          0.740140E-04
      0.480000          0.730787E-04
      0.485000          0.722746E-04
      0.490000          0.716054E-04
      0.495000          0.710719E-04
      0.500000          0.706717E-04
