 I_abs(s)[cm^-1]/c[mg/ml]
       0.00000          0.146941E-01
      0.500000E-02      0.146470E-01
      0.100000E-01      0.145066E-01
      0.150000E-01      0.142755E-01
      0.200000E-01      0.139577E-01
      0.250000E-01      0.135587E-01
      0.300000E-01      0.130856E-01
      0.350000E-01      0.125465E-01
      0.400000E-01      0.119502E-01
      0.450000E-01      0.113067E-01
      0.500000E-01      0.106260E-01
      0.550000E-01      0.991874E-02
      0.600000E-01      0.919521E-02
      0.650000E-01      0.846560E-02
      0.700000E-01      0.773961E-02
      0.750000E-01      0.702622E-02
      0.800000E-01      0.633362E-02
      0.850000E-01      0.566898E-02
      0.900000E-01      0.503840E-02
      0.950000E-01      0.444685E-02
      0.100000          0.389810E-02
      0.105000          0.339475E-02
      0.110000          0.293829E-02
      0.115000          0.252911E-02
      0.120000          0.216664E-02
      0.125000          0.184945E-02
      0.130000          0.157534E-02
      0.135000          0.134155E-02
      0.140000          0.114482E-02
      0.145000          0.981593E-03
      0.150000          0.848112E-03
      0.155000          0.740560E-03
      0.160000          0.655171E-03
      0.165000          0.588327E-03
      0.170000          0.536638E-03
      0.175000          0.497008E-03
      0.180000          0.466678E-03
      0.185000          0.443252E-03
      0.190000          0.424711E-03
      0.195000          0.409405E-03
      0.200000          0.396042E-03
      0.205000          0.383656E-03
      0.210000          0.371576E-03
      0.215000          0.359384E-03
      0.220000          0.346871E-03
      0.225000          0.333996E-03
      0.230000          0.320839E-03
      0.235000          0.307566E-03
      0.240000          0.294390E-03
      0.245000          0.281539E-03
      0.250000          0.269236E-03
      0.255000          0.257674E-03
      0.260000          0.247008E-03
      0.265000          0.237340E-03
      0.270000          0.228726E-03
      0.275000          0.221167E-03
      0.280000          0.214619E-03
      0.285000          0.209001E-03
      0.290000          0.204198E-03
      0.295000          0.200077E-03
      0.300000          0.196493E-03
      0.305000          0.193296E-03
      0.310000          0.190346E-03
      0.315000          0.187512E-03
      0.320000          0.184683E-03
      0.325000          0.181767E-03
      0.330000          0.178697E-03
      0.335000          0.175428E-03
      0.340000          0.171937E-03
      0.345000          0.168224E-03
      0.350000          0.164304E-03
      0.355000          0.160204E-03
      0.360000          0.155966E-03
      0.365000          0.151635E-03
      0.370000          0.147259E-03
      0.375000          0.142888E-03
      0.380000          0.138566E-03
      0.385000          0.134335E-03
      0.390000          0.130230E-03
      0.395000          0.126278E-03
      0.400000          0.122499E-03
      0.405000          0.118907E-03
      0.410000          0.115510E-03
      0.415000          0.112310E-03
      0.420000          0.109304E-03
      0.425000          0.106488E-03
      0.430000          0.103856E-03
      0.435000          0.101401E-03
      0.440000          0.991160E-04
      0.445000          0.969964E-04
      0.450000          0.950384E-04
      0.455000          0.932405E-04
      0.460000          0.916029E-04
      0.465000          0.901272E-04
      0.470000          0.888163E-04
      0.475000          0.876736E-04
      0.480000          0.867024E-04
      0.485000          0.859051E-04
      0.490000          0.852824E-04
      0.495000          0.848330E-04
      0.500000          0.845525E-04
