 I_abs(s)[cm^-1]/c[mg/ml]
       0.00000          0.133299E-01
      0.500000E-02      0.132382E-01
      0.100000E-01      0.129672E-01
      0.150000E-01      0.125288E-01
      0.200000E-01      0.119421E-01
      0.250000E-01      0.112320E-01
      0.300000E-01      0.104275E-01
      0.350000E-01      0.956003E-02
      0.400000E-01      0.866143E-02
      0.450000E-01      0.776217E-02
      0.500000E-01      0.688968E-02
      0.550000E-01      0.606707E-02
      0.600000E-01      0.531220E-02
      0.650000E-01      0.463725E-02
      0.700000E-01      0.404865E-02
      0.750000E-01      0.354753E-02
      0.800000E-01      0.313035E-02
      0.850000E-01      0.278991E-02
      0.900000E-01      0.251640E-02
      0.950000E-01      0.229854E-02
      0.100000          0.212462E-02
      0.105000          0.198343E-02
      0.110000          0.186493E-02
      0.115000          0.176081E-02
      0.120000          0.166464E-02
      0.125000          0.157200E-02
      0.130000          0.148025E-02
      0.135000          0.138833E-02
      0.140000          0.129631E-02
      0.145000          0.120510E-02
      0.150000          0.111598E-02
      0.155000          0.103038E-02
      0.160000          0.949549E-03
      0.165000          0.874453E-03
      0.170000          0.805667E-03
      0.175000          0.743381E-03
      0.180000          0.687447E-03
      0.185000          0.637453E-03
      0.190000          0.592829E-03
      0.195000          0.552929E-03
      0.200000          0.517114E-03
      0.205000          0.484803E-03
      0.210000          0.455502E-03
      0.215000          0.428804E-03
      0.220000          0.404384E-03
      0.225000          0.381975E-03
      0.230000          0.361340E-03
      0.235000          0.342256E-03
      0.240000          0.324500E-03
      0.245000          0.307843E-03
      0.250000          0.292063E-03
      0.255000          0.276956E-03
      0.260000          0.262350E-03
      0.265000          0.248130E-03
      0.270000          0.234242E-03
      0.275000          0.220702E-03
      0.280000          0.207596E-03
      0.285000          0.195061E-03
      0.290000          0.183271E-03
      0.295000          0.172413E-03
      0.300000          0.162661E-03
      0.305000          0.154155E-03
      0.310000          0.146981E-03
      0.315000          0.141160E-03
      0.320000          0.136646E-03
      0.325000          0.133327E-03
      0.330000          0.131040E-03
      0.335000          0.129584E-03
      0.340000          0.128737E-03
      0.345000          0.128280E-03
      0.350000          0.128012E-03
      0.355000          0.127760E-03
      0.360000          0.127395E-03
      0.365000          0.126831E-03
      0.370000          0.126027E-03
      0.375000          0.124979E-03
      0.380000          0.123715E-03
      0.385000          0.122284E-03
      0.390000          0.120746E-03
      0.395000          0.119159E-03
      0.400000          0.117576E-03
      0.405000          0.116034E-03
      0.410000          0.114553E-03
      0.415000          0.113136E-03
      0.420000          0.111768E-03
      0.425000          0.110420E-03
      0.430000          0.109056E-03
      0.435000          0.107637E-03
      0.440000          0.106127E-03
      0.445000          0.104498E-03
      0.450000          0.102736E-03
      0.455000          0.100842E-03
      0.460000          0.988376E-04
      0.465000          0.967581E-04
      0.470000          0.946558E-04
      0.475000          0.925935E-04
      0.480000          0.906401E-04
      0.485000          0.888635E-04
      0.490000          0.873252E-04
      0.495000          0.860734E-04
      0.500000          0.851379E-04
