 I_abs(s)[cm^-1]/c[mg/ml]
       0.00000          0.146223E-01
      0.500000E-02      0.145779E-01
      0.100000E-01      0.144455E-01
      0.150000E-01      0.142272E-01
      0.200000E-01      0.139267E-01
      0.250000E-01      0.135490E-01
      0.300000E-01      0.131001E-01
      0.350000E-01      0.125872E-01
      0.400000E-01      0.120184E-01
      0.450000E-01      0.114025E-01
      0.500000E-01      0.107486E-01
      0.550000E-01      0.100662E-01
      0.600000E-01      0.936492E-02
      0.650000E-01      0.865407E-02
      0.700000E-01      0.794272E-02
      0.750000E-01      0.723944E-02
      0.800000E-01      0.655208E-02
      0.850000E-01      0.588774E-02
      0.900000E-01      0.525258E-02
      0.950000E-01      0.465182E-02
      0.100000          0.408964E-02
      0.105000          0.356920E-02
      0.110000          0.309263E-02
      0.115000          0.266108E-02
      0.120000          0.227477E-02
      0.125000          0.193309E-02
      0.130000          0.163465E-02
      0.135000          0.137743E-02
      0.140000          0.115890E-02
      0.145000          0.976062E-03
      0.150000          0.825666E-03
      0.155000          0.704250E-03
      0.160000          0.608277E-03
      0.165000          0.534221E-03
      0.170000          0.478656E-03
      0.175000          0.438324E-03
      0.180000          0.410198E-03
      0.185000          0.391522E-03
      0.190000          0.379843E-03
      0.195000          0.373030E-03
      0.200000          0.369276E-03
      0.205000          0.367099E-03
      0.210000          0.365323E-03
      0.215000          0.363058E-03
      0.220000          0.359676E-03
      0.225000          0.354775E-03
      0.230000          0.348151E-03
      0.235000          0.339761E-03
      0.240000          0.329691E-03
      0.245000          0.318124E-03
      0.250000          0.305310E-03
      0.255000          0.291542E-03
      0.260000          0.277131E-03
      0.265000          0.262388E-03
      0.270000          0.247609E-03
      0.275000          0.233064E-03
      0.280000          0.218989E-03
      0.285000          0.205581E-03
      0.290000          0.192997E-03
      0.295000          0.181351E-03
      0.300000          0.170719E-03
      0.305000          0.161141E-03
      0.310000          0.152627E-03
      0.315000          0.145158E-03
      0.320000          0.138692E-03
      0.325000          0.133173E-03
      0.330000          0.128528E-03
      0.335000          0.124680E-03
      0.340000          0.121542E-03
      0.345000          0.119029E-03
      0.350000          0.117055E-03
      0.355000          0.115537E-03
      0.360000          0.114396E-03
      0.365000          0.113557E-03
      0.370000          0.112953E-03
      0.375000          0.112523E-03
      0.380000          0.112211E-03
      0.385000          0.111968E-03
      0.390000          0.111753E-03
      0.395000          0.111530E-03
      0.400000          0.111268E-03
      0.405000          0.110943E-03
      0.410000          0.110536E-03
      0.415000          0.110034E-03
      0.420000          0.109427E-03
      0.425000          0.108711E-03
      0.430000          0.107885E-03
      0.435000          0.106953E-03
      0.440000          0.105922E-03
      0.445000          0.104801E-03
      0.450000          0.103603E-03
      0.455000          0.102343E-03
      0.460000          0.101035E-03
      0.465000          0.996978E-04
      0.470000          0.983482E-04
      0.475000          0.970037E-04
      0.480000          0.956812E-04
      0.485000          0.943964E-04
      0.490000          0.931634E-04
      0.495000          0.919946E-04
      0.500000          0.908999E-04
