 I_abs(s)[cm^-1]/c[mg/ml]
       0.00000          0.141169E-01
      0.500000E-02      0.140471E-01
      0.100000E-01      0.138397E-01
      0.150000E-01      0.135015E-01
      0.200000E-01      0.130429E-01
      0.250000E-01      0.124783E-01
      0.300000E-01      0.118243E-01
      0.350000E-01      0.111001E-01
      0.400000E-01      0.103254E-01
      0.450000E-01      0.952046E-02
      0.500000E-01      0.870481E-02
      0.550000E-01      0.789648E-02
      0.600000E-01      0.711145E-02
      0.650000E-01      0.636313E-02
      0.700000E-01      0.566207E-02
      0.750000E-01      0.501583E-02
      0.800000E-01      0.442901E-02
      0.850000E-01      0.390346E-02
      0.900000E-01      0.343860E-02
      0.950000E-01      0.303184E-02
      0.100000          0.267903E-02
      0.105000          0.237499E-02
      0.110000          0.211392E-02
      0.115000          0.188989E-02
      0.120000          0.169712E-02
      0.125000          0.153034E-02
      0.130000          0.138493E-02
      0.135000          0.125699E-02
      0.140000          0.114345E-02
      0.145000          0.104196E-02
      0.150000          0.950784E-03
      0.155000          0.868749E-03
      0.160000          0.795043E-03
      0.165000          0.729109E-03
      0.170000          0.670518E-03
      0.175000          0.618874E-03
      0.180000          0.573745E-03
      0.185000          0.534629E-03
      0.190000          0.500939E-03
      0.195000          0.472020E-03
      0.200000          0.447175E-03
      0.205000          0.425703E-03
      0.210000          0.406939E-03
      0.215000          0.390287E-03
      0.220000          0.375248E-03
      0.225000          0.361433E-03
      0.230000          0.348567E-03
      0.235000          0.336476E-03
      0.240000          0.325070E-03
      0.245000          0.314317E-03
      0.250000          0.304216E-03
      0.255000          0.294771E-03
      0.260000          0.285968E-03
      0.265000          0.277764E-03
      0.270000          0.270073E-03
      0.275000          0.262772E-03
      0.280000          0.255709E-03
      0.285000          0.248716E-03
      0.290000          0.241626E-03
      0.295000          0.234291E-03
      0.300000          0.226602E-03
      0.305000          0.218498E-03
      0.310000          0.209978E-03
      0.315000          0.201102E-03
      0.320000          0.191988E-03
      0.325000          0.182800E-03
      0.330000          0.173738E-03
      0.335000          0.165018E-03
      0.340000          0.156856E-03
      0.345000          0.149447E-03
      0.350000          0.142955E-03
      0.355000          0.137494E-03
      0.360000          0.133127E-03
      0.365000          0.129856E-03
      0.370000          0.127629E-03
      0.375000          0.126344E-03
      0.380000          0.125857E-03
      0.385000          0.125995E-03
      0.390000          0.126568E-03
      0.395000          0.127383E-03
      0.400000          0.128256E-03
      0.405000          0.129020E-03
      0.410000          0.129537E-03
      0.415000          0.129699E-03
      0.420000          0.129432E-03
      0.425000          0.128698E-03
      0.430000          0.127487E-03
      0.435000          0.125820E-03
      0.440000          0.123738E-03
      0.445000          0.121299E-03
      0.450000          0.118572E-03
      0.455000          0.115632E-03
      0.460000          0.112552E-03
      0.465000          0.109405E-03
      0.470000          0.106258E-03
      0.475000          0.103169E-03
      0.480000          0.100190E-03
      0.485000          0.973622E-04
      0.490000          0.947200E-04
      0.495000          0.922891E-04
      0.500000          0.900877E-04
