 I_abs(s)[cm^-1]/c[mg/ml]
       0.00000          0.145507E-01
      0.500000E-02      0.144837E-01
      0.100000E-01      0.142849E-01
      0.150000E-01      0.139600E-01
      0.200000E-01      0.135183E-01
      0.250000E-01      0.129724E-01
      0.300000E-01      0.123373E-01
      0.350000E-01      0.116298E-01
      0.400000E-01      0.108681E-01
      0.450000E-01      0.100706E-01
      0.500000E-01      0.925537E-02
      0.550000E-01      0.843941E-02
      0.600000E-01      0.763820E-02
      0.650000E-01      0.686511E-02
      0.700000E-01      0.613112E-02
      0.750000E-01      0.544467E-02
      0.800000E-01      0.481160E-02
      0.850000E-01      0.423526E-02
      0.900000E-01      0.371673E-02
      0.950000E-01      0.325510E-02
      0.100000          0.284787E-02
      0.105000          0.249132E-02
      0.110000          0.218093E-02
      0.115000          0.191172E-02
      0.120000          0.167864E-02
      0.125000          0.147682E-02
      0.130000          0.130177E-02
      0.135000          0.114955E-02
      0.140000          0.101683E-02
      0.145000          0.900877E-03
      0.150000          0.799563E-03
      0.155000          0.711245E-03
      0.160000          0.634679E-03
      0.165000          0.568907E-03
      0.170000          0.513141E-03
      0.175000          0.466669E-03
      0.180000          0.428773E-03
      0.185000          0.398680E-03
      0.190000          0.375526E-03
      0.195000          0.358356E-03
      0.200000          0.346143E-03
      0.205000          0.337815E-03
      0.210000          0.332303E-03
      0.215000          0.328587E-03
      0.220000          0.325742E-03
      0.225000          0.322972E-03
      0.230000          0.319647E-03
      0.235000          0.315315E-03
      0.240000          0.309706E-03
      0.245000          0.302723E-03
      0.250000          0.294423E-03
      0.255000          0.284990E-03
      0.260000          0.274700E-03
      0.265000          0.263885E-03
      0.270000          0.252901E-03
      0.275000          0.242093E-03
      0.280000          0.231769E-03
      0.285000          0.222180E-03
      0.290000          0.213510E-03
      0.295000          0.205865E-03
      0.300000          0.199280E-03
      0.305000          0.193720E-03
      0.310000          0.189094E-03
      0.315000          0.185269E-03
      0.320000          0.182083E-03
      0.325000          0.179360E-03
      0.330000          0.176927E-03
      0.335000          0.174624E-03
      0.340000          0.172314E-03
      0.345000          0.169886E-03
      0.350000          0.167267E-03
      0.355000          0.164413E-03
      0.360000          0.161314E-03
      0.365000          0.157989E-03
      0.370000          0.154477E-03
      0.375000          0.150837E-03
      0.380000          0.147138E-03
      0.385000          0.143450E-03
      0.390000          0.139846E-03
      0.395000          0.136388E-03
      0.400000          0.133129E-03
      0.405000          0.130109E-03
      0.410000          0.127354E-03
      0.415000          0.124873E-03
      0.420000          0.122663E-03
      0.425000          0.120707E-03
      0.430000          0.118978E-03
      0.435000          0.117444E-03
      0.440000          0.116067E-03
      0.445000          0.114808E-03
      0.450000          0.113629E-03
      0.455000          0.112496E-03
      0.460000          0.111380E-03
      0.465000          0.110258E-03
      0.470000          0.109115E-03
      0.475000          0.107939E-03
      0.480000          0.106728E-03
      0.485000          0.105483E-03
      0.490000          0.104210E-03
      0.495000          0.102919E-03
      0.500000          0.101622E-03
