 I_abs(s)[cm^-1]/c[mg/ml]
       0.00000          0.143527E-01
      0.500000E-02      0.142804E-01
      0.100000E-01      0.140660E-01
      0.150000E-01      0.137164E-01
      0.200000E-01      0.132431E-01
      0.250000E-01      0.126610E-01
      0.300000E-01      0.119881E-01
      0.350000E-01      0.112442E-01
      0.400000E-01      0.104501E-01
      0.450000E-01      0.962666E-02
      0.500000E-01      0.879390E-02
      0.550000E-01      0.797004E-02
      0.600000E-01      0.717106E-02
      0.650000E-01      0.641017E-02
      0.700000E-01      0.569756E-02
      0.750000E-01      0.504041E-02
      0.800000E-01      0.444296E-02
      0.850000E-01      0.390680E-02
      0.900000E-01      0.343123E-02
      0.950000E-01      0.301376E-02
      0.100000          0.265050E-02
      0.105000          0.233667E-02
      0.110000          0.206703E-02
      0.115000          0.183619E-02
      0.120000          0.163894E-02
      0.125000          0.147044E-02
      0.130000          0.132632E-02
      0.135000          0.120276E-02
      0.140000          0.109650E-02
      0.145000          0.100477E-02
      0.150000          0.925279E-03
      0.155000          0.856084E-03
      0.160000          0.795563E-03
      0.165000          0.742337E-03
      0.170000          0.695221E-03
      0.175000          0.653189E-03
      0.180000          0.615352E-03
      0.185000          0.580945E-03
      0.190000          0.549324E-03
      0.195000          0.519956E-03
      0.200000          0.492422E-03
      0.205000          0.466408E-03
      0.210000          0.441695E-03
      0.215000          0.418147E-03
      0.220000          0.395695E-03
      0.225000          0.374320E-03
      0.230000          0.354036E-03
      0.235000          0.334877E-03
      0.240000          0.316883E-03
      0.245000          0.300095E-03
      0.250000          0.284546E-03
      0.255000          0.270261E-03
      0.260000          0.257256E-03
      0.265000          0.245536E-03
      0.270000          0.235097E-03
      0.275000          0.225923E-03
      0.280000          0.217988E-03
      0.285000          0.211250E-03
      0.290000          0.205649E-03
      0.295000          0.201105E-03
      0.300000          0.197517E-03
      0.305000          0.194759E-03
      0.310000          0.192686E-03
      0.315000          0.191136E-03
      0.320000          0.189938E-03
      0.325000          0.188917E-03
      0.330000          0.187907E-03
      0.335000          0.186755E-03
      0.340000          0.185336E-03
      0.345000          0.183550E-03
      0.350000          0.181338E-03
      0.355000          0.178671E-03
      0.360000          0.175558E-03
      0.365000          0.172040E-03
      0.370000          0.168181E-03
      0.375000          0.164063E-03
      0.380000          0.159777E-03
      0.385000          0.155419E-03
      0.390000          0.151076E-03
      0.395000          0.146827E-03
      0.400000          0.142737E-03
      0.405000          0.138852E-03
      0.410000          0.135202E-03
      0.415000          0.131802E-03
      0.420000          0.128653E-03
      0.425000          0.125743E-03
      0.430000          0.123057E-03
      0.435000          0.120571E-03
      0.440000          0.118263E-03
      0.445000          0.116108E-03
      0.450000          0.114086E-03
      0.455000          0.112179E-03
      0.460000          0.110372E-03
      0.465000          0.108654E-03
      0.470000          0.107017E-03
      0.475000          0.105453E-03
      0.480000          0.103960E-03
      0.485000          0.102534E-03
      0.490000          0.101173E-03
      0.495000          0.998734E-04
      0.500000          0.986345E-04
