 I_abs(s)[cm^-1]/c[mg/ml]
       0.00000          0.137592E-01
      0.500000E-02      0.136674E-01
      0.100000E-01      0.133962E-01
      0.150000E-01      0.129576E-01
      0.200000E-01      0.123705E-01
      0.250000E-01      0.116597E-01
      0.300000E-01      0.108543E-01
      0.350000E-01      0.998529E-02
      0.400000E-01      0.908424E-02
      0.450000E-01      0.818112E-02
      0.500000E-01      0.730276E-02
      0.550000E-01      0.647156E-02
      0.600000E-01      0.570466E-02
      0.650000E-01      0.501355E-02
      0.700000E-01      0.440405E-02
      0.750000E-01      0.387687E-02
      0.800000E-01      0.342829E-02
      0.850000E-01      0.305125E-02
      0.900000E-01      0.273641E-02
      0.950000E-01      0.247333E-02
      0.100000          0.225145E-02
      0.105000          0.206100E-02
      0.110000          0.189359E-02
      0.115000          0.174264E-02
      0.120000          0.160346E-02
      0.125000          0.147319E-02
      0.130000          0.135054E-02
      0.135000          0.123542E-02
      0.140000          0.112848E-02
      0.145000          0.103073E-02
      0.150000          0.943110E-03
      0.155000          0.866273E-03
      0.160000          0.800350E-03
      0.165000          0.744914E-03
      0.170000          0.699003E-03
      0.175000          0.661240E-03
      0.180000          0.629992E-03
      0.185000          0.603557E-03
      0.190000          0.580342E-03
      0.195000          0.559004E-03
      0.200000          0.538552E-03
      0.205000          0.518386E-03
      0.210000          0.498288E-03
      0.215000          0.478363E-03
      0.220000          0.458947E-03
      0.225000          0.440500E-03
      0.230000          0.423495E-03
      0.235000          0.408319E-03
      0.240000          0.395208E-03
      0.245000          0.384196E-03
      0.250000          0.375112E-03
      0.255000          0.367602E-03
      0.260000          0.361170E-03
      0.265000          0.355241E-03
      0.270000          0.349227E-03
      0.275000          0.342594E-03
      0.280000          0.334912E-03
      0.285000          0.325894E-03
      0.290000          0.315414E-03
      0.295000          0.303509E-03
      0.300000          0.290357E-03
      0.305000          0.276251E-03
      0.310000          0.261557E-03
      0.315000          0.246672E-03
      0.320000          0.231986E-03
      0.325000          0.217845E-03
      0.330000          0.204527E-03
      0.335000          0.192227E-03
      0.340000          0.181047E-03
      0.345000          0.171011E-03
      0.350000          0.162064E-03
      0.355000          0.154102E-03
      0.360000          0.146982E-03
      0.365000          0.140552E-03
      0.370000          0.134660E-03
      0.375000          0.129176E-03
      0.380000          0.124000E-03
      0.385000          0.119069E-03
      0.390000          0.114357E-03
      0.395000          0.109870E-03
      0.400000          0.105645E-03
      0.405000          0.101736E-03
      0.410000          0.982072E-04
      0.415000          0.951234E-04
      0.420000          0.925398E-04
      0.425000          0.904963E-04
      0.430000          0.890119E-04
      0.435000          0.880824E-04
      0.440000          0.876800E-04
      0.445000          0.877548E-04
      0.450000          0.882386E-04
      0.455000          0.890497E-04
      0.460000          0.900978E-04
      0.465000          0.912903E-04
      0.470000          0.925371E-04
      0.475000          0.937552E-04
      0.480000          0.948725E-04
      0.485000          0.958301E-04
      0.490000          0.965837E-04
      0.495000          0.971035E-04
      0.500000          0.973739E-04
