 I_abs(s)[cm^-1]/c[mg/ml]
       0.00000          0.139998E-01
      0.500000E-02      0.139345E-01
      0.100000E-01      0.137404E-01
      0.150000E-01      0.134232E-01
      0.200000E-01      0.129918E-01
      0.250000E-01      0.124583E-01
      0.300000E-01      0.118371E-01
      0.350000E-01      0.111448E-01
      0.400000E-01      0.103990E-01
      0.450000E-01      0.961780E-02
      0.500000E-01      0.881925E-02
      0.550000E-01      0.802045E-02
      0.600000E-01      0.723709E-02
      0.650000E-01      0.648296E-02
      0.700000E-01      0.576960E-02
      0.750000E-01      0.510604E-02
      0.800000E-01      0.449876E-02
      0.850000E-01      0.395166E-02
      0.900000E-01      0.346623E-02
      0.950000E-01      0.304179E-02
      0.100000          0.267584E-02
      0.105000          0.236434E-02
      0.110000          0.210220E-02
      0.115000          0.188359E-02
      0.120000          0.170235E-02
      0.125000          0.155233E-02
      0.130000          0.142767E-02
      0.135000          0.132296E-02
      0.140000          0.123351E-02
      0.145000          0.115533E-02
      0.150000          0.108524E-02
      0.155000          0.102080E-02
      0.160000          0.960306E-03
      0.165000          0.902645E-03
      0.170000          0.847217E-03
      0.175000          0.793808E-03
      0.180000          0.742474E-03
      0.185000          0.693436E-03
      0.190000          0.646982E-03
      0.195000          0.603400E-03
      0.200000          0.562918E-03
      0.205000          0.525674E-03
      0.210000          0.491702E-03
      0.215000          0.460924E-03
      0.220000          0.433174E-03
      0.225000          0.408206E-03
      0.230000          0.385728E-03
      0.235000          0.365421E-03
      0.240000          0.346967E-03
      0.245000          0.330068E-03
      0.250000          0.314459E-03
      0.255000          0.299922E-03
      0.260000          0.286284E-03
      0.265000          0.273424E-03
      0.270000          0.261260E-03
      0.275000          0.249748E-03
      0.280000          0.238869E-03
      0.285000          0.228622E-03
      0.290000          0.219012E-03
      0.295000          0.210047E-03
      0.300000          0.201725E-03
      0.305000          0.194037E-03
      0.310000          0.186960E-03
      0.315000          0.180459E-03
      0.320000          0.174491E-03
      0.325000          0.169001E-03
      0.330000          0.163932E-03
      0.335000          0.159224E-03
      0.340000          0.154821E-03
      0.345000          0.150671E-03
      0.350000          0.146728E-03
      0.355000          0.142959E-03
      0.360000          0.139335E-03
      0.365000          0.135843E-03
      0.370000          0.132472E-03
      0.375000          0.129223E-03
      0.380000          0.126101E-03
      0.385000          0.123114E-03
      0.390000          0.120272E-03
      0.395000          0.117584E-03
      0.400000          0.115058E-03
      0.405000          0.112698E-03
      0.410000          0.110503E-03
      0.415000          0.108470E-03
      0.420000          0.106588E-03
      0.425000          0.104844E-03
      0.430000          0.103222E-03
      0.435000          0.101701E-03
      0.440000          0.100260E-03
      0.445000          0.988789E-04
      0.450000          0.975371E-04
      0.455000          0.962168E-04
      0.460000          0.949035E-04
      0.465000          0.935864E-04
      0.470000          0.922589E-04
      0.475000          0.909191E-04
      0.480000          0.895691E-04
      0.485000          0.882151E-04
      0.490000          0.868664E-04
      0.495000          0.855347E-04
      0.500000          0.842331E-04
