 I_abs(s)[cm^-1]/c[mg/ml]
       0.00000          0.142032E-01
      0.500000E-02      0.141394E-01
      0.100000E-01      0.139500E-01
      0.150000E-01      0.136408E-01
      0.200000E-01      0.132211E-01
      0.250000E-01      0.127031E-01
      0.300000E-01      0.121017E-01
      0.350000E-01      0.114335E-01
      0.400000E-01      0.107160E-01
      0.450000E-01      0.996683E-02
      0.500000E-01      0.920328E-02
      0.550000E-01      0.844134E-02
      0.600000E-01      0.769528E-02
      0.650000E-01      0.697718E-02
      0.700000E-01      0.629674E-02
      0.750000E-01      0.566107E-02
      0.800000E-01      0.507482E-02
      0.850000E-01      0.454029E-02
      0.900000E-01      0.405768E-02
      0.950000E-01      0.362552E-02
      0.100000          0.324094E-02
      0.105000          0.290018E-02
      0.110000          0.259891E-02
      0.115000          0.233259E-02
      0.120000          0.209677E-02
      0.125000          0.188731E-02
      0.130000          0.170052E-02
      0.135000          0.153326E-02
      0.140000          0.138294E-02
      0.145000          0.124750E-02
      0.150000          0.112533E-02
      0.155000          0.101519E-02
      0.160000          0.916115E-03
      0.165000          0.827308E-03
      0.170000          0.748065E-03
      0.175000          0.677708E-03
      0.180000          0.615550E-03
      0.185000          0.560871E-03
      0.190000          0.512921E-03
      0.195000          0.470932E-03
      0.200000          0.434148E-03
      0.205000          0.401843E-03
      0.210000          0.373356E-03
      0.215000          0.348104E-03
      0.220000          0.325601E-03
      0.225000          0.305454E-03
      0.230000          0.287363E-03
      0.235000          0.271101E-03
      0.240000          0.256504E-03
      0.245000          0.243442E-03
      0.250000          0.231807E-03
      0.255000          0.221489E-03
      0.260000          0.212373E-03
      0.265000          0.204325E-03
      0.270000          0.197198E-03
      0.275000          0.190835E-03
      0.280000          0.185079E-03
      0.285000          0.179781E-03
      0.290000          0.174815E-03
      0.295000          0.170087E-03
      0.300000          0.165535E-03
      0.305000          0.161138E-03
      0.310000          0.156911E-03
      0.315000          0.152897E-03
      0.320000          0.149158E-03
      0.325000          0.145765E-03
      0.330000          0.142783E-03
      0.335000          0.140259E-03
      0.340000          0.138219E-03
      0.345000          0.136654E-03
      0.350000          0.135522E-03
      0.355000          0.134751E-03
      0.360000          0.134242E-03
      0.365000          0.133878E-03
      0.370000          0.133535E-03
      0.375000          0.133092E-03
      0.380000          0.132445E-03
      0.385000          0.131508E-03
      0.390000          0.130227E-03
      0.395000          0.128581E-03
      0.400000          0.126580E-03
      0.405000          0.124263E-03
      0.410000          0.121696E-03
      0.415000          0.118958E-03
      0.420000          0.116139E-03
      0.425000          0.113329E-03
      0.430000          0.110609E-03
      0.435000          0.108046E-03
      0.440000          0.105690E-03
      0.445000          0.103570E-03
      0.450000          0.101696E-03
      0.455000          0.100059E-03
      0.460000          0.986371E-04
      0.465000          0.973979E-04
      0.470000          0.963056E-04
      0.475000          0.953250E-04
      0.480000          0.944253E-04
      0.485000          0.935836E-04
      0.490000          0.927860E-04
      0.495000          0.920281E-04
      0.500000          0.913134E-04
