 I_abs(s)[cm^-1]/c[mg/ml]
       0.00000          0.147020E-01
      0.500000E-02      0.146182E-01
      0.100000E-01      0.143697E-01
      0.150000E-01      0.139659E-01
      0.200000E-01      0.134217E-01
      0.250000E-01      0.127567E-01
      0.300000E-01      0.119936E-01
      0.350000E-01      0.111575E-01
      0.400000E-01      0.102739E-01
      0.450000E-01      0.936778E-02
      0.500000E-01      0.846213E-02
      0.550000E-01      0.757724E-02
      0.600000E-01      0.672990E-02
      0.650000E-01      0.593316E-02
      0.700000E-01      0.519622E-02
      0.750000E-01      0.452465E-02
      0.800000E-01      0.392084E-02
      0.850000E-01      0.338448E-02
      0.900000E-01      0.291324E-02
      0.950000E-01      0.250330E-02
      0.100000          0.214997E-02
      0.105000          0.184810E-02
      0.110000          0.159249E-02
      0.115000          0.137805E-02
      0.120000          0.119999E-02
      0.125000          0.105384E-02
      0.130000          0.935451E-03
      0.135000          0.840940E-03
      0.140000          0.766660E-03
      0.145000          0.709162E-03
      0.150000          0.665180E-03
      0.155000          0.631658E-03
      0.160000          0.605784E-03
      0.165000          0.585047E-03
      0.170000          0.567292E-03
      0.175000          0.550772E-03
      0.180000          0.534169E-03
      0.185000          0.516604E-03
      0.190000          0.497610E-03
      0.195000          0.477082E-03
      0.200000          0.455207E-03
      0.205000          0.432380E-03
      0.210000          0.409118E-03
      0.215000          0.385980E-03
      0.220000          0.363497E-03
      0.225000          0.342117E-03
      0.230000          0.322176E-03
      0.235000          0.303883E-03
      0.240000          0.287321E-03
      0.245000          0.272471E-03
      0.250000          0.259226E-03
      0.255000          0.247431E-03
      0.260000          0.236900E-03
      0.265000          0.227447E-03
      0.270000          0.218901E-03
      0.275000          0.211116E-03
      0.280000          0.203975E-03
      0.285000          0.197392E-03
      0.290000          0.191303E-03
      0.295000          0.185665E-03
      0.300000          0.180444E-03
      0.305000          0.175616E-03
      0.310000          0.171159E-03
      0.315000          0.167053E-03
      0.320000          0.163283E-03
      0.325000          0.159836E-03
      0.330000          0.156707E-03
      0.335000          0.153897E-03
      0.340000          0.151415E-03
      0.345000          0.149274E-03
      0.350000          0.147487E-03
      0.355000          0.146065E-03
      0.360000          0.145006E-03
      0.365000          0.144291E-03
      0.370000          0.143884E-03
      0.375000          0.143722E-03
      0.380000          0.143721E-03
      0.385000          0.143779E-03
      0.390000          0.143782E-03
      0.395000          0.143614E-03
      0.400000          0.143166E-03
      0.405000          0.142352E-03
      0.410000          0.141112E-03
      0.415000          0.139423E-03
      0.420000          0.137303E-03
      0.425000          0.134806E-03
      0.430000          0.132021E-03
      0.435000          0.129059E-03
      0.440000          0.126044E-03
      0.445000          0.123098E-03
      0.450000          0.120328E-03
      0.455000          0.117817E-03
      0.460000          0.115613E-03
      0.465000          0.113725E-03
      0.470000          0.112131E-03
      0.475000          0.110775E-03
      0.480000          0.109578E-03
      0.485000          0.108454E-03
      0.490000          0.107315E-03
      0.495000          0.106086E-03
      0.500000          0.104714E-03
