 I_abs(s)[cm^-1]/c[mg/ml]
       0.00000          0.147500E-01
      0.500000E-02      0.147071E-01
      0.100000E-01      0.145791E-01
      0.150000E-01      0.143680E-01
      0.200000E-01      0.140772E-01
      0.250000E-01      0.137112E-01
      0.300000E-01      0.132757E-01
      0.350000E-01      0.127774E-01
      0.400000E-01      0.122239E-01
      0.450000E-01      0.116231E-01
      0.500000E-01      0.109839E-01
      0.550000E-01      0.103150E-01
      0.600000E-01      0.962549E-02
      0.650000E-01      0.892431E-02
      0.700000E-01      0.822009E-02
      0.750000E-01      0.752104E-02
      0.800000E-01      0.683482E-02
      0.850000E-01      0.616837E-02
      0.900000E-01      0.552784E-02
      0.950000E-01      0.491851E-02
      0.100000          0.434473E-02
      0.105000          0.380991E-02
      0.110000          0.331652E-02
      0.115000          0.286609E-02
      0.120000          0.245928E-02
      0.125000          0.209595E-02
      0.130000          0.177521E-02
      0.135000          0.149553E-02
      0.140000          0.125483E-02
      0.145000          0.105059E-02
      0.150000          0.879945E-03
      0.155000          0.739797E-03
      0.160000          0.626904E-03
      0.165000          0.537976E-03
      0.170000          0.469754E-03
      0.175000          0.419084E-03
      0.180000          0.382974E-03
      0.185000          0.358643E-03
      0.190000          0.343558E-03
      0.195000          0.335455E-03
      0.200000          0.332358E-03
      0.205000          0.332574E-03
      0.210000          0.334698E-03
      0.215000          0.337589E-03
      0.220000          0.340361E-03
      0.225000          0.342354E-03
      0.230000          0.343113E-03
      0.235000          0.342353E-03
      0.240000          0.339938E-03
      0.245000          0.335849E-03
      0.250000          0.330162E-03
      0.255000          0.323016E-03
      0.260000          0.314601E-03
      0.265000          0.305133E-03
      0.270000          0.294839E-03
      0.275000          0.283948E-03
      0.280000          0.272675E-03
      0.285000          0.261222E-03
      0.290000          0.249764E-03
      0.295000          0.238455E-03
      0.300000          0.227420E-03
      0.305000          0.216761E-03
      0.310000          0.206553E-03
      0.315000          0.196850E-03
      0.320000          0.187687E-03
      0.325000          0.179082E-03
      0.330000          0.171036E-03
      0.335000          0.163543E-03
      0.340000          0.156583E-03
      0.345000          0.150132E-03
      0.350000          0.144162E-03
      0.355000          0.138639E-03
      0.360000          0.133530E-03
      0.365000          0.128799E-03
      0.370000          0.124414E-03
      0.375000          0.120341E-03
      0.380000          0.116549E-03
      0.385000          0.113012E-03
      0.390000          0.109704E-03
      0.395000          0.106604E-03
      0.400000          0.103694E-03
      0.405000          0.100959E-03
      0.410000          0.983897E-04
      0.415000          0.959771E-04
      0.420000          0.937172E-04
      0.425000          0.916081E-04
      0.430000          0.896501E-04
      0.435000          0.878448E-04
      0.440000          0.861951E-04
      0.445000          0.847039E-04
      0.450000          0.833735E-04
      0.455000          0.822054E-04
      0.460000          0.811992E-04
      0.465000          0.803521E-04
      0.470000          0.796589E-04
      0.475000          0.791113E-04
      0.480000          0.786980E-04
      0.485000          0.784046E-04
      0.490000          0.782138E-04
      0.495000          0.781059E-04
      0.500000          0.780591E-04
