 I_abs(s)[cm^-1]/c[mg/ml]
       0.00000          0.144159E-01
      0.500000E-02      0.143634E-01
      0.100000E-01      0.142069E-01
      0.150000E-01      0.139496E-01
      0.200000E-01      0.135967E-01
      0.250000E-01      0.131551E-01
      0.300000E-01      0.126335E-01
      0.350000E-01      0.120420E-01
      0.400000E-01      0.113916E-01
      0.450000E-01      0.106943E-01
      0.500000E-01      0.996238E-02
      0.550000E-01      0.920839E-02
      0.600000E-01      0.844459E-02
      0.650000E-01      0.768275E-02
      0.700000E-01      0.693386E-02
      0.750000E-01      0.620789E-02
      0.800000E-01      0.551361E-02
      0.850000E-01      0.485841E-02
      0.900000E-01      0.424823E-02
      0.950000E-01      0.368753E-02
      0.100000          0.317926E-02
      0.105000          0.272491E-02
      0.110000          0.232463E-02
      0.115000          0.197735E-02
      0.120000          0.168091E-02
      0.125000          0.143225E-02
      0.130000          0.122759E-02
      0.135000          0.106263E-02
      0.140000          0.932729E-03
      0.145000          0.833084E-03
      0.150000          0.758889E-03
      0.155000          0.705489E-03
      0.160000          0.668493E-03
      0.165000          0.643876E-03
      0.170000          0.628049E-03
      0.175000          0.617906E-03
      0.180000          0.610846E-03
      0.185000          0.604777E-03
      0.190000          0.598097E-03
      0.195000          0.589661E-03
      0.200000          0.578736E-03
      0.205000          0.564950E-03
      0.210000          0.548228E-03
      0.215000          0.528737E-03
      0.220000          0.506823E-03
      0.225000          0.482955E-03
      0.230000          0.457675E-03
      0.235000          0.431551E-03
      0.240000          0.405143E-03
      0.245000          0.378971E-03
      0.250000          0.353495E-03
      0.255000          0.329098E-03
      0.260000          0.306083E-03
      0.265000          0.284667E-03
      0.270000          0.264987E-03
      0.275000          0.247104E-03
      0.280000          0.231014E-03
      0.285000          0.216660E-03
      0.290000          0.203942E-03
      0.295000          0.192728E-03
      0.300000          0.182869E-03
      0.305000          0.174204E-03
      0.310000          0.166573E-03
      0.315000          0.159821E-03
      0.320000          0.153804E-03
      0.325000          0.148395E-03
      0.330000          0.143482E-03
      0.335000          0.138974E-03
      0.340000          0.134797E-03
      0.345000          0.130895E-03
      0.350000          0.127227E-03
      0.355000          0.123767E-03
      0.360000          0.120500E-03
      0.365000          0.117418E-03
      0.370000          0.114522E-03
      0.375000          0.111816E-03
      0.380000          0.109307E-03
      0.385000          0.107003E-03
      0.390000          0.104908E-03
      0.395000          0.103026E-03
      0.400000          0.101359E-03
      0.405000          0.999019E-04
      0.410000          0.986479E-04
      0.415000          0.975853E-04
      0.420000          0.966986E-04
      0.425000          0.959685E-04
      0.430000          0.953729E-04
      0.435000          0.948874E-04
      0.440000          0.944863E-04
      0.445000          0.941431E-04
      0.450000          0.938321E-04
      0.455000          0.935286E-04
      0.460000          0.932103E-04
      0.465000          0.928578E-04
      0.470000          0.924557E-04
      0.475000          0.919922E-04
      0.480000          0.914606E-04
      0.485000          0.908583E-04
      0.490000          0.901876E-04
      0.495000          0.894548E-04
      0.500000          0.886703E-04
