 I_abs(s)[cm^-1]/c[mg/ml]
       0.00000          0.141953E-01
      0.500000E-02      0.141203E-01
      0.100000E-01      0.138976E-01
      0.150000E-01      0.135348E-01
      0.200000E-01      0.130436E-01
      0.250000E-01      0.124399E-01
      0.300000E-01      0.117424E-01
      0.350000E-01      0.109722E-01
      0.400000E-01      0.101513E-01
      0.450000E-01      0.930181E-02
      0.500000E-01      0.844516E-02
      0.550000E-01      0.760093E-02
      0.600000E-01      0.678632E-02
      0.650000E-01      0.601561E-02
      0.700000E-01      0.529986E-02
      0.750000E-01      0.464679E-02
      0.800000E-01      0.406084E-02
      0.850000E-01      0.354344E-02
      0.900000E-01      0.309339E-02
      0.950000E-01      0.270729E-02
      0.100000          0.238006E-02
      0.105000          0.210549E-02
      0.110000          0.187675E-02
      0.115000          0.168678E-02
      0.120000          0.152875E-02
      0.125000          0.139630E-02
      0.130000          0.128381E-02
      0.135000          0.118645E-02
      0.140000          0.110031E-02
      0.145000          0.102233E-02
      0.150000          0.950298E-03
      0.155000          0.882679E-03
      0.160000          0.818557E-03
      0.165000          0.757489E-03
      0.170000          0.699378E-03
      0.175000          0.644366E-03
      0.180000          0.592726E-03
      0.185000          0.544784E-03
      0.190000          0.500850E-03
      0.195000          0.461167E-03
      0.200000          0.425881E-03
      0.205000          0.395022E-03
      0.210000          0.368496E-03
      0.215000          0.346089E-03
      0.220000          0.327482E-03
      0.225000          0.312268E-03
      0.230000          0.299975E-03
      0.235000          0.290094E-03
      0.240000          0.282105E-03
      0.245000          0.275502E-03
      0.250000          0.269818E-03
      0.255000          0.264642E-03
      0.260000          0.259635E-03
      0.265000          0.254536E-03
      0.270000          0.249163E-03
      0.275000          0.243413E-03
      0.280000          0.237248E-03
      0.285000          0.230686E-03
      0.290000          0.223787E-03
      0.295000          0.216635E-03
      0.300000          0.209329E-03
      0.305000          0.201968E-03
      0.310000          0.194644E-03
      0.315000          0.187436E-03
      0.320000          0.180410E-03
      0.325000          0.173617E-03
      0.330000          0.167099E-03
      0.335000          0.160892E-03
      0.340000          0.155028E-03
      0.345000          0.149538E-03
      0.350000          0.144455E-03
      0.355000          0.139814E-03
      0.360000          0.135647E-03
      0.365000          0.131979E-03
      0.370000          0.128827E-03
      0.375000          0.126194E-03
      0.380000          0.124060E-03
      0.385000          0.122390E-03
      0.390000          0.121124E-03
      0.395000          0.120184E-03
      0.400000          0.119477E-03
      0.405000          0.118902E-03
      0.410000          0.118356E-03
      0.415000          0.117744E-03
      0.420000          0.116985E-03
      0.425000          0.116019E-03
      0.430000          0.114813E-03
      0.435000          0.113364E-03
      0.440000          0.111694E-03
      0.445000          0.109854E-03
      0.450000          0.107915E-03
      0.455000          0.105963E-03
      0.460000          0.104089E-03
      0.465000          0.102384E-03
      0.470000          0.100929E-03
      0.475000          0.997883E-04
      0.480000          0.990068E-04
      0.485000          0.986050E-04
      0.490000          0.985786E-04
      0.495000          0.989005E-04
      0.500000          0.995230E-04
