 I_abs(s)[cm^-1]/c[mg/ml]
       0.00000          0.149829E-01
      0.500000E-02      0.149118E-01
      0.100000E-01      0.147002E-01
      0.150000E-01      0.143541E-01
      0.200000E-01      0.138826E-01
      0.250000E-01      0.132984E-01
      0.300000E-01      0.126166E-01
      0.350000E-01      0.118545E-01
      0.400000E-01      0.110306E-01
      0.450000E-01      0.101644E-01
      0.500000E-01      0.927498E-02
      0.550000E-01      0.838103E-02
      0.600000E-01      0.749977E-02
      0.650000E-01      0.664664E-02
      0.700000E-01      0.583487E-02
      0.750000E-01      0.507518E-02
      0.800000E-01      0.437567E-02
      0.850000E-01      0.374179E-02
      0.900000E-01      0.317640E-02
      0.950000E-01      0.268002E-02
      0.100000          0.225107E-02
      0.105000          0.188623E-02
      0.110000          0.158079E-02
      0.115000          0.132907E-02
      0.120000          0.112477E-02
      0.125000          0.961353E-03
      0.130000          0.832330E-03
      0.135000          0.731523E-03
      0.140000          0.653271E-03
      0.145000          0.592560E-03
      0.150000          0.545105E-03
      0.155000          0.507372E-03
      0.160000          0.476559E-03
      0.165000          0.450536E-03
      0.170000          0.427765E-03
      0.175000          0.407201E-03
      0.180000          0.388184E-03
      0.185000          0.370347E-03
      0.190000          0.353516E-03
      0.195000          0.337635E-03
      0.200000          0.322706E-03
      0.205000          0.308745E-03
      0.210000          0.295751E-03
      0.215000          0.283699E-03
      0.220000          0.272535E-03
      0.225000          0.262184E-03
      0.230000          0.252565E-03
      0.235000          0.243598E-03
      0.240000          0.235224E-03
      0.245000          0.227410E-03
      0.250000          0.220156E-03
      0.255000          0.213492E-03
      0.260000          0.207480E-03
      0.265000          0.202196E-03
      0.270000          0.197728E-03
      0.275000          0.194157E-03
      0.280000          0.191548E-03
      0.285000          0.189934E-03
      0.290000          0.189312E-03
      0.295000          0.189634E-03
      0.300000          0.190807E-03
      0.305000          0.192696E-03
      0.310000          0.195125E-03
      0.315000          0.197892E-03
      0.320000          0.200776E-03
      0.325000          0.203549E-03
      0.330000          0.205993E-03
      0.335000          0.207907E-03
      0.340000          0.209121E-03
      0.345000          0.209503E-03
      0.350000          0.208966E-03
      0.355000          0.207470E-03
      0.360000          0.205024E-03
      0.365000          0.201679E-03
      0.370000          0.197529E-03
      0.375000          0.192700E-03
      0.380000          0.187342E-03
      0.385000          0.181619E-03
      0.390000          0.175704E-03
      0.395000          0.169761E-03
      0.400000          0.163949E-03
      0.405000          0.158402E-03
      0.410000          0.153233E-03
      0.415000          0.148529E-03
      0.420000          0.144344E-03
      0.425000          0.140705E-03
      0.430000          0.137612E-03
      0.435000          0.135038E-03
      0.440000          0.132937E-03
      0.445000          0.131249E-03
      0.450000          0.129900E-03
      0.455000          0.128812E-03
      0.460000          0.127908E-03
      0.465000          0.127115E-03
      0.470000          0.126365E-03
      0.475000          0.125603E-03
      0.480000          0.124786E-03
      0.485000          0.123884E-03
      0.490000          0.122880E-03
      0.495000          0.121768E-03
      0.500000          0.120554E-03
