 I_abs(s)[cm^-1]/c[mg/ml]
       0.00000          0.139297E-01
      0.500000E-02      0.138508E-01
      0.100000E-01      0.136170E-01
      0.150000E-01      0.132366E-01
      0.200000E-01      0.127231E-01
      0.250000E-01      0.120943E-01
      0.300000E-01      0.113713E-01
      0.350000E-01      0.105775E-01
      0.400000E-01      0.973729E-02
      0.450000E-01      0.887502E-02
      0.500000E-01      0.801364E-02
      0.550000E-01      0.717387E-02
      0.600000E-01      0.637340E-02
      0.650000E-01      0.562632E-02
      0.700000E-01      0.494285E-02
      0.750000E-01      0.432930E-02
      0.800000E-01      0.378824E-02
      0.850000E-01      0.331896E-02
      0.900000E-01      0.291792E-02
      0.950000E-01      0.257948E-02
      0.100000          0.229655E-02
      0.105000          0.206128E-02
      0.110000          0.186564E-02
      0.115000          0.170200E-02
      0.120000          0.156347E-02
      0.125000          0.144422E-02
      0.130000          0.133957E-02
      0.135000          0.124604E-02
      0.140000          0.116122E-02
      0.145000          0.108363E-02
      0.150000          0.101252E-02
      0.155000          0.947588E-03
      0.160000          0.888803E-03
      0.165000          0.836192E-03
      0.170000          0.789690E-03
      0.175000          0.749043E-03
      0.180000          0.713765E-03
      0.185000          0.683140E-03
      0.190000          0.656268E-03
      0.195000          0.632140E-03
      0.200000          0.609720E-03
      0.205000          0.588042E-03
      0.210000          0.566281E-03
      0.215000          0.543818E-03
      0.220000          0.520272E-03
      0.225000          0.495513E-03
      0.230000          0.469642E-03
      0.235000          0.442960E-03
      0.240000          0.415912E-03
      0.245000          0.389029E-03
      0.250000          0.362867E-03
      0.255000          0.337953E-03
      0.260000          0.314735E-03
      0.265000          0.293555E-03
      0.270000          0.274627E-03
      0.275000          0.258037E-03
      0.280000          0.243749E-03
      0.285000          0.231623E-03
      0.290000          0.221448E-03
      0.295000          0.212957E-03
      0.300000          0.205867E-03
      0.305000          0.199892E-03
      0.310000          0.194769E-03
      0.315000          0.190266E-03
      0.320000          0.186190E-03
      0.325000          0.182390E-03
      0.330000          0.178753E-03
      0.335000          0.175195E-03
      0.340000          0.171659E-03
      0.345000          0.168107E-03
      0.350000          0.164514E-03
      0.355000          0.160863E-03
      0.360000          0.157145E-03
      0.365000          0.153358E-03
      0.370000          0.149505E-03
      0.375000          0.145600E-03
      0.380000          0.141664E-03
      0.385000          0.137729E-03
      0.390000          0.133833E-03
      0.395000          0.130023E-03
      0.400000          0.126347E-03
      0.405000          0.122852E-03
      0.410000          0.119579E-03
      0.415000          0.116561E-03
      0.420000          0.113817E-03
      0.425000          0.111352E-03
      0.430000          0.109153E-03
      0.435000          0.107197E-03
      0.440000          0.105446E-03
      0.445000          0.103855E-03
      0.450000          0.102377E-03
      0.455000          0.100965E-03
      0.460000          0.995771E-04
      0.465000          0.981817E-04
      0.470000          0.967583E-04
      0.475000          0.952987E-04
      0.480000          0.938067E-04
      0.485000          0.922964E-04
      0.490000          0.907892E-04
      0.495000          0.893104E-04
      0.500000          0.878860E-04
