 I_abs(s)[cm^-1]/c[mg/ml]
       0.00000          0.144001E-01
      0.500000E-02      0.143175E-01
      0.100000E-01      0.140728E-01
      0.150000E-01      0.136753E-01
      0.200000E-01      0.131397E-01
      0.250000E-01      0.124854E-01
      0.300000E-01      0.117355E-01
      0.350000E-01      0.109152E-01
      0.400000E-01      0.100504E-01
      0.450000E-01      0.916674E-02
      0.500000E-01      0.828801E-02
      0.550000E-01      0.743523E-02
      0.600000E-01      0.662581E-02
      0.650000E-01      0.587311E-02
      0.700000E-01      0.518620E-02
      0.750000E-01      0.456994E-02
      0.800000E-01      0.402539E-02
      0.850000E-01      0.355032E-02
      0.900000E-01      0.313991E-02
      0.950000E-01      0.278755E-02
      0.100000          0.248559E-02
      0.105000          0.222607E-02
      0.110000          0.200134E-02
      0.115000          0.180452E-02
      0.120000          0.162983E-02
      0.125000          0.147273E-02
      0.130000          0.132997E-02
      0.135000          0.119943E-02
      0.140000          0.107995E-02
      0.145000          0.971086E-03
      0.150000          0.872811E-03
      0.155000          0.785275E-03
      0.160000          0.708581E-03
      0.165000          0.642631E-03
      0.170000          0.587023E-03
      0.175000          0.541028E-03
      0.180000          0.503608E-03
      0.185000          0.473493E-03
      0.190000          0.449282E-03
      0.195000          0.429545E-03
      0.200000          0.412941E-03
      0.205000          0.398300E-03
      0.210000          0.384689E-03
      0.215000          0.371444E-03
      0.220000          0.358174E-03
      0.225000          0.344732E-03
      0.230000          0.331174E-03
      0.235000          0.317691E-03
      0.240000          0.304553E-03
      0.245000          0.292044E-03
      0.250000          0.280413E-03
      0.255000          0.269836E-03
      0.260000          0.260394E-03
      0.265000          0.252071E-03
      0.270000          0.244759E-03
      0.275000          0.238282E-03
      0.280000          0.232420E-03
      0.285000          0.226936E-03
      0.290000          0.221603E-03
      0.295000          0.216230E-03
      0.300000          0.210671E-03
      0.305000          0.204838E-03
      0.310000          0.198702E-03
      0.315000          0.192284E-03
      0.320000          0.185650E-03
      0.325000          0.178895E-03
      0.330000          0.172134E-03
      0.335000          0.165485E-03
      0.340000          0.159064E-03
      0.345000          0.152971E-03
      0.350000          0.147290E-03
      0.355000          0.142086E-03
      0.360000          0.137402E-03
      0.365000          0.133262E-03
      0.370000          0.129673E-03
      0.375000          0.126626E-03
      0.380000          0.124097E-03
      0.385000          0.122055E-03
      0.390000          0.120452E-03
      0.395000          0.119237E-03
      0.400000          0.118346E-03
      0.405000          0.117712E-03
      0.410000          0.117262E-03
      0.415000          0.116921E-03
      0.420000          0.116619E-03
      0.425000          0.116286E-03
      0.430000          0.115864E-03
      0.435000          0.115307E-03
      0.440000          0.114583E-03
      0.445000          0.113675E-03
      0.450000          0.112584E-03
      0.455000          0.111329E-03
      0.460000          0.109940E-03
      0.465000          0.108459E-03
      0.470000          0.106936E-03
      0.475000          0.105421E-03
      0.480000          0.103966E-03
      0.485000          0.102613E-03
      0.490000          0.101399E-03
      0.495000          0.100344E-03
      0.500000          0.994590E-04
