 I_abs(s)[cm^-1]/c[mg/ml]
       0.00000          0.142739E-01
      0.500000E-02      0.142019E-01
      0.100000E-01      0.139885E-01
      0.150000E-01      0.136407E-01
      0.200000E-01      0.131699E-01
      0.250000E-01      0.125914E-01
      0.300000E-01      0.119233E-01
      0.350000E-01      0.111857E-01
      0.400000E-01      0.103999E-01
      0.450000E-01      0.958701E-02
      0.500000E-01      0.876748E-02
      0.550000E-01      0.795993E-02
      0.600000E-01      0.718059E-02
      0.650000E-01      0.644279E-02
      0.700000E-01      0.575666E-02
      0.750000E-01      0.512906E-02
      0.800000E-01      0.456364E-02
      0.850000E-01      0.406114E-02
      0.900000E-01      0.361978E-02
      0.950000E-01      0.323577E-02
      0.100000          0.290384E-02
      0.105000          0.261781E-02
      0.110000          0.237110E-02
      0.115000          0.215721E-02
      0.120000          0.197009E-02
      0.125000          0.180438E-02
      0.130000          0.165564E-02
      0.135000          0.152038E-02
      0.140000          0.139603E-02
      0.145000          0.128091E-02
      0.150000          0.117399E-02
      0.155000          0.107482E-02
      0.160000          0.983266E-03
      0.165000          0.899400E-03
      0.170000          0.823311E-03
      0.175000          0.755012E-03
      0.180000          0.694359E-03
      0.185000          0.641016E-03
      0.190000          0.594453E-03
      0.195000          0.553976E-03
      0.200000          0.518771E-03
      0.205000          0.487969E-03
      0.210000          0.460702E-03
      0.215000          0.436164E-03
      0.220000          0.413655E-03
      0.225000          0.392612E-03
      0.230000          0.372622E-03
      0.235000          0.353424E-03
      0.240000          0.334893E-03
      0.245000          0.317011E-03
      0.250000          0.299844E-03
      0.255000          0.283499E-03
      0.260000          0.268102E-03
      0.265000          0.253760E-03
      0.270000          0.240551E-03
      0.275000          0.228504E-03
      0.280000          0.217597E-03
      0.285000          0.207758E-03
      0.290000          0.198877E-03
      0.295000          0.190812E-03
      0.300000          0.183409E-03
      0.305000          0.176514E-03
      0.310000          0.169986E-03
      0.315000          0.163707E-03
      0.320000          0.157591E-03
      0.325000          0.151585E-03
      0.330000          0.145669E-03
      0.335000          0.139857E-03
      0.340000          0.134182E-03
      0.345000          0.128698E-03
      0.350000          0.123468E-03
      0.355000          0.118556E-03
      0.360000          0.114018E-03
      0.365000          0.109903E-03
      0.370000          0.106242E-03
      0.375000          0.103048E-03
      0.380000          0.100319E-03
      0.385000          0.980329E-04
      0.390000          0.961564E-04
      0.395000          0.946441E-04
      0.400000          0.934442E-04
      0.405000          0.925026E-04
      0.410000          0.917669E-04
      0.415000          0.911900E-04
      0.420000          0.907326E-04
      0.425000          0.903654E-04
      0.430000          0.900697E-04
      0.435000          0.898375E-04
      0.440000          0.896697E-04
      0.445000          0.895750E-04
      0.450000          0.895665E-04
      0.455000          0.896595E-04
      0.460000          0.898675E-04
      0.465000          0.902002E-04
      0.470000          0.906605E-04
      0.475000          0.912427E-04
      0.480000          0.919318E-04
      0.485000          0.927029E-04
      0.490000          0.935222E-04
      0.495000          0.943490E-04
      0.500000          0.951373E-04
