 I_abs(s)[cm^-1]/c[mg/ml]
       0.00000          0.146462E-01
      0.500000E-02      0.145982E-01
      0.100000E-01      0.144550E-01
      0.150000E-01      0.142193E-01
      0.200000E-01      0.138955E-01
      0.250000E-01      0.134895E-01
      0.300000E-01      0.130088E-01
      0.350000E-01      0.124618E-01
      0.400000E-01      0.118581E-01
      0.450000E-01      0.112079E-01
      0.500000E-01      0.105219E-01
      0.550000E-01      0.981085E-02
      0.600000E-01      0.908559E-02
      0.650000E-01      0.835645E-02
      0.700000E-01      0.763323E-02
      0.750000E-01      0.692493E-02
      0.800000E-01      0.623961E-02
      0.850000E-01      0.558423E-02
      0.900000E-01      0.496458E-02
      0.950000E-01      0.438525E-02
      0.100000          0.384957E-02
      0.105000          0.335967E-02
      0.110000          0.291656E-02
      0.115000          0.252015E-02
      0.120000          0.216946E-02
      0.125000          0.186267E-02
      0.130000          0.159730E-02
      0.135000          0.137034E-02
      0.140000          0.117843E-02
      0.145000          0.101796E-02
      0.150000          0.885217E-03
      0.155000          0.776530E-03
      0.160000          0.688332E-03
      0.165000          0.617265E-03
      0.170000          0.560244E-03
      0.175000          0.514498E-03
      0.180000          0.477599E-03
      0.185000          0.447478E-03
      0.190000          0.422414E-03
      0.195000          0.401023E-03
      0.200000          0.382230E-03
      0.205000          0.365237E-03
      0.210000          0.349483E-03
      0.215000          0.334604E-03
      0.220000          0.320397E-03
      0.225000          0.306776E-03
      0.230000          0.293738E-03
      0.235000          0.281334E-03
      0.240000          0.269641E-03
      0.245000          0.258739E-03
      0.250000          0.248699E-03
      0.255000          0.239570E-03
      0.260000          0.231372E-03
      0.265000          0.224095E-03
      0.270000          0.217698E-03
      0.275000          0.212115E-03
      0.280000          0.207256E-03
      0.285000          0.203016E-03
      0.290000          0.199278E-03
      0.295000          0.195923E-03
      0.300000          0.192832E-03
      0.305000          0.189894E-03
      0.310000          0.187008E-03
      0.315000          0.184085E-03
      0.320000          0.181051E-03
      0.325000          0.177852E-03
      0.330000          0.174444E-03
      0.335000          0.170804E-03
      0.340000          0.166921E-03
      0.345000          0.162799E-03
      0.350000          0.158452E-03
      0.355000          0.153905E-03
      0.360000          0.149191E-03
      0.365000          0.144351E-03
      0.370000          0.139430E-03
      0.375000          0.134475E-03
      0.380000          0.129538E-03
      0.385000          0.124671E-03
      0.390000          0.119925E-03
      0.395000          0.115350E-03
      0.400000          0.110995E-03
      0.405000          0.106904E-03
      0.410000          0.103118E-03
      0.415000          0.996705E-04
      0.420000          0.965915E-04
      0.425000          0.939027E-04
      0.430000          0.916189E-04
      0.435000          0.897465E-04
      0.440000          0.882838E-04
      0.445000          0.872210E-04
      0.450000          0.865395E-04
      0.455000          0.862132E-04
      0.460000          0.862086E-04
      0.465000          0.864858E-04
      0.470000          0.869993E-04
      0.475000          0.876996E-04
      0.480000          0.885343E-04
      0.485000          0.894497E-04
      0.490000          0.903922E-04
      0.495000          0.913101E-04
      0.500000          0.921547E-04
