 I_abs(s)[cm^-1]/c[mg/ml]
       0.00000          0.146542E-01
      0.500000E-02      0.145996E-01
      0.100000E-01      0.144369E-01
      0.150000E-01      0.141696E-01
      0.200000E-01      0.138031E-01
      0.250000E-01      0.133449E-01
      0.300000E-01      0.128042E-01
      0.350000E-01      0.121916E-01
      0.400000E-01      0.115190E-01
      0.450000E-01      0.107989E-01
      0.500000E-01      0.100443E-01
      0.550000E-01      0.926825E-02
      0.600000E-01      0.848346E-02
      0.650000E-01      0.770212E-02
      0.700000E-01      0.693549E-02
      0.750000E-01      0.619370E-02
      0.800000E-01      0.548557E-02
      0.850000E-01      0.481842E-02
      0.900000E-01      0.419807E-02
      0.950000E-01      0.362873E-02
      0.100000          0.311309E-02
      0.105000          0.265236E-02
      0.110000          0.224638E-02
      0.115000          0.189379E-02
      0.120000          0.159219E-02
      0.125000          0.133831E-02
      0.130000          0.112827E-02
      0.135000          0.957669E-03
      0.140000          0.821883E-03
      0.145000          0.716168E-03
      0.150000          0.635845E-03
      0.155000          0.576426E-03
      0.160000          0.533722E-03
      0.165000          0.503928E-03
      0.170000          0.483677E-03
      0.175000          0.470075E-03
      0.180000          0.460710E-03
      0.185000          0.453641E-03
      0.190000          0.447377E-03
      0.195000          0.440837E-03
      0.200000          0.433300E-03
      0.205000          0.424359E-03
      0.210000          0.413861E-03
      0.215000          0.401850E-03
      0.220000          0.388523E-03
      0.225000          0.374171E-03
      0.230000          0.359145E-03
      0.235000          0.343815E-03
      0.240000          0.328544E-03
      0.245000          0.313661E-03
      0.250000          0.299450E-03
      0.255000          0.286135E-03
      0.260000          0.273880E-03
      0.265000          0.262785E-03
      0.270000          0.252890E-03
      0.275000          0.244183E-03
      0.280000          0.236605E-03
      0.285000          0.230058E-03
      0.290000          0.224418E-03
      0.295000          0.219541E-03
      0.300000          0.215273E-03
      0.305000          0.211458E-03
      0.310000          0.207945E-03
      0.315000          0.204593E-03
      0.320000          0.201276E-03
      0.325000          0.197888E-03
      0.330000          0.194341E-03
      0.335000          0.190570E-03
      0.340000          0.186534E-03
      0.345000          0.182210E-03
      0.350000          0.177597E-03
      0.355000          0.172711E-03
      0.360000          0.167583E-03
      0.365000          0.162257E-03
      0.370000          0.156787E-03
      0.375000          0.151233E-03
      0.380000          0.145658E-03
      0.385000          0.140129E-03
      0.390000          0.134707E-03
      0.395000          0.129451E-03
      0.400000          0.124415E-03
      0.405000          0.119643E-03
      0.410000          0.115172E-03
      0.415000          0.111029E-03
      0.420000          0.107231E-03
      0.425000          0.103786E-03
      0.430000          0.100693E-03
      0.435000          0.979400E-04
      0.440000          0.955112E-04
      0.445000          0.933825E-04
      0.450000          0.915256E-04
      0.455000          0.899091E-04
      0.460000          0.884999E-04
      0.465000          0.872647E-04
      0.470000          0.861716E-04
      0.475000          0.851909E-04
      0.480000          0.842965E-04
      0.485000          0.834663E-04
      0.490000          0.826832E-04
      0.495000          0.819350E-04
      0.500000          0.812143E-04
