 I_abs(s)[cm^-1]/c[mg/ml]
       0.00000          0.146621E-01
      0.500000E-02      0.146103E-01
      0.100000E-01      0.144557E-01
      0.150000E-01      0.142015E-01
      0.200000E-01      0.138530E-01
      0.250000E-01      0.134169E-01
      0.300000E-01      0.129019E-01
      0.350000E-01      0.123178E-01
      0.400000E-01      0.116756E-01
      0.450000E-01      0.109870E-01
      0.500000E-01      0.102640E-01
      0.550000E-01      0.951869E-02
      0.600000E-01      0.876292E-02
      0.650000E-01      0.800801E-02
      0.700000E-01      0.726442E-02
      0.750000E-01      0.654163E-02
      0.800000E-01      0.584789E-02
      0.850000E-01      0.519014E-02
      0.900000E-01      0.457394E-02
      0.950000E-01      0.400341E-02
      0.100000          0.348133E-02
      0.105000          0.300913E-02
      0.110000          0.258703E-02
      0.115000          0.221419E-02
      0.120000          0.188880E-02
      0.125000          0.160830E-02
      0.130000          0.136952E-02
      0.135000          0.116885E-02
      0.140000          0.100240E-02
      0.145000          0.866160E-03
      0.150000          0.756113E-03
      0.155000          0.668356E-03
      0.160000          0.599191E-03
      0.165000          0.545197E-03
      0.170000          0.503280E-03
      0.175000          0.470707E-03
      0.180000          0.445119E-03
      0.185000          0.424534E-03
      0.190000          0.407331E-03
      0.195000          0.392228E-03
      0.200000          0.378257E-03
      0.205000          0.364722E-03
      0.210000          0.351166E-03
      0.215000          0.337334E-03
      0.220000          0.323127E-03
      0.225000          0.308575E-03
      0.230000          0.293799E-03
      0.235000          0.278978E-03
      0.240000          0.264332E-03
      0.245000          0.250088E-03
      0.250000          0.236471E-03
      0.255000          0.223687E-03
      0.260000          0.211911E-03
      0.265000          0.201280E-03
      0.270000          0.191892E-03
      0.275000          0.183800E-03
      0.280000          0.177016E-03
      0.285000          0.171513E-03
      0.290000          0.167227E-03
      0.295000          0.164066E-03
      0.300000          0.161911E-03
      0.305000          0.160627E-03
      0.310000          0.160067E-03
      0.315000          0.160076E-03
      0.320000          0.160502E-03
      0.325000          0.161197E-03
      0.330000          0.162023E-03
      0.335000          0.162854E-03
      0.340000          0.163582E-03
      0.345000          0.164118E-03
      0.350000          0.164387E-03
      0.355000          0.164339E-03
      0.360000          0.163939E-03
      0.365000          0.163171E-03
      0.370000          0.162033E-03
      0.375000          0.160539E-03
      0.380000          0.158710E-03
      0.385000          0.156581E-03
      0.390000          0.154189E-03
      0.395000          0.151577E-03
      0.400000          0.148787E-03
      0.405000          0.145864E-03
      0.410000          0.142847E-03
      0.415000          0.139775E-03
      0.420000          0.136680E-03
      0.425000          0.133591E-03
      0.430000          0.130530E-03
      0.435000          0.127515E-03
      0.440000          0.124559E-03
      0.445000          0.121670E-03
      0.450000          0.118854E-03
      0.455000          0.116114E-03
      0.460000          0.113450E-03
      0.465000          0.110861E-03
      0.470000          0.108349E-03
      0.475000          0.105913E-03
      0.480000          0.103555E-03
      0.485000          0.101277E-03
      0.490000          0.990858E-04
      0.495000          0.969868E-04
      0.500000          0.949885E-04
