 I_abs(s)[cm^-1]/c[mg/ml]
       0.00000          0.145904E-01
      0.500000E-02      0.145342E-01
      0.100000E-01      0.143668E-01
      0.150000E-01      0.140921E-01
      0.200000E-01      0.137166E-01
      0.250000E-01      0.132489E-01
      0.300000E-01      0.126996E-01
      0.350000E-01      0.120806E-01
      0.400000E-01      0.114052E-01
      0.450000E-01      0.106873E-01
      0.500000E-01      0.994098E-02
      0.550000E-01      0.917999E-02
      0.600000E-01      0.841755E-02
      0.650000E-01      0.766585E-02
      0.700000E-01      0.693578E-02
      0.750000E-01      0.623665E-02
      0.800000E-01      0.557612E-02
      0.850000E-01      0.496004E-02
      0.900000E-01      0.439247E-02
      0.950000E-01      0.387577E-02
      0.100000          0.341071E-02
      0.105000          0.299661E-02
      0.110000          0.263159E-02
      0.115000          0.231280E-02
      0.120000          0.203665E-02
      0.125000          0.179905E-02
      0.130000          0.159565E-02
      0.135000          0.142204E-02
      0.140000          0.127391E-02
      0.145000          0.114724E-02
      0.150000          0.103834E-02
      0.155000          0.943971E-03
      0.160000          0.861364E-03
      0.165000          0.788225E-03
      0.170000          0.722715E-03
      0.175000          0.663416E-03
      0.180000          0.609274E-03
      0.185000          0.559540E-03
      0.190000          0.513705E-03
      0.195000          0.471438E-03
      0.200000          0.432531E-03
      0.205000          0.396848E-03
      0.210000          0.364288E-03
      0.215000          0.334755E-03
      0.220000          0.308140E-03
      0.225000          0.284310E-03
      0.230000          0.263106E-03
      0.235000          0.244346E-03
      0.240000          0.227830E-03
      0.245000          0.213352E-03
      0.250000          0.200706E-03
      0.255000          0.189697E-03
      0.260000          0.180144E-03
      0.265000          0.171887E-03
      0.270000          0.164789E-03
      0.275000          0.158731E-03
      0.280000          0.153614E-03
      0.285000          0.149353E-03
      0.290000          0.145873E-03
      0.295000          0.143104E-03
      0.300000          0.140975E-03
      0.305000          0.139414E-03
      0.310000          0.138344E-03
      0.315000          0.137683E-03
      0.320000          0.137346E-03
      0.325000          0.137243E-03
      0.330000          0.137288E-03
      0.335000          0.137397E-03
      0.340000          0.137493E-03
      0.345000          0.137512E-03
      0.350000          0.137401E-03
      0.355000          0.137125E-03
      0.360000          0.136661E-03
      0.365000          0.136004E-03
      0.370000          0.135162E-03
      0.375000          0.134156E-03
      0.380000          0.133014E-03
      0.385000          0.131770E-03
      0.390000          0.130459E-03
      0.395000          0.129116E-03
      0.400000          0.127769E-03
      0.405000          0.126442E-03
      0.410000          0.125150E-03
      0.415000          0.123897E-03
      0.420000          0.122680E-03
      0.425000          0.121490E-03
      0.430000          0.120308E-03
      0.435000          0.119114E-03
      0.440000          0.117887E-03
      0.445000          0.116606E-03
      0.450000          0.115254E-03
      0.455000          0.113820E-03
      0.460000          0.112299E-03
      0.465000          0.110695E-03
      0.470000          0.109020E-03
      0.475000          0.107293E-03
      0.480000          0.105540E-03
      0.485000          0.103793E-03
      0.490000          0.102084E-03
      0.495000          0.100446E-03
      0.500000          0.989108E-04
