 I_abs(s)[cm^-1]/c[mg/ml]
       0.00000          0.140856E-01
      0.500000E-02      0.140164E-01
      0.100000E-01      0.138105E-01
      0.150000E-01      0.134741E-01
      0.200000E-01      0.130166E-01
      0.250000E-01      0.124511E-01
      0.300000E-01      0.117930E-01
      0.350000E-01      0.110599E-01
      0.400000E-01      0.102704E-01
      0.450000E-01      0.944388E-02
      0.500000E-01      0.859928E-02
      0.550000E-01      0.775460E-02
      0.600000E-01      0.692633E-02
      0.650000E-01      0.612888E-02
      0.700000E-01      0.537427E-02
      0.750000E-01      0.467193E-02
      0.800000E-01      0.402861E-02
      0.850000E-01      0.344845E-02
      0.900000E-01      0.293316E-02
      0.950000E-01      0.248232E-02
      0.100000          0.209365E-02
      0.105000          0.176347E-02
      0.110000          0.148703E-02
      0.115000          0.125894E-02
      0.120000          0.107350E-02
      0.125000          0.924985E-03
      0.130000          0.807909E-03
      0.135000          0.717199E-03
      0.140000          0.648311E-03
      0.145000          0.597281E-03
      0.150000          0.560732E-03
      0.155000          0.535842E-03
      0.160000          0.520277E-03
      0.165000          0.512110E-03
      0.170000          0.509740E-03
      0.175000          0.511810E-03
      0.180000          0.517131E-03
      0.185000          0.524636E-03
      0.190000          0.533339E-03
      0.195000          0.542319E-03
      0.200000          0.550715E-03
      0.205000          0.557740E-03
      0.210000          0.562697E-03
      0.215000          0.565003E-03
      0.220000          0.564208E-03
      0.225000          0.560016E-03
      0.230000          0.552295E-03
      0.235000          0.541078E-03
      0.240000          0.526554E-03
      0.245000          0.509056E-03
      0.250000          0.489033E-03
      0.255000          0.467027E-03
      0.260000          0.443632E-03
      0.265000          0.419468E-03
      0.270000          0.395145E-03
      0.275000          0.371237E-03
      0.280000          0.348256E-03
      0.285000          0.326634E-03
      0.290000          0.306716E-03
      0.295000          0.288746E-03
      0.300000          0.272877E-03
      0.305000          0.259170E-03
      0.310000          0.247605E-03
      0.315000          0.238093E-03
      0.320000          0.230489E-03
      0.325000          0.224607E-03
      0.330000          0.220232E-03
      0.335000          0.217133E-03
      0.340000          0.215076E-03
      0.345000          0.213829E-03
      0.350000          0.213170E-03
      0.355000          0.212897E-03
      0.360000          0.212823E-03
      0.365000          0.212787E-03
      0.370000          0.212647E-03
      0.375000          0.212286E-03
      0.380000          0.211608E-03
      0.385000          0.210537E-03
      0.390000          0.209019E-03
      0.395000          0.207017E-03
      0.400000          0.204513E-03
      0.405000          0.201503E-03
      0.410000          0.197999E-03
      0.415000          0.194029E-03
      0.420000          0.189629E-03
      0.425000          0.184850E-03
      0.430000          0.179749E-03
      0.435000          0.174392E-03
      0.440000          0.168851E-03
      0.445000          0.163199E-03
      0.450000          0.157512E-03
      0.455000          0.151864E-03
      0.460000          0.146326E-03
      0.465000          0.140965E-03
      0.470000          0.135839E-03
      0.475000          0.130999E-03
      0.480000          0.126485E-03
      0.485000          0.122326E-03
      0.490000          0.118543E-03
      0.495000          0.115143E-03
      0.500000          0.112124E-03
