 I_abs(s)[cm^-1]/c[mg/ml]
       0.00000          0.144793E-01
      0.500000E-02      0.144273E-01
      0.100000E-01      0.142726E-01
      0.150000E-01      0.140184E-01
      0.200000E-01      0.136697E-01
      0.250000E-01      0.132337E-01
      0.300000E-01      0.127189E-01
      0.350000E-01      0.121355E-01
      0.400000E-01      0.114944E-01
      0.450000E-01      0.108075E-01
      0.500000E-01      0.100869E-01
      0.550000E-01      0.934482E-02
      0.600000E-01      0.859320E-02
      0.650000E-01      0.784341E-02
      0.700000E-01      0.710598E-02
      0.750000E-01      0.639036E-02
      0.800000E-01      0.570480E-02
      0.850000E-01      0.505617E-02
      0.900000E-01      0.444994E-02
      0.950000E-01      0.389013E-02
      0.100000          0.337937E-02
      0.105000          0.291892E-02
      0.110000          0.250886E-02
      0.115000          0.214816E-02
      0.120000          0.183485E-02
      0.125000          0.156623E-02
      0.130000          0.133897E-02
      0.135000          0.114938E-02
      0.140000          0.993479E-03
      0.145000          0.867206E-03
      0.150000          0.766525E-03
      0.155000          0.687542E-03
      0.160000          0.626592E-03
      0.165000          0.580307E-03
      0.170000          0.545661E-03
      0.175000          0.519993E-03
      0.180000          0.501016E-03
      0.185000          0.486809E-03
      0.190000          0.475802E-03
      0.195000          0.466741E-03
      0.200000          0.458664E-03
      0.205000          0.450856E-03
      0.210000          0.442816E-03
      0.215000          0.434218E-03
      0.220000          0.424878E-03
      0.225000          0.414721E-03
      0.230000          0.403757E-03
      0.235000          0.392051E-03
      0.240000          0.379713E-03
      0.245000          0.366874E-03
      0.250000          0.353678E-03
      0.255000          0.340274E-03
      0.260000          0.326806E-03
      0.265000          0.313409E-03
      0.270000          0.300208E-03
      0.275000          0.287314E-03
      0.280000          0.274821E-03
      0.285000          0.262808E-03
      0.290000          0.251338E-03
      0.295000          0.240455E-03
      0.300000          0.230189E-03
      0.305000          0.220552E-03
      0.310000          0.211545E-03
      0.315000          0.203153E-03
      0.320000          0.195349E-03
      0.325000          0.188099E-03
      0.330000          0.181360E-03
      0.335000          0.175084E-03
      0.340000          0.169219E-03
      0.345000          0.163715E-03
      0.350000          0.158521E-03
      0.355000          0.153590E-03
      0.360000          0.148879E-03
      0.365000          0.144353E-03
      0.370000          0.139982E-03
      0.375000          0.135743E-03
      0.380000          0.131621E-03
      0.385000          0.127607E-03
      0.390000          0.123698E-03
      0.395000          0.119896E-03
      0.400000          0.116209E-03
      0.405000          0.112645E-03
      0.410000          0.109218E-03
      0.415000          0.105941E-03
      0.420000          0.102827E-03
      0.425000          0.998881E-04
      0.430000          0.971372E-04
      0.435000          0.945839E-04
      0.440000          0.922359E-04
      0.445000          0.900987E-04
      0.450000          0.881753E-04
      0.455000          0.864660E-04
      0.460000          0.849687E-04
      0.465000          0.836783E-04
      0.470000          0.825874E-04
      0.475000          0.816863E-04
      0.480000          0.809624E-04
      0.485000          0.804014E-04
      0.490000          0.799862E-04
      0.495000          0.796984E-04
      0.500000          0.795173E-04
