 I_abs(s)[cm^-1]/c[mg/ml]
       0.00000          0.138831E-01
      0.500000E-02      0.138064E-01
      0.100000E-01      0.135793E-01
      0.150000E-01      0.132106E-01
      0.200000E-01      0.127142E-01
      0.250000E-01      0.121084E-01
      0.300000E-01      0.114148E-01
      0.350000E-01      0.106571E-01
      0.400000E-01      0.985936E-02
      0.450000E-01      0.904535E-02
      0.500000E-01      0.823685E-02
      0.550000E-01      0.745292E-02
      0.600000E-01      0.670912E-02
      0.650000E-01      0.601710E-02
      0.700000E-01      0.538446E-02
      0.750000E-01      0.481492E-02
      0.800000E-01      0.430869E-02
      0.850000E-01      0.386309E-02
      0.900000E-01      0.347321E-02
      0.950000E-01      0.313267E-02
      0.100000          0.283439E-02
      0.105000          0.257122E-02
      0.110000          0.233652E-02
      0.115000          0.212451E-02
      0.120000          0.193057E-02
      0.125000          0.175128E-02
      0.130000          0.158442E-02
      0.135000          0.142878E-02
      0.140000          0.128393E-02
      0.145000          0.114999E-02
      0.150000          0.102734E-02
      0.155000          0.916382E-03
      0.160000          0.817362E-03
      0.165000          0.730245E-03
      0.170000          0.654652E-03
      0.175000          0.589859E-03
      0.180000          0.534853E-03
      0.185000          0.488419E-03
      0.190000          0.449243E-03
      0.195000          0.416020E-03
      0.200000          0.387550E-03
      0.205000          0.362809E-03
      0.210000          0.340992E-03
      0.215000          0.321524E-03
      0.220000          0.304049E-03
      0.225000          0.288388E-03
      0.230000          0.274493E-03
      0.235000          0.262384E-03
      0.240000          0.252100E-03
      0.245000          0.243649E-03
      0.250000          0.236979E-03
      0.255000          0.231958E-03
      0.260000          0.228373E-03
      0.265000          0.225944E-03
      0.270000          0.224344E-03
      0.275000          0.223228E-03
      0.280000          0.222260E-03
      0.285000          0.221141E-03
      0.290000          0.219628E-03
      0.295000          0.217548E-03
      0.300000          0.214802E-03
      0.305000          0.211364E-03
      0.310000          0.207271E-03
      0.315000          0.202613E-03
      0.320000          0.197510E-03
      0.325000          0.192107E-03
      0.330000          0.186549E-03
      0.335000          0.180979E-03
      0.340000          0.175521E-03
      0.345000          0.170280E-03
      0.350000          0.165337E-03
      0.355000          0.160748E-03
      0.360000          0.156544E-03
      0.365000          0.152738E-03
      0.370000          0.149319E-03
      0.375000          0.146260E-03
      0.380000          0.143519E-03
      0.385000          0.141040E-03
      0.390000          0.138757E-03
      0.395000          0.136598E-03
      0.400000          0.134488E-03
      0.405000          0.132353E-03
      0.410000          0.130129E-03
      0.415000          0.127765E-03
      0.420000          0.125225E-03
      0.425000          0.122498E-03
      0.430000          0.119596E-03
      0.435000          0.116555E-03
      0.440000          0.113433E-03
      0.445000          0.110305E-03
      0.450000          0.107259E-03
      0.455000          0.104384E-03
      0.460000          0.101765E-03
      0.465000          0.994729E-04
      0.470000          0.975583E-04
      0.475000          0.960457E-04
      0.480000          0.949306E-04
      0.485000          0.941800E-04
      0.490000          0.937355E-04
      0.495000          0.935179E-04
      0.500000          0.934357E-04
