 I_abs(s)[cm^-1]/c[mg/ml]
       0.00000          0.143606E-01
      0.500000E-02      0.142941E-01
      0.100000E-01      0.140964E-01
      0.150000E-01      0.137733E-01
      0.200000E-01      0.133338E-01
      0.250000E-01      0.127901E-01
      0.300000E-01      0.121569E-01
      0.350000E-01      0.114508E-01
      0.400000E-01      0.106895E-01
      0.450000E-01      0.989126E-02
      0.500000E-01      0.907392E-02
      0.550000E-01      0.825452E-02
      0.600000E-01      0.744860E-02
      0.650000E-01      0.666977E-02
      0.700000E-01      0.592940E-02
      0.750000E-01      0.523642E-02
      0.800000E-01      0.459724E-02
      0.850000E-01      0.401586E-02
      0.900000E-01      0.349402E-02
      0.950000E-01      0.303142E-02
      0.100000          0.262610E-02
      0.105000          0.227476E-02
      0.110000          0.197311E-02
      0.115000          0.171627E-02
      0.120000          0.149902E-02
      0.125000          0.131617E-02
      0.130000          0.116272E-02
      0.135000          0.103406E-02
      0.140000          0.926049E-03
      0.145000          0.835140E-03
      0.150000          0.758331E-03
      0.155000          0.693174E-03
      0.160000          0.637711E-03
      0.165000          0.590411E-03
      0.170000          0.550086E-03
      0.175000          0.515819E-03
      0.180000          0.486882E-03
      0.185000          0.462675E-03
      0.190000          0.442675E-03
      0.195000          0.426394E-03
      0.200000          0.413356E-03
      0.205000          0.403083E-03
      0.210000          0.395089E-03
      0.215000          0.388887E-03
      0.220000          0.383998E-03
      0.225000          0.379961E-03
      0.230000          0.376348E-03
      0.235000          0.372778E-03
      0.240000          0.368924E-03
      0.245000          0.364523E-03
      0.250000          0.359382E-03
      0.255000          0.353378E-03
      0.260000          0.346454E-03
      0.265000          0.338617E-03
      0.270000          0.329930E-03
      0.275000          0.320502E-03
      0.280000          0.310477E-03
      0.285000          0.300021E-03
      0.290000          0.289315E-03
      0.295000          0.278540E-03
      0.300000          0.267867E-03
      0.305000          0.257452E-03
      0.310000          0.247426E-03
      0.315000          0.237893E-03
      0.320000          0.228924E-03
      0.325000          0.220563E-03
      0.330000          0.212825E-03
      0.335000          0.205697E-03
      0.340000          0.199149E-03
      0.345000          0.193132E-03
      0.350000          0.187590E-03
      0.355000          0.182459E-03
      0.360000          0.177678E-03
      0.365000          0.173187E-03
      0.370000          0.168934E-03
      0.375000          0.164876E-03
      0.380000          0.160977E-03
      0.385000          0.157212E-03
      0.390000          0.153564E-03
      0.395000          0.150022E-03
      0.400000          0.146580E-03
      0.405000          0.143238E-03
      0.410000          0.139995E-03
      0.415000          0.136855E-03
      0.420000          0.133818E-03
      0.425000          0.130887E-03
      0.430000          0.128063E-03
      0.435000          0.125349E-03
      0.440000          0.122745E-03
      0.445000          0.120254E-03
      0.450000          0.117879E-03
      0.455000          0.115625E-03
      0.460000          0.113498E-03
      0.465000          0.111506E-03
      0.470000          0.109655E-03
      0.475000          0.107956E-03
      0.480000          0.106416E-03
      0.485000          0.105041E-03
      0.490000          0.103839E-03
      0.495000          0.102810E-03
      0.500000          0.101955E-03
