 I_abs(s)[cm^-1]/c[mg/ml]
       0.00000          0.148542E-01
      0.500000E-02      0.148146E-01
      0.100000E-01      0.146965E-01
      0.150000E-01      0.145015E-01
      0.200000E-01      0.142328E-01
      0.250000E-01      0.138942E-01
      0.300000E-01      0.134909E-01
      0.350000E-01      0.130288E-01
      0.400000E-01      0.125143E-01
      0.450000E-01      0.119549E-01
      0.500000E-01      0.113580E-01
      0.550000E-01      0.107316E-01
      0.600000E-01      0.100837E-01
      0.650000E-01      0.942222E-02
      0.700000E-01      0.875483E-02
      0.750000E-01      0.808889E-02
      0.800000E-01      0.743128E-02
      0.850000E-01      0.678828E-02
      0.900000E-01      0.616548E-02
      0.950000E-01      0.556775E-02
      0.100000          0.499917E-02
      0.105000          0.446302E-02
      0.110000          0.396178E-02
      0.115000          0.349715E-02
      0.120000          0.307008E-02
      0.125000          0.268083E-02
      0.130000          0.232904E-02
      0.135000          0.201377E-02
      0.140000          0.173364E-02
      0.145000          0.148684E-02
      0.150000          0.127130E-02
      0.155000          0.108469E-02
      0.160000          0.924544E-03
      0.165000          0.788324E-03
      0.170000          0.673483E-03
      0.175000          0.577524E-03
      0.180000          0.498046E-03
      0.185000          0.432781E-03
      0.190000          0.379626E-03
      0.195000          0.336662E-03
      0.200000          0.302166E-03
      0.205000          0.274615E-03
      0.210000          0.252686E-03
      0.215000          0.235246E-03
      0.220000          0.221343E-03
      0.225000          0.210190E-03
      0.230000          0.201149E-03
      0.235000          0.193712E-03
      0.240000          0.187485E-03
      0.245000          0.182167E-03
      0.250000          0.177535E-03
      0.255000          0.173430E-03
      0.260000          0.169739E-03
      0.265000          0.166385E-03
      0.270000          0.163317E-03
      0.275000          0.160501E-03
      0.280000          0.157916E-03
      0.285000          0.155542E-03
      0.290000          0.153365E-03
      0.295000          0.151368E-03
      0.300000          0.149533E-03
      0.305000          0.147840E-03
      0.310000          0.146266E-03
      0.315000          0.144785E-03
      0.320000          0.143371E-03
      0.325000          0.141996E-03
      0.330000          0.140633E-03
      0.335000          0.139255E-03
      0.340000          0.137840E-03
      0.345000          0.136364E-03
      0.350000          0.134810E-03
      0.355000          0.133162E-03
      0.360000          0.131410E-03
      0.365000          0.129546E-03
      0.370000          0.127567E-03
      0.375000          0.125475E-03
      0.380000          0.123274E-03
      0.385000          0.120974E-03
      0.390000          0.118586E-03
      0.395000          0.116125E-03
      0.400000          0.113609E-03
      0.405000          0.111057E-03
      0.410000          0.108490E-03
      0.415000          0.105930E-03
      0.420000          0.103397E-03
      0.425000          0.100914E-03
      0.430000          0.985016E-04
      0.435000          0.961782E-04
      0.440000          0.939612E-04
      0.445000          0.918655E-04
      0.450000          0.899032E-04
      0.455000          0.880837E-04
      0.460000          0.864132E-04
      0.465000          0.848948E-04
      0.470000          0.835285E-04
      0.475000          0.823115E-04
      0.480000          0.812380E-04
      0.485000          0.803000E-04
      0.490000          0.794871E-04
      0.495000          0.787876E-04
      0.500000          0.781880E-04
