 I_abs(s)[cm^-1]/c[mg/ml]
       0.00000          0.146462E-01
      0.500000E-02      0.145834E-01
      0.100000E-01      0.143965E-01
      0.150000E-01      0.140905E-01
      0.200000E-01      0.136732E-01
      0.250000E-01      0.131552E-01
      0.300000E-01      0.125493E-01
      0.350000E-01      0.118703E-01
      0.400000E-01      0.111339E-01
      0.450000E-01      0.103567E-01
      0.500000E-01      0.955514E-02
      0.550000E-01      0.874537E-02
      0.600000E-01      0.794237E-02
      0.650000E-01      0.715969E-02
      0.700000E-01      0.640911E-02
      0.750000E-01      0.570033E-02
      0.800000E-01      0.504090E-02
      0.850000E-01      0.443610E-02
      0.900000E-01      0.388908E-02
      0.950000E-01      0.340094E-02
      0.100000          0.297094E-02
      0.105000          0.259684E-02
      0.110000          0.227509E-02
      0.115000          0.200123E-02
      0.120000          0.177019E-02
      0.125000          0.157655E-02
      0.130000          0.141484E-02
      0.135000          0.127977E-02
      0.140000          0.116641E-02
      0.145000          0.107031E-02
      0.150000          0.987619E-03
      0.155000          0.915100E-03
      0.160000          0.850153E-03
      0.165000          0.790776E-03
      0.170000          0.735513E-03
      0.175000          0.683381E-03
      0.180000          0.633789E-03
      0.185000          0.586451E-03
      0.190000          0.541302E-03
      0.195000          0.498424E-03
      0.200000          0.457983E-03
      0.205000          0.420169E-03
      0.210000          0.385164E-03
      0.215000          0.353108E-03
      0.220000          0.324086E-03
      0.225000          0.298119E-03
      0.230000          0.275167E-03
      0.235000          0.255132E-03
      0.240000          0.237867E-03
      0.245000          0.223189E-03
      0.250000          0.210888E-03
      0.255000          0.200738E-03
      0.260000          0.192503E-03
      0.265000          0.185946E-03
      0.270000          0.180836E-03
      0.275000          0.176944E-03
      0.280000          0.174054E-03
      0.285000          0.171960E-03
      0.290000          0.170467E-03
      0.295000          0.169394E-03
      0.300000          0.168576E-03
      0.305000          0.167862E-03
      0.310000          0.167120E-03
      0.315000          0.166239E-03
      0.320000          0.165129E-03
      0.325000          0.163724E-03
      0.330000          0.161982E-03
      0.335000          0.159885E-03
      0.340000          0.157437E-03
      0.345000          0.154668E-03
      0.350000          0.151621E-03
      0.355000          0.148359E-03
      0.360000          0.144952E-03
      0.365000          0.141480E-03
      0.370000          0.138020E-03
      0.375000          0.134648E-03
      0.380000          0.131431E-03
      0.385000          0.128426E-03
      0.390000          0.125674E-03
      0.395000          0.123201E-03
      0.400000          0.121018E-03
      0.405000          0.119119E-03
      0.410000          0.117482E-03
      0.415000          0.116077E-03
      0.420000          0.114862E-03
      0.425000          0.113788E-03
      0.430000          0.112807E-03
      0.435000          0.111870E-03
      0.440000          0.110930E-03
      0.445000          0.109949E-03
      0.450000          0.108896E-03
      0.455000          0.107748E-03
      0.460000          0.106493E-03
      0.465000          0.105129E-03
      0.470000          0.103661E-03
      0.475000          0.102102E-03
      0.480000          0.100470E-03
      0.485000          0.987883E-04
      0.490000          0.970798E-04
      0.495000          0.953685E-04
      0.500000          0.936764E-04
