 I_abs(s)[cm^-1]/c[mg/ml]
       0.00000          0.147980E-01
      0.500000E-02      0.147483E-01
      0.100000E-01      0.146000E-01
      0.150000E-01      0.143559E-01
      0.200000E-01      0.140209E-01
      0.250000E-01      0.136011E-01
      0.300000E-01      0.131043E-01
      0.350000E-01      0.125398E-01
      0.400000E-01      0.119174E-01
      0.450000E-01      0.112480E-01
      0.500000E-01      0.105429E-01
      0.550000E-01      0.981322E-02
      0.600000E-01      0.907031E-02
      0.650000E-01      0.832489E-02
      0.700000E-01      0.758705E-02
      0.750000E-01      0.686601E-02
      0.800000E-01      0.616995E-02
      0.850000E-01      0.550587E-02
      0.900000E-01      0.487952E-02
      0.950000E-01      0.429534E-02
      0.100000          0.375650E-02
      0.105000          0.326490E-02
      0.110000          0.282127E-02
      0.115000          0.242529E-02
      0.120000          0.207569E-02
      0.125000          0.177039E-02
      0.130000          0.150671E-02
      0.135000          0.128146E-02
      0.140000          0.109113E-02
      0.145000          0.932036E-03
      0.150000          0.800425E-03
      0.155000          0.692624E-03
      0.160000          0.605115E-03
      0.165000          0.534618E-03
      0.170000          0.478147E-03
      0.175000          0.433044E-03
      0.180000          0.396999E-03
      0.185000          0.368053E-03
      0.190000          0.344583E-03
      0.195000          0.325282E-03
      0.200000          0.309124E-03
      0.205000          0.295334E-03
      0.210000          0.283343E-03
      0.215000          0.272752E-03
      0.220000          0.263291E-03
      0.225000          0.254791E-03
      0.230000          0.247145E-03
      0.235000          0.240291E-03
      0.240000          0.234184E-03
      0.245000          0.228786E-03
      0.250000          0.224057E-03
      0.255000          0.219944E-03
      0.260000          0.216383E-03
      0.265000          0.213296E-03
      0.270000          0.210597E-03
      0.275000          0.208194E-03
      0.280000          0.205994E-03
      0.285000          0.203906E-03
      0.290000          0.201847E-03
      0.295000          0.199744E-03
      0.300000          0.197535E-03
      0.305000          0.195174E-03
      0.310000          0.192628E-03
      0.315000          0.189878E-03
      0.320000          0.186918E-03
      0.325000          0.183753E-03
      0.330000          0.180397E-03
      0.335000          0.176869E-03
      0.340000          0.173195E-03
      0.345000          0.169404E-03
      0.350000          0.165522E-03
      0.355000          0.161581E-03
      0.360000          0.157606E-03
      0.365000          0.153624E-03
      0.370000          0.149657E-03
      0.375000          0.145727E-03
      0.380000          0.141850E-03
      0.385000          0.138045E-03
      0.390000          0.134324E-03
      0.395000          0.130701E-03
      0.400000          0.127187E-03
      0.405000          0.123791E-03
      0.410000          0.120522E-03
      0.415000          0.117389E-03
      0.420000          0.114399E-03
      0.425000          0.111558E-03
      0.430000          0.108870E-03
      0.435000          0.106341E-03
      0.440000          0.103971E-03
      0.445000          0.101764E-03
      0.450000          0.997174E-04
      0.455000          0.978315E-04
      0.460000          0.961030E-04
      0.465000          0.945281E-04
      0.470000          0.931019E-04
      0.475000          0.918184E-04
      0.480000          0.906710E-04
      0.485000          0.896523E-04
      0.490000          0.887546E-04
      0.495000          0.879698E-04
      0.500000          0.872892E-04
