 I_abs(s)[cm^-1]/c[mg/ml]
       0.00000          0.147500E-01
      0.500000E-02      0.146994E-01
      0.100000E-01      0.145485E-01
      0.150000E-01      0.143005E-01
      0.200000E-01      0.139606E-01
      0.250000E-01      0.135357E-01
      0.300000E-01      0.130345E-01
      0.350000E-01      0.124667E-01
      0.400000E-01      0.118433E-01
      0.450000E-01      0.111757E-01
      0.500000E-01      0.104757E-01
      0.550000E-01      0.975515E-02
      0.600000E-01      0.902547E-02
      0.650000E-01      0.829742E-02
      0.700000E-01      0.758089E-02
      0.750000E-01      0.688467E-02
      0.800000E-01      0.621628E-02
      0.850000E-01      0.558192E-02
      0.900000E-01      0.498640E-02
      0.950000E-01      0.443313E-02
      0.100000          0.392424E-02
      0.105000          0.346061E-02
      0.110000          0.304204E-02
      0.115000          0.266741E-02
      0.120000          0.233480E-02
      0.125000          0.204170E-02
      0.130000          0.178519E-02
      0.135000          0.156205E-02
      0.140000          0.136894E-02
      0.145000          0.120256E-02
      0.150000          0.105966E-02
      0.155000          0.937215E-03
      0.160000          0.832433E-03
      0.165000          0.742801E-03
      0.170000          0.666101E-03
      0.175000          0.600414E-03
      0.180000          0.544100E-03
      0.185000          0.495778E-03
      0.190000          0.454297E-03
      0.195000          0.418697E-03
      0.200000          0.388182E-03
      0.205000          0.362082E-03
      0.210000          0.339827E-03
      0.215000          0.320925E-03
      0.220000          0.304935E-03
      0.225000          0.291460E-03
      0.230000          0.280134E-03
      0.235000          0.270616E-03
      0.240000          0.262588E-03
      0.245000          0.255756E-03
      0.250000          0.249851E-03
      0.255000          0.244630E-03
      0.260000          0.239879E-03
      0.265000          0.235416E-03
      0.270000          0.231090E-03
      0.275000          0.226782E-03
      0.280000          0.222404E-03
      0.285000          0.217894E-03
      0.290000          0.213216E-03
      0.295000          0.208356E-03
      0.300000          0.203316E-03
      0.305000          0.198112E-03
      0.310000          0.192770E-03
      0.315000          0.187323E-03
      0.320000          0.181807E-03
      0.325000          0.176260E-03
      0.330000          0.170719E-03
      0.335000          0.165221E-03
      0.340000          0.159802E-03
      0.345000          0.154493E-03
      0.350000          0.149325E-03
      0.355000          0.144326E-03
      0.360000          0.139522E-03
      0.365000          0.134937E-03
      0.370000          0.130592E-03
      0.375000          0.126503E-03
      0.380000          0.122686E-03
      0.385000          0.119151E-03
      0.390000          0.115903E-03
      0.395000          0.112943E-03
      0.400000          0.110265E-03
      0.405000          0.107860E-03
      0.410000          0.105711E-03
      0.415000          0.103795E-03
      0.420000          0.102087E-03
      0.425000          0.100557E-03
      0.430000          0.991712E-04
      0.435000          0.978952E-04
      0.440000          0.966945E-04
      0.445000          0.955361E-04
      0.450000          0.943896E-04
      0.455000          0.932286E-04
      0.460000          0.920316E-04
      0.465000          0.907832E-04
      0.470000          0.894738E-04
      0.475000          0.881006E-04
      0.480000          0.866664E-04
      0.485000          0.851800E-04
      0.490000          0.836546E-04
      0.495000          0.821074E-04
      0.500000          0.805579E-04
