 I_abs(s)[cm^-1]/c[mg/ml]
       0.00000          0.146701E-01
      0.500000E-02      0.146273E-01
      0.100000E-01      0.144995E-01
      0.150000E-01      0.142889E-01
      0.200000E-01      0.139990E-01
      0.250000E-01      0.136346E-01
      0.300000E-01      0.132015E-01
      0.350000E-01      0.127066E-01
      0.400000E-01      0.121578E-01
      0.450000E-01      0.115633E-01
      0.500000E-01      0.109321E-01
      0.550000E-01      0.102731E-01
      0.600000E-01      0.959533E-02
      0.650000E-01      0.890782E-02
      0.700000E-01      0.821907E-02
      0.750000E-01      0.753713E-02
      0.800000E-01      0.686937E-02
      0.850000E-01      0.622240E-02
      0.900000E-01      0.560195E-02
      0.950000E-01      0.501284E-02
      0.100000          0.445891E-02
      0.105000          0.394306E-02
      0.110000          0.346721E-02
      0.115000          0.303243E-02
      0.120000          0.263890E-02
      0.125000          0.228609E-02
      0.130000          0.197278E-02
      0.135000          0.169721E-02
      0.140000          0.145716E-02
      0.145000          0.125006E-02
      0.150000          0.107313E-02
      0.155000          0.923415E-03
      0.160000          0.797934E-03
      0.165000          0.693727E-03
      0.170000          0.607937E-03
      0.175000          0.537861E-03
      0.180000          0.480995E-03
      0.185000          0.435064E-03
      0.190000          0.398040E-03
      0.195000          0.368149E-03
      0.200000          0.343871E-03
      0.205000          0.323930E-03
      0.210000          0.307278E-03
      0.215000          0.293072E-03
      0.220000          0.280655E-03
      0.225000          0.269528E-03
      0.230000          0.259323E-03
      0.235000          0.249781E-03
      0.240000          0.240729E-03
      0.245000          0.232056E-03
      0.250000          0.223700E-03
      0.255000          0.215630E-03
      0.260000          0.207832E-03
      0.265000          0.200304E-03
      0.270000          0.193051E-03
      0.275000          0.186072E-03
      0.280000          0.179369E-03
      0.285000          0.172937E-03
      0.290000          0.166772E-03
      0.295000          0.160864E-03
      0.300000          0.155206E-03
      0.305000          0.149789E-03
      0.310000          0.144610E-03
      0.315000          0.139665E-03
      0.320000          0.134956E-03
      0.325000          0.130488E-03
      0.330000          0.126269E-03
      0.335000          0.122311E-03
      0.340000          0.118625E-03
      0.345000          0.115224E-03
      0.350000          0.112121E-03
      0.355000          0.109324E-03
      0.360000          0.106841E-03
      0.365000          0.104672E-03
      0.370000          0.102815E-03
      0.375000          0.101262E-03
      0.380000          0.999984E-04
      0.385000          0.990054E-04
      0.390000          0.982593E-04
      0.395000          0.977321E-04
      0.400000          0.973928E-04
      0.405000          0.972084E-04
      0.410000          0.971447E-04
      0.415000          0.971676E-04
      0.420000          0.972444E-04
      0.425000          0.973440E-04
      0.430000          0.974386E-04
      0.435000          0.975036E-04
      0.440000          0.975186E-04
      0.445000          0.974671E-04
      0.450000          0.973371E-04
      0.455000          0.971209E-04
      0.460000          0.968143E-04
      0.465000          0.964171E-04
      0.470000          0.959318E-04
      0.475000          0.953638E-04
      0.480000          0.947200E-04
      0.485000          0.940089E-04
      0.490000          0.932397E-04
      0.495000          0.924220E-04
      0.500000          0.915650E-04
