 I_abs(s)[cm^-1]/c[mg/ml]
       0.00000          0.144872E-01
      0.500000E-02      0.144302E-01
      0.100000E-01      0.142609E-01
      0.150000E-01      0.139834E-01
      0.200000E-01      0.136048E-01
      0.250000E-01      0.131344E-01
      0.300000E-01      0.125835E-01
      0.350000E-01      0.119649E-01
      0.400000E-01      0.112927E-01
      0.450000E-01      0.105811E-01
      0.500000E-01      0.984454E-02
      0.550000E-01      0.909702E-02
      0.600000E-01      0.835148E-02
      0.650000E-01      0.761962E-02
      0.700000E-01      0.691157E-02
      0.750000E-01      0.623570E-02
      0.800000E-01      0.559857E-02
      0.850000E-01      0.500486E-02
      0.900000E-01      0.445750E-02
      0.950000E-01      0.395780E-02
      0.100000          0.350565E-02
      0.105000          0.309975E-02
      0.110000          0.273788E-02
      0.115000          0.241714E-02
      0.120000          0.213420E-02
      0.125000          0.188551E-02
      0.130000          0.166751E-02
      0.135000          0.147677E-02
      0.140000          0.131007E-02
      0.145000          0.116451E-02
      0.150000          0.103750E-02
      0.155000          0.926802E-03
      0.160000          0.830478E-03
      0.165000          0.746869E-03
      0.170000          0.674542E-03
      0.175000          0.612242E-03
      0.180000          0.558846E-03
      0.185000          0.513326E-03
      0.190000          0.474718E-03
      0.195000          0.442103E-03
      0.200000          0.414605E-03
      0.205000          0.391383E-03
      0.210000          0.371648E-03
      0.215000          0.354669E-03
      0.220000          0.339789E-03
      0.225000          0.326437E-03
      0.230000          0.314139E-03
      0.235000          0.302521E-03
      0.240000          0.291313E-03
      0.245000          0.280337E-03
      0.250000          0.269505E-03
      0.255000          0.258796E-03
      0.260000          0.248249E-03
      0.265000          0.237935E-03
      0.270000          0.227947E-03
      0.275000          0.218381E-03
      0.280000          0.209323E-03
      0.285000          0.200838E-03
      0.290000          0.192966E-03
      0.295000          0.185719E-03
      0.300000          0.179079E-03
      0.305000          0.173008E-03
      0.310000          0.167447E-03
      0.315000          0.162327E-03
      0.320000          0.157573E-03
      0.325000          0.153116E-03
      0.330000          0.148894E-03
      0.335000          0.144857E-03
      0.340000          0.140973E-03
      0.345000          0.137224E-03
      0.350000          0.133608E-03
      0.355000          0.130139E-03
      0.360000          0.126839E-03
      0.365000          0.123735E-03
      0.370000          0.120859E-03
      0.375000          0.118240E-03
      0.380000          0.115903E-03
      0.385000          0.113862E-03
      0.390000          0.112126E-03
      0.395000          0.110690E-03
      0.400000          0.109541E-03
      0.405000          0.108654E-03
      0.410000          0.107999E-03
      0.415000          0.107537E-03
      0.420000          0.107228E-03
      0.425000          0.107029E-03
      0.430000          0.106898E-03
      0.435000          0.106795E-03
      0.440000          0.106687E-03
      0.445000          0.106542E-03
      0.450000          0.106338E-03
      0.455000          0.106056E-03
      0.460000          0.105684E-03
      0.465000          0.105214E-03
      0.470000          0.104645E-03
      0.475000          0.103977E-03
      0.480000          0.103213E-03
      0.485000          0.102356E-03
      0.490000          0.101412E-03
      0.495000          0.100386E-03
      0.500000          0.992808E-04
