 I_abs(s)[cm^-1]/c[mg/ml]
       0.00000          0.146542E-01
      0.500000E-02      0.146035E-01
      0.100000E-01      0.144526E-01
      0.150000E-01      0.142046E-01
      0.200000E-01      0.138646E-01
      0.250000E-01      0.134395E-01
      0.300000E-01      0.129379E-01
      0.350000E-01      0.123695E-01
      0.400000E-01      0.117451E-01
      0.450000E-01      0.110761E-01
      0.500000E-01      0.103742E-01
      0.550000E-01      0.965113E-02
      0.600000E-01      0.891819E-02
      0.650000E-01      0.818608E-02
      0.700000E-01      0.746463E-02
      0.750000E-01      0.676258E-02
      0.800000E-01      0.608747E-02
      0.850000E-01      0.544554E-02
      0.900000E-01      0.484167E-02
      0.950000E-01      0.427944E-02
      0.100000          0.376114E-02
      0.105000          0.328791E-02
      0.110000          0.285982E-02
      0.115000          0.247605E-02
      0.120000          0.213500E-02
      0.125000          0.183451E-02
      0.130000          0.157196E-02
      0.135000          0.134444E-02
      0.140000          0.114888E-02
      0.145000          0.982161E-03
      0.150000          0.841190E-03
      0.155000          0.723004E-03
      0.160000          0.624799E-03
      0.165000          0.543974E-03
      0.170000          0.478147E-03
      0.175000          0.425164E-03
      0.180000          0.383093E-03
      0.185000          0.350213E-03
      0.190000          0.325000E-03
      0.195000          0.306112E-03
      0.200000          0.292365E-03
      0.205000          0.282724E-03
      0.210000          0.276281E-03
      0.215000          0.272249E-03
      0.220000          0.269948E-03
      0.225000          0.268796E-03
      0.230000          0.268307E-03
      0.235000          0.268078E-03
      0.240000          0.267789E-03
      0.245000          0.267195E-03
      0.250000          0.266121E-03
      0.255000          0.264453E-03
      0.260000          0.262131E-03
      0.265000          0.259143E-03
      0.270000          0.255514E-03
      0.275000          0.251296E-03
      0.280000          0.246564E-03
      0.285000          0.241404E-03
      0.290000          0.235908E-03
      0.295000          0.230166E-03
      0.300000          0.224264E-03
      0.305000          0.218281E-03
      0.310000          0.212284E-03
      0.315000          0.206329E-03
      0.320000          0.200464E-03
      0.325000          0.194724E-03
      0.330000          0.189139E-03
      0.335000          0.183733E-03
      0.340000          0.178524E-03
      0.345000          0.173528E-03
      0.350000          0.168760E-03
      0.355000          0.164232E-03
      0.360000          0.159959E-03
      0.365000          0.155951E-03
      0.370000          0.152218E-03
      0.375000          0.148767E-03
      0.380000          0.145603E-03
      0.385000          0.142724E-03
      0.390000          0.140124E-03
      0.395000          0.137790E-03
      0.400000          0.135704E-03
      0.405000          0.133840E-03
      0.410000          0.132169E-03
      0.415000          0.130654E-03
      0.420000          0.129258E-03
      0.425000          0.127939E-03
      0.430000          0.126656E-03
      0.435000          0.125368E-03
      0.440000          0.124037E-03
      0.445000          0.122630E-03
      0.450000          0.121116E-03
      0.455000          0.119473E-03
      0.460000          0.117683E-03
      0.465000          0.115736E-03
      0.470000          0.113630E-03
      0.475000          0.111366E-03
      0.480000          0.108954E-03
      0.485000          0.106409E-03
      0.490000          0.103750E-03
      0.495000          0.100999E-03
      0.500000          0.981842E-04
