 I_abs(s)[cm^-1]/c[mg/ml]
       0.00000          0.149185E-01
      0.500000E-02      0.148619E-01
      0.100000E-01      0.146936E-01
      0.150000E-01      0.144172E-01
      0.200000E-01      0.140388E-01
      0.250000E-01      0.135667E-01
      0.300000E-01      0.130111E-01
      0.350000E-01      0.123836E-01
      0.400000E-01      0.116969E-01
      0.450000E-01      0.109645E-01
      0.500000E-01      0.102001E-01
      0.550000E-01      0.941747E-02
      0.600000E-01      0.862965E-02
      0.650000E-01      0.784890E-02
      0.700000E-01      0.708632E-02
      0.750000E-01      0.635161E-02
      0.800000E-01      0.565290E-02
      0.850000E-01      0.499667E-02
      0.900000E-01      0.438771E-02
      0.950000E-01      0.382914E-02
      0.100000          0.332254E-02
      0.105000          0.286804E-02
      0.110000          0.246455E-02
      0.115000          0.210995E-02
      0.120000          0.180127E-02
      0.125000          0.153498E-02
      0.130000          0.130715E-02
      0.135000          0.111367E-02
      0.140000          0.950415E-03
      0.145000          0.813422E-03
      0.150000          0.698963E-03
      0.155000          0.603649E-03
      0.160000          0.524482E-03
      0.165000          0.458866E-03
      0.170000          0.404614E-03
      0.175000          0.359915E-03
      0.180000          0.323298E-03
      0.185000          0.293582E-03
      0.190000          0.269818E-03
      0.195000          0.251238E-03
      0.200000          0.237200E-03
      0.205000          0.227143E-03
      0.210000          0.220554E-03
      0.215000          0.216936E-03
      0.220000          0.215797E-03
      0.225000          0.216639E-03
      0.230000          0.218959E-03
      0.235000          0.222260E-03
      0.240000          0.226059E-03
      0.245000          0.229905E-03
      0.250000          0.233390E-03
      0.255000          0.236170E-03
      0.260000          0.237971E-03
      0.265000          0.238597E-03
      0.270000          0.237938E-03
      0.275000          0.235965E-03
      0.280000          0.232729E-03
      0.285000          0.228346E-03
      0.290000          0.222991E-03
      0.295000          0.216883E-03
      0.300000          0.210264E-03
      0.305000          0.203390E-03
      0.310000          0.196514E-03
      0.315000          0.189870E-03
      0.320000          0.183665E-03
      0.325000          0.178068E-03
      0.330000          0.173206E-03
      0.335000          0.169160E-03
      0.340000          0.165965E-03
      0.345000          0.163609E-03
      0.350000          0.162046E-03
      0.355000          0.161191E-03
      0.360000          0.160936E-03
      0.365000          0.161151E-03
      0.370000          0.161696E-03
      0.375000          0.162429E-03
      0.380000          0.163208E-03
      0.385000          0.163901E-03
      0.390000          0.164391E-03
      0.395000          0.164578E-03
      0.400000          0.164380E-03
      0.405000          0.163739E-03
      0.410000          0.162616E-03
      0.415000          0.160996E-03
      0.420000          0.158879E-03
      0.425000          0.156288E-03
      0.430000          0.153256E-03
      0.435000          0.149831E-03
      0.440000          0.146071E-03
      0.445000          0.142041E-03
      0.450000          0.137810E-03
      0.455000          0.133448E-03
      0.460000          0.129029E-03
      0.465000          0.124621E-03
      0.470000          0.120290E-03
      0.475000          0.116098E-03
      0.480000          0.112100E-03
      0.485000          0.108344E-03
      0.490000          0.104869E-03
      0.495000          0.101710E-03
      0.500000          0.988877E-04
