 I_abs(s)[cm^-1]/c[mg/ml]
       0.00000          0.145825E-01
      0.500000E-02      0.145194E-01
      0.100000E-01      0.143320E-01
      0.150000E-01      0.140255E-01
      0.200000E-01      0.136082E-01
      0.250000E-01      0.130914E-01
      0.300000E-01      0.124887E-01
      0.350000E-01      0.118154E-01
      0.400000E-01      0.110879E-01
      0.450000E-01      0.103231E-01
      0.500000E-01      0.953762E-02
      0.550000E-01      0.874723E-02
      0.600000E-01      0.796651E-02
      0.650000E-01      0.720825E-02
      0.700000E-01      0.648320E-02
      0.750000E-01      0.579993E-02
      0.800000E-01      0.516474E-02
      0.850000E-01      0.458173E-02
      0.900000E-01      0.405292E-02
      0.950000E-01      0.357850E-02
      0.100000          0.315713E-02
      0.105000          0.278618E-02
      0.110000          0.246212E-02
      0.115000          0.218080E-02
      0.120000          0.193773E-02
      0.125000          0.172834E-02
      0.130000          0.154818E-02
      0.135000          0.139305E-02
      0.140000          0.125915E-02
      0.145000          0.114310E-02
      0.150000          0.104198E-02
      0.155000          0.953318E-03
      0.160000          0.875064E-03
      0.165000          0.805545E-03
      0.170000          0.743413E-03
      0.175000          0.687588E-03
      0.180000          0.637211E-03
      0.185000          0.591595E-03
      0.190000          0.550188E-03
      0.195000          0.512545E-03
      0.200000          0.478297E-03
      0.205000          0.447137E-03
      0.210000          0.418806E-03
      0.215000          0.393077E-03
      0.220000          0.369754E-03
      0.225000          0.348657E-03
      0.230000          0.329620E-03
      0.235000          0.312485E-03
      0.240000          0.297096E-03
      0.245000          0.283298E-03
      0.250000          0.270936E-03
      0.255000          0.259852E-03
      0.260000          0.249890E-03
      0.265000          0.240895E-03
      0.270000          0.232721E-03
      0.275000          0.225237E-03
      0.280000          0.218322E-03
      0.285000          0.211881E-03
      0.290000          0.205839E-03
      0.295000          0.200143E-03
      0.300000          0.194765E-03
      0.305000          0.189696E-03
      0.310000          0.184943E-03
      0.315000          0.180521E-03
      0.320000          0.176452E-03
      0.325000          0.172756E-03
      0.330000          0.169444E-03
      0.335000          0.166516E-03
      0.340000          0.163956E-03
      0.345000          0.161733E-03
      0.350000          0.159797E-03
      0.355000          0.158084E-03
      0.360000          0.156520E-03
      0.365000          0.155022E-03
      0.370000          0.153506E-03
      0.375000          0.151891E-03
      0.380000          0.150106E-03
      0.385000          0.148090E-03
      0.390000          0.145801E-03
      0.395000          0.143215E-03
      0.400000          0.140328E-03
      0.405000          0.137154E-03
      0.410000          0.133727E-03
      0.415000          0.130093E-03
      0.420000          0.126310E-03
      0.425000          0.122443E-03
      0.430000          0.118562E-03
      0.435000          0.114731E-03
      0.440000          0.111013E-03
      0.445000          0.107459E-03
      0.450000          0.104112E-03
      0.455000          0.100999E-03
      0.460000          0.981382E-04
      0.465000          0.955318E-04
      0.470000          0.931718E-04
      0.475000          0.910405E-04
      0.480000          0.891128E-04
      0.485000          0.873589E-04
      0.490000          0.857468E-04
      0.495000          0.842453E-04
      0.500000          0.828261E-04
