 I_abs(s)[cm^-1]/c[mg/ml]
       0.00000          0.145745E-01
      0.500000E-02      0.145327E-01
      0.100000E-01      0.144080E-01
      0.150000E-01      0.142024E-01
      0.200000E-01      0.139194E-01
      0.250000E-01      0.135635E-01
      0.300000E-01      0.131404E-01
      0.350000E-01      0.126568E-01
      0.400000E-01      0.121202E-01
      0.450000E-01      0.115387E-01
      0.500000E-01      0.109207E-01
      0.550000E-01      0.102751E-01
      0.600000E-01      0.961052E-02
      0.650000E-01      0.893568E-02
      0.700000E-01      0.825882E-02
      0.750000E-01      0.758775E-02
      0.800000E-01      0.692961E-02
      0.850000E-01      0.629083E-02
      0.900000E-01      0.567702E-02
      0.950000E-01      0.509289E-02
      0.100000          0.454223E-02
      0.105000          0.402795E-02
      0.110000          0.355201E-02
      0.115000          0.311556E-02
      0.120000          0.271891E-02
      0.125000          0.236168E-02
      0.130000          0.204284E-02
      0.135000          0.176083E-02
      0.140000          0.151367E-02
      0.145000          0.129900E-02
      0.150000          0.111426E-02
      0.155000          0.956721E-03
      0.160000          0.823600E-03
      0.165000          0.712123E-03
      0.170000          0.619589E-03
      0.175000          0.543427E-03
      0.180000          0.481232E-03
      0.185000          0.430800E-03
      0.190000          0.390139E-03
      0.195000          0.357486E-03
      0.200000          0.331304E-03
      0.205000          0.310274E-03
      0.210000          0.293285E-03
      0.215000          0.279417E-03
      0.220000          0.267921E-03
      0.225000          0.258201E-03
      0.230000          0.249789E-03
      0.235000          0.242326E-03
      0.240000          0.235544E-03
      0.245000          0.229246E-03
      0.250000          0.223291E-03
      0.255000          0.217580E-03
      0.260000          0.212047E-03
      0.265000          0.206649E-03
      0.270000          0.201359E-03
      0.275000          0.196162E-03
      0.280000          0.191050E-03
      0.285000          0.186020E-03
      0.290000          0.181075E-03
      0.295000          0.176218E-03
      0.300000          0.171458E-03
      0.305000          0.166804E-03
      0.310000          0.162267E-03
      0.315000          0.157858E-03
      0.320000          0.153592E-03
      0.325000          0.149479E-03
      0.330000          0.145531E-03
      0.335000          0.141758E-03
      0.340000          0.138165E-03
      0.345000          0.134756E-03
      0.350000          0.131527E-03
      0.355000          0.128473E-03
      0.360000          0.125583E-03
      0.365000          0.122840E-03
      0.370000          0.120225E-03
      0.375000          0.117716E-03
      0.380000          0.115288E-03
      0.385000          0.112915E-03
      0.390000          0.110571E-03
      0.395000          0.108235E-03
      0.400000          0.105886E-03
      0.405000          0.103509E-03
      0.410000          0.101094E-03
      0.415000          0.986363E-04
      0.420000          0.961401E-04
      0.425000          0.936142E-04
      0.430000          0.910745E-04
      0.435000          0.885425E-04
      0.440000          0.860446E-04
      0.445000          0.836105E-04
      0.450000          0.812723E-04
      0.455000          0.790628E-04
      0.460000          0.770139E-04
      0.465000          0.751551E-04
      0.470000          0.735122E-04
      0.475000          0.721058E-04
      0.480000          0.709505E-04
      0.485000          0.700544E-04
      0.490000          0.694182E-04
      0.495000          0.690356E-04
      0.500000          0.688931E-04
