 I_abs(s)[cm^-1]/c[mg/ml]
       0.00000          0.146542E-01
      0.500000E-02      0.146012E-01
      0.100000E-01      0.144433E-01
      0.150000E-01      0.141840E-01
      0.200000E-01      0.138284E-01
      0.250000E-01      0.133841E-01
      0.300000E-01      0.128598E-01
      0.350000E-01      0.122660E-01
      0.400000E-01      0.116141E-01
      0.450000E-01      0.109161E-01
      0.500000E-01      0.101846E-01
      0.550000E-01      0.943195E-02
      0.600000E-01      0.867029E-02
      0.650000E-01      0.791108E-02
      0.700000E-01      0.716485E-02
      0.750000E-01      0.644101E-02
      0.800000E-01      0.574766E-02
      0.850000E-01      0.509149E-02
      0.900000E-01      0.447776E-02
      0.950000E-01      0.391023E-02
      0.100000          0.339130E-02
      0.105000          0.292202E-02
      0.110000          0.250227E-02
      0.115000          0.213092E-02
      0.120000          0.180596E-02
      0.125000          0.152470E-02
      0.130000          0.128395E-02
      0.135000          0.108021E-02
      0.140000          0.909777E-03
      0.145000          0.768919E-03
      0.150000          0.653982E-03
      0.155000          0.561477E-03
      0.160000          0.488153E-03
      0.165000          0.431035E-03
      0.170000          0.387453E-03
      0.175000          0.355047E-03
      0.180000          0.331757E-03
      0.185000          0.315809E-03
      0.190000          0.305681E-03
      0.195000          0.300082E-03
      0.200000          0.297913E-03
      0.205000          0.298241E-03
      0.210000          0.300273E-03
      0.215000          0.303330E-03
      0.220000          0.306835E-03
      0.225000          0.310292E-03
      0.230000          0.313286E-03
      0.235000          0.315469E-03
      0.240000          0.316565E-03
      0.245000          0.316363E-03
      0.250000          0.314721E-03
      0.255000          0.311561E-03
      0.260000          0.306869E-03
      0.265000          0.300691E-03
      0.270000          0.293129E-03
      0.275000          0.284331E-03
      0.280000          0.274485E-03
      0.285000          0.263807E-03
      0.290000          0.252532E-03
      0.295000          0.240902E-03
      0.300000          0.229156E-03
      0.305000          0.217520E-03
      0.310000          0.206200E-03
      0.315000          0.195373E-03
      0.320000          0.185184E-03
      0.325000          0.175744E-03
      0.330000          0.167127E-03
      0.335000          0.159372E-03
      0.340000          0.152486E-03
      0.345000          0.146448E-03
      0.350000          0.141212E-03
      0.355000          0.136714E-03
      0.360000          0.132876E-03
      0.365000          0.129611E-03
      0.370000          0.126831E-03
      0.375000          0.124447E-03
      0.380000          0.122377E-03
      0.385000          0.120543E-03
      0.390000          0.118880E-03
      0.395000          0.117333E-03
      0.400000          0.115857E-03
      0.405000          0.114420E-03
      0.410000          0.113001E-03
      0.415000          0.111587E-03
      0.420000          0.110175E-03
      0.425000          0.108769E-03
      0.430000          0.107378E-03
      0.435000          0.106017E-03
      0.440000          0.104700E-03
      0.445000          0.103446E-03
      0.450000          0.102273E-03
      0.455000          0.101197E-03
      0.460000          0.100233E-03
      0.465000          0.993949E-04
      0.470000          0.986909E-04
      0.475000          0.981272E-04
      0.480000          0.977056E-04
      0.485000          0.974242E-04
      0.490000          0.972773E-04
      0.495000          0.972550E-04
      0.500000          0.973443E-04
