 I_abs(s)[cm^-1]/c[mg/ml]
       0.00000          0.147180E-01
      0.500000E-02      0.146561E-01
      0.100000E-01      0.144721E-01
      0.150000E-01      0.141705E-01
      0.200000E-01      0.137592E-01
      0.250000E-01      0.132482E-01
      0.300000E-01      0.126501E-01
      0.350000E-01      0.119789E-01
      0.400000E-01      0.112500E-01
      0.450000E-01      0.104792E-01
      0.500000E-01      0.968232E-02
      0.550000E-01      0.887484E-02
      0.600000E-01      0.807114E-02
      0.650000E-01      0.728425E-02
      0.700000E-01      0.652552E-02
      0.750000E-01      0.580443E-02
      0.800000E-01      0.512846E-02
      0.850000E-01      0.450305E-02
      0.900000E-01      0.393170E-02
      0.950000E-01      0.341609E-02
      0.100000          0.295629E-02
      0.105000          0.255096E-02
      0.110000          0.219763E-02
      0.115000          0.189295E-02
      0.120000          0.163295E-02
      0.125000          0.141326E-02
      0.130000          0.122936E-02
      0.135000          0.107669E-02
      0.140000          0.950883E-03
      0.145000          0.847792E-03
      0.150000          0.763616E-03
      0.155000          0.694936E-03
      0.160000          0.638740E-03
      0.165000          0.592426E-03
      0.170000          0.553796E-03
      0.175000          0.521032E-03
      0.180000          0.492665E-03
      0.185000          0.467545E-03
      0.190000          0.444798E-03
      0.195000          0.423794E-03
      0.200000          0.404106E-03
      0.205000          0.385473E-03
      0.210000          0.367763E-03
      0.215000          0.350944E-03
      0.220000          0.335049E-03
      0.225000          0.320148E-03
      0.230000          0.306328E-03
      0.235000          0.293668E-03
      0.240000          0.282227E-03
      0.245000          0.272034E-03
      0.250000          0.263078E-03
      0.255000          0.255312E-03
      0.260000          0.248651E-03
      0.265000          0.242980E-03
      0.270000          0.238162E-03
      0.275000          0.234048E-03
      0.280000          0.230484E-03
      0.285000          0.227319E-03
      0.290000          0.224420E-03
      0.295000          0.221667E-03
      0.300000          0.218966E-03
      0.305000          0.216242E-03
      0.310000          0.213444E-03
      0.315000          0.210542E-03
      0.320000          0.207521E-03
      0.325000          0.204377E-03
      0.330000          0.201117E-03
      0.335000          0.197751E-03
      0.340000          0.194292E-03
      0.345000          0.190753E-03
      0.350000          0.187146E-03
      0.355000          0.183483E-03
      0.360000          0.179776E-03
      0.365000          0.176036E-03
      0.370000          0.172279E-03
      0.375000          0.168522E-03
      0.380000          0.164784E-03
      0.385000          0.161088E-03
      0.390000          0.157459E-03
      0.395000          0.153922E-03
      0.400000          0.150500E-03
      0.405000          0.147214E-03
      0.410000          0.144082E-03
      0.415000          0.141112E-03
      0.420000          0.138307E-03
      0.425000          0.135665E-03
      0.430000          0.133172E-03
      0.435000          0.130814E-03
      0.440000          0.128569E-03
      0.445000          0.126415E-03
      0.450000          0.124329E-03
      0.455000          0.122291E-03
      0.460000          0.120285E-03
      0.465000          0.118300E-03
      0.470000          0.116332E-03
      0.475000          0.114383E-03
      0.480000          0.112460E-03
      0.485000          0.110574E-03
      0.490000          0.108740E-03
      0.495000          0.106971E-03
      0.500000          0.105282E-03
