 I_abs(s)[cm^-1]/c[mg/ml]
       0.00000          0.145030E-01
      0.500000E-02      0.144470E-01
      0.100000E-01      0.142801E-01
      0.150000E-01      0.140065E-01
      0.200000E-01      0.136325E-01
      0.250000E-01      0.131668E-01
      0.300000E-01      0.126200E-01
      0.350000E-01      0.120042E-01
      0.400000E-01      0.113326E-01
      0.450000E-01      0.106190E-01
      0.500000E-01      0.987747E-02
      0.550000E-01      0.912163E-02
      0.600000E-01      0.836453E-02
      0.650000E-01      0.761812E-02
      0.700000E-01      0.689303E-02
      0.750000E-01      0.619832E-02
      0.800000E-01      0.554135E-02
      0.850000E-01      0.492770E-02
      0.900000E-01      0.436121E-02
      0.950000E-01      0.384407E-02
      0.100000          0.337692E-02
      0.105000          0.295906E-02
      0.110000          0.258867E-02
      0.115000          0.226305E-02
      0.120000          0.197885E-02
      0.125000          0.173231E-02
      0.130000          0.151946E-02
      0.135000          0.133633E-02
      0.140000          0.117909E-02
      0.145000          0.104416E-02
      0.150000          0.928329E-03
      0.155000          0.828745E-03
      0.160000          0.742980E-03
      0.165000          0.668998E-03
      0.170000          0.605123E-03
      0.175000          0.549997E-03
      0.180000          0.502524E-03
      0.185000          0.461809E-03
      0.190000          0.427111E-03
      0.195000          0.397788E-03
      0.200000          0.373256E-03
      0.205000          0.352967E-03
      0.210000          0.336383E-03
      0.215000          0.322969E-03
      0.220000          0.312197E-03
      0.225000          0.303547E-03
      0.230000          0.296521E-03
      0.235000          0.290658E-03
      0.240000          0.285544E-03
      0.245000          0.280825E-03
      0.250000          0.276217E-03
      0.255000          0.271507E-03
      0.260000          0.266554E-03
      0.265000          0.261287E-03
      0.270000          0.255692E-03
      0.275000          0.249806E-03
      0.280000          0.243700E-03
      0.285000          0.237466E-03
      0.290000          0.231206E-03
      0.295000          0.225017E-03
      0.300000          0.218986E-03
      0.305000          0.213178E-03
      0.310000          0.207634E-03
      0.315000          0.202372E-03
      0.320000          0.197385E-03
      0.325000          0.192648E-03
      0.330000          0.188122E-03
      0.335000          0.183758E-03
      0.340000          0.179508E-03
      0.345000          0.175327E-03
      0.350000          0.171180E-03
      0.355000          0.167045E-03
      0.360000          0.162914E-03
      0.365000          0.158796E-03
      0.370000          0.154714E-03
      0.375000          0.150703E-03
      0.380000          0.146808E-03
      0.385000          0.143075E-03
      0.390000          0.139554E-03
      0.395000          0.136286E-03
      0.400000          0.133309E-03
      0.405000          0.130645E-03
      0.410000          0.128305E-03
      0.415000          0.126283E-03
      0.420000          0.124562E-03
      0.425000          0.123107E-03
      0.430000          0.121874E-03
      0.435000          0.120809E-03
      0.440000          0.119852E-03
      0.445000          0.118941E-03
      0.450000          0.118015E-03
      0.455000          0.117015E-03
      0.460000          0.115892E-03
      0.465000          0.114603E-03
      0.470000          0.113118E-03
      0.475000          0.111418E-03
      0.480000          0.109496E-03
      0.485000          0.107357E-03
      0.490000          0.105018E-03
      0.495000          0.102504E-03
      0.500000          0.998473E-04
