 I_abs(s)[cm^-1]/c[mg/ml]
       0.00000          0.144476E-01
      0.500000E-02      0.143716E-01
      0.100000E-01      0.141465E-01
      0.150000E-01      0.137803E-01
      0.200000E-01      0.132862E-01
      0.250000E-01      0.126813E-01
      0.300000E-01      0.119861E-01
      0.350000E-01      0.112228E-01
      0.400000E-01      0.104146E-01
      0.450000E-01      0.958428E-02
      0.500000E-01      0.875324E-02
      0.550000E-01      0.794042E-02
      0.600000E-01      0.716171E-02
      0.650000E-01      0.642951E-02
      0.700000E-01      0.575252E-02
      0.750000E-01      0.513582E-02
      0.800000E-01      0.458114E-02
      0.850000E-01      0.408736E-02
      0.900000E-01      0.365107E-02
      0.950000E-01      0.326724E-02
      0.100000          0.292985E-02
      0.105000          0.263252E-02
      0.110000          0.236901E-02
      0.115000          0.213364E-02
      0.120000          0.192157E-02
      0.125000          0.172895E-02
      0.130000          0.155291E-02
      0.135000          0.139152E-02
      0.140000          0.124362E-02
      0.145000          0.110863E-02
      0.150000          0.986346E-03
      0.155000          0.876722E-03
      0.160000          0.779703E-03
      0.165000          0.695093E-03
      0.170000          0.622472E-03
      0.175000          0.561161E-03
      0.180000          0.510236E-03
      0.185000          0.468572E-03
      0.190000          0.434908E-03
      0.195000          0.407932E-03
      0.200000          0.386355E-03
      0.205000          0.368981E-03
      0.210000          0.354757E-03
      0.215000          0.342809E-03
      0.220000          0.332450E-03
      0.225000          0.323173E-03
      0.230000          0.314633E-03
      0.235000          0.306614E-03
      0.240000          0.298995E-03
      0.245000          0.291715E-03
      0.250000          0.284745E-03
      0.255000          0.278062E-03
      0.260000          0.271639E-03
      0.265000          0.265434E-03
      0.270000          0.259393E-03
      0.275000          0.253454E-03
      0.280000          0.247556E-03
      0.285000          0.241649E-03
      0.290000          0.235700E-03
      0.295000          0.229698E-03
      0.300000          0.223658E-03
      0.305000          0.217617E-03
      0.310000          0.211631E-03
      0.315000          0.205765E-03
      0.320000          0.200090E-03
      0.325000          0.194671E-03
      0.330000          0.189559E-03
      0.335000          0.184788E-03
      0.340000          0.180373E-03
      0.345000          0.176304E-03
      0.350000          0.172550E-03
      0.355000          0.169065E-03
      0.360000          0.165791E-03
      0.365000          0.162661E-03
      0.370000          0.159609E-03
      0.375000          0.156573E-03
      0.380000          0.153500E-03
      0.385000          0.150350E-03
      0.390000          0.147097E-03
      0.395000          0.143731E-03
      0.400000          0.140255E-03
      0.405000          0.136687E-03
      0.410000          0.133055E-03
      0.415000          0.129392E-03
      0.420000          0.125740E-03
      0.425000          0.122140E-03
      0.430000          0.118631E-03
      0.435000          0.115249E-03
      0.440000          0.112027E-03
      0.445000          0.108988E-03
      0.450000          0.106148E-03
      0.455000          0.103519E-03
      0.460000          0.101102E-03
      0.465000          0.988940E-04
      0.470000          0.968879E-04
      0.475000          0.950720E-04
      0.480000          0.934322E-04
      0.485000          0.919539E-04
      0.490000          0.906217E-04
      0.495000          0.894208E-04
      0.500000          0.883373E-04
