 I_abs(s)[cm^-1]/c[mg/ml]
       0.00000          0.146302E-01
      0.500000E-02      0.145660E-01
      0.100000E-01      0.143750E-01
      0.150000E-01      0.140626E-01
      0.200000E-01      0.136372E-01
      0.250000E-01      0.131102E-01
      0.300000E-01      0.124953E-01
      0.350000E-01      0.118079E-01
      0.400000E-01      0.110645E-01
      0.450000E-01      0.102822E-01
      0.500000E-01      0.947778E-02
      0.550000E-01      0.866713E-02
      0.600000E-01      0.786498E-02
      0.650000E-01      0.708435E-02
      0.700000E-01      0.633623E-02
      0.750000E-01      0.562949E-02
      0.800000E-01      0.497081E-02
      0.850000E-01      0.436472E-02
      0.900000E-01      0.381376E-02
      0.950000E-01      0.331868E-02
      0.100000          0.287872E-02
      0.105000          0.249186E-02
      0.110000          0.215513E-02
      0.115000          0.186489E-02
      0.120000          0.161706E-02
      0.125000          0.140734E-02
      0.130000          0.123137E-02
      0.135000          0.108490E-02
      0.140000          0.963842E-03
      0.145000          0.864379E-03
      0.150000          0.782975E-03
      0.155000          0.716415E-03
      0.160000          0.661806E-03
      0.165000          0.616589E-03
      0.170000          0.578529E-03
      0.175000          0.545720E-03
      0.180000          0.516575E-03
      0.185000          0.489824E-03
      0.190000          0.464504E-03
      0.195000          0.439941E-03
      0.200000          0.415732E-03
      0.205000          0.391716E-03
      0.210000          0.367937E-03
      0.215000          0.344602E-03
      0.220000          0.322034E-03
      0.225000          0.300620E-03
      0.230000          0.280768E-03
      0.235000          0.262854E-03
      0.240000          0.247193E-03
      0.245000          0.234000E-03
      0.250000          0.223379E-03
      0.255000          0.215312E-03
      0.260000          0.209663E-03
      0.265000          0.206191E-03
      0.270000          0.204571E-03
      0.275000          0.204421E-03
      0.280000          0.205330E-03
      0.285000          0.206885E-03
      0.290000          0.208698E-03
      0.295000          0.210429E-03
      0.300000          0.211799E-03
      0.305000          0.212599E-03
      0.310000          0.212692E-03
      0.315000          0.212013E-03
      0.320000          0.210555E-03
      0.325000          0.208364E-03
      0.330000          0.205518E-03
      0.335000          0.202119E-03
      0.340000          0.198280E-03
      0.345000          0.194110E-03
      0.350000          0.189712E-03
      0.355000          0.185171E-03
      0.360000          0.180556E-03
      0.365000          0.175921E-03
      0.370000          0.171303E-03
      0.375000          0.166726E-03
      0.380000          0.162209E-03
      0.385000          0.157763E-03
      0.390000          0.153397E-03
      0.395000          0.149122E-03
      0.400000          0.144947E-03
      0.405000          0.140884E-03
      0.410000          0.136941E-03
      0.415000          0.133128E-03
      0.420000          0.129451E-03
      0.425000          0.125909E-03
      0.430000          0.122499E-03
      0.435000          0.119211E-03
      0.440000          0.116032E-03
      0.445000          0.112945E-03
      0.450000          0.109933E-03
      0.455000          0.106981E-03
      0.460000          0.104076E-03
      0.465000          0.101214E-03
      0.470000          0.983977E-04
      0.475000          0.956395E-04
      0.480000          0.929609E-04
      0.485000          0.903921E-04
      0.490000          0.879699E-04
      0.495000          0.857357E-04
      0.500000          0.837321E-04
