 I_abs(s)[cm^-1]/c[mg/ml]
       0.00000          0.144951E-01
      0.500000E-02      0.144272E-01
      0.100000E-01      0.142258E-01
      0.150000E-01      0.138969E-01
      0.200000E-01      0.134508E-01
      0.250000E-01      0.129007E-01
      0.300000E-01      0.122626E-01
      0.350000E-01      0.115545E-01
      0.400000E-01      0.107952E-01
      0.450000E-01      0.100039E-01
      0.500000E-01      0.919900E-02
      0.550000E-01      0.839782E-02
      0.600000E-01      0.761558E-02
      0.650000E-01      0.686524E-02
      0.700000E-01      0.615709E-02
      0.750000E-01      0.549868E-02
      0.800000E-01      0.489484E-02
      0.850000E-01      0.434790E-02
      0.900000E-01      0.385794E-02
      0.950000E-01      0.342316E-02
      0.100000          0.304034E-02
      0.105000          0.270520E-02
      0.110000          0.241288E-02
      0.115000          0.215827E-02
      0.120000          0.193632E-02
      0.125000          0.174231E-02
      0.130000          0.157197E-02
      0.135000          0.142165E-02
      0.140000          0.128827E-02
      0.145000          0.116937E-02
      0.150000          0.106299E-02
      0.155000          0.967647E-03
      0.160000          0.882182E-03
      0.165000          0.805706E-03
      0.170000          0.737492E-03
      0.175000          0.676911E-03
      0.180000          0.623377E-03
      0.185000          0.576310E-03
      0.190000          0.535118E-03
      0.195000          0.499199E-03
      0.200000          0.467941E-03
      0.205000          0.440738E-03
      0.210000          0.417007E-03
      0.215000          0.396200E-03
      0.220000          0.377815E-03
      0.225000          0.361408E-03
      0.230000          0.346593E-03
      0.235000          0.333043E-03
      0.240000          0.320487E-03
      0.245000          0.308702E-03
      0.250000          0.297509E-03
      0.255000          0.286767E-03
      0.260000          0.276365E-03
      0.265000          0.266223E-03
      0.270000          0.256280E-03
      0.275000          0.246501E-03
      0.280000          0.236868E-03
      0.285000          0.227385E-03
      0.290000          0.218066E-03
      0.295000          0.208944E-03
      0.300000          0.200058E-03
      0.305000          0.191454E-03
      0.310000          0.183179E-03
      0.315000          0.175277E-03
      0.320000          0.167785E-03
      0.325000          0.160730E-03
      0.330000          0.154126E-03
      0.335000          0.147977E-03
      0.340000          0.142273E-03
      0.345000          0.136994E-03
      0.350000          0.132113E-03
      0.355000          0.127598E-03
      0.360000          0.123418E-03
      0.365000          0.119544E-03
      0.370000          0.115951E-03
      0.375000          0.112621E-03
      0.380000          0.109544E-03
      0.385000          0.106714E-03
      0.390000          0.104133E-03
      0.395000          0.101804E-03
      0.400000          0.997314E-04
      0.405000          0.979178E-04
      0.410000          0.963605E-04
      0.415000          0.950509E-04
      0.420000          0.939732E-04
      0.425000          0.931037E-04
      0.430000          0.924122E-04
      0.435000          0.918630E-04
      0.440000          0.914173E-04
      0.445000          0.910354E-04
      0.450000          0.906798E-04
      0.455000          0.903179E-04
      0.460000          0.899238E-04
      0.465000          0.894803E-04
      0.470000          0.889799E-04
      0.475000          0.884247E-04
      0.480000          0.878260E-04
      0.485000          0.872028E-04
      0.490000          0.865796E-04
      0.495000          0.859842E-04
      0.500000          0.854445E-04
