 I_abs(s)[cm^-1]/c[mg/ml]
       0.00000          0.148141E-01
      0.500000E-02      0.147766E-01
      0.100000E-01      0.146646E-01
      0.150000E-01      0.144797E-01
      0.200000E-01      0.142246E-01
      0.250000E-01      0.139029E-01
      0.300000E-01      0.135191E-01
      0.350000E-01      0.130784E-01
      0.400000E-01      0.125869E-01
      0.450000E-01      0.120510E-01
      0.500000E-01      0.114778E-01
      0.550000E-01      0.108744E-01
      0.600000E-01      0.102481E-01
      0.650000E-01      0.960631E-02
      0.700000E-01      0.895619E-02
      0.750000E-01      0.830464E-02
      0.800000E-01      0.765819E-02
      0.850000E-01      0.702286E-02
      0.900000E-01      0.640413E-02
      0.950000E-01      0.580683E-02
      0.100000          0.523512E-02
      0.105000          0.469246E-02
      0.110000          0.418159E-02
      0.115000          0.370452E-02
      0.120000          0.326260E-02
      0.125000          0.285652E-02
      0.130000          0.248638E-02
      0.135000          0.215171E-02
      0.140000          0.185159E-02
      0.145000          0.158468E-02
      0.150000          0.134931E-02
      0.155000          0.114352E-02
      0.160000          0.965200E-03
      0.165000          0.812077E-03
      0.170000          0.681829E-03
      0.175000          0.572124E-03
      0.180000          0.480664E-03
      0.185000          0.405235E-03
      0.190000          0.343734E-03
      0.195000          0.294196E-03
      0.200000          0.254813E-03
      0.205000          0.223946E-03
      0.210000          0.200127E-03
      0.215000          0.182062E-03
      0.220000          0.168624E-03
      0.225000          0.158846E-03
      0.230000          0.151909E-03
      0.235000          0.147129E-03
      0.240000          0.143945E-03
      0.245000          0.141903E-03
      0.250000          0.140639E-03
      0.255000          0.139870E-03
      0.260000          0.139380E-03
      0.265000          0.139004E-03
      0.270000          0.138625E-03
      0.275000          0.138158E-03
      0.280000          0.137548E-03
      0.285000          0.136761E-03
      0.290000          0.135778E-03
      0.295000          0.134595E-03
      0.300000          0.133217E-03
      0.305000          0.131655E-03
      0.310000          0.129927E-03
      0.315000          0.128053E-03
      0.320000          0.126057E-03
      0.325000          0.123966E-03
      0.330000          0.121807E-03
      0.335000          0.119606E-03
      0.340000          0.117392E-03
      0.345000          0.115191E-03
      0.350000          0.113029E-03
      0.355000          0.110927E-03
      0.360000          0.108907E-03
      0.365000          0.106986E-03
      0.370000          0.105177E-03
      0.375000          0.103493E-03
      0.380000          0.101938E-03
      0.385000          0.100516E-03
      0.390000          0.992272E-04
      0.395000          0.980664E-04
      0.400000          0.970268E-04
      0.405000          0.960989E-04
      0.410000          0.952706E-04
      0.415000          0.945287E-04
      0.420000          0.938584E-04
      0.425000          0.932446E-04
      0.430000          0.926722E-04
      0.435000          0.921263E-04
      0.440000          0.915927E-04
      0.445000          0.910586E-04
      0.450000          0.905124E-04
      0.455000          0.899440E-04
      0.460000          0.893452E-04
      0.465000          0.887094E-04
      0.470000          0.880319E-04
      0.475000          0.873096E-04
      0.480000          0.865412E-04
      0.485000          0.857267E-04
      0.490000          0.848676E-04
      0.495000          0.839667E-04
      0.500000          0.830277E-04
