 I_abs(s)[cm^-1]/c[mg/ml]
       0.00000          0.144396E-01
      0.500000E-02      0.143598E-01
      0.100000E-01      0.141229E-01
      0.150000E-01      0.137373E-01
      0.200000E-01      0.132164E-01
      0.250000E-01      0.125777E-01
      0.300000E-01      0.118423E-01
      0.350000E-01      0.110334E-01
      0.400000E-01      0.101754E-01
      0.450000E-01      0.929268E-02
      0.500000E-01      0.840841E-02
      0.550000E-01      0.754361E-02
      0.600000E-01      0.671639E-02
      0.650000E-01      0.594138E-02
      0.700000E-01      0.522938E-02
      0.750000E-01      0.458734E-02
      0.800000E-01      0.401844E-02
      0.850000E-01      0.352248E-02
      0.900000E-01      0.309639E-02
      0.950000E-01      0.273481E-02
      0.100000          0.243076E-02
      0.105000          0.217633E-02
      0.110000          0.196326E-02
      0.115000          0.178351E-02
      0.120000          0.162969E-02
      0.125000          0.149540E-02
      0.130000          0.137536E-02
      0.135000          0.126558E-02
      0.140000          0.116321E-02
      0.145000          0.106652E-02
      0.150000          0.974685E-03
      0.155000          0.887555E-03
      0.160000          0.805461E-03
      0.165000          0.728983E-03
      0.170000          0.658769E-03
      0.175000          0.595382E-03
      0.180000          0.539193E-03
      0.185000          0.490320E-03
      0.190000          0.448606E-03
      0.195000          0.413637E-03
      0.200000          0.384781E-03
      0.205000          0.361249E-03
      0.210000          0.342161E-03
      0.215000          0.326611E-03
      0.220000          0.313733E-03
      0.225000          0.302743E-03
      0.230000          0.292975E-03
      0.235000          0.283903E-03
      0.240000          0.275140E-03
      0.245000          0.266435E-03
      0.250000          0.257653E-03
      0.255000          0.248755E-03
      0.260000          0.239772E-03
      0.265000          0.230778E-03
      0.270000          0.221871E-03
      0.275000          0.213151E-03
      0.280000          0.204709E-03
      0.285000          0.196619E-03
      0.290000          0.188932E-03
      0.295000          0.181677E-03
      0.300000          0.174867E-03
      0.305000          0.168499E-03
      0.310000          0.162563E-03
      0.315000          0.157046E-03
      0.320000          0.151935E-03
      0.325000          0.147221E-03
      0.330000          0.142897E-03
      0.335000          0.138963E-03
      0.340000          0.135416E-03
      0.345000          0.132255E-03
      0.350000          0.129475E-03
      0.355000          0.127062E-03
      0.360000          0.124997E-03
      0.365000          0.123250E-03
      0.370000          0.121781E-03
      0.375000          0.120546E-03
      0.380000          0.119491E-03
      0.385000          0.118565E-03
      0.390000          0.117715E-03
      0.395000          0.116894E-03
      0.400000          0.116064E-03
      0.405000          0.115193E-03
      0.410000          0.114265E-03
      0.415000          0.113273E-03
      0.420000          0.112220E-03
      0.425000          0.111118E-03
      0.430000          0.109983E-03
      0.435000          0.108836E-03
      0.440000          0.107696E-03
      0.445000          0.106579E-03
      0.450000          0.105494E-03
      0.455000          0.104447E-03
      0.460000          0.103432E-03
      0.465000          0.102440E-03
      0.470000          0.101456E-03
      0.475000          0.100462E-03
      0.480000          0.994378E-04
      0.485000          0.983668E-04
      0.490000          0.972357E-04
      0.495000          0.960373E-04
      0.500000          0.947715E-04
