 I_abs(s)[cm^-1]/c[mg/ml]
       0.00000          0.143843E-01
      0.500000E-02      0.143015E-01
      0.100000E-01      0.140561E-01
      0.150000E-01      0.136571E-01
      0.200000E-01      0.131191E-01
      0.250000E-01      0.124611E-01
      0.300000E-01      0.117056E-01
      0.350000E-01      0.108777E-01
      0.400000E-01      0.100030E-01
      0.450000E-01      0.910709E-02
      0.500000E-01      0.821394E-02
      0.550000E-01      0.734491E-02
      0.600000E-01      0.651800E-02
      0.650000E-01      0.574732E-02
      0.700000E-01      0.504288E-02
      0.750000E-01      0.441056E-02
      0.800000E-01      0.385245E-02
      0.850000E-01      0.336730E-02
      0.900000E-01      0.295114E-02
      0.950000E-01      0.259802E-02
      0.100000          0.230065E-02
      0.105000          0.205118E-02
      0.110000          0.184171E-02
      0.115000          0.166483E-02
      0.120000          0.151395E-02
      0.125000          0.138350E-02
      0.130000          0.126901E-02
      0.135000          0.116712E-02
      0.140000          0.107538E-02
      0.145000          0.992185E-03
      0.150000          0.916478E-03
      0.155000          0.847619E-03
      0.160000          0.785184E-03
      0.165000          0.728829E-03
      0.170000          0.678192E-03
      0.175000          0.632844E-03
      0.180000          0.592274E-03
      0.185000          0.555908E-03
      0.190000          0.523143E-03
      0.195000          0.493395E-03
      0.200000          0.466141E-03
      0.205000          0.440952E-03
      0.210000          0.417509E-03
      0.215000          0.395606E-03
      0.220000          0.375138E-03
      0.225000          0.356073E-03
      0.230000          0.338421E-03
      0.235000          0.322203E-03
      0.240000          0.307420E-03
      0.245000          0.294035E-03
      0.250000          0.281959E-03
      0.255000          0.271058E-03
      0.260000          0.261155E-03
      0.265000          0.252055E-03
      0.270000          0.243560E-03
      0.275000          0.235494E-03
      0.280000          0.227719E-03
      0.285000          0.220146E-03
      0.290000          0.212742E-03
      0.295000          0.205524E-03
      0.300000          0.198549E-03
      0.305000          0.191902E-03
      0.310000          0.185676E-03
      0.315000          0.179952E-03
      0.320000          0.174790E-03
      0.325000          0.170213E-03
      0.330000          0.166207E-03
      0.335000          0.162717E-03
      0.340000          0.159660E-03
      0.345000          0.156929E-03
      0.350000          0.154414E-03
      0.355000          0.152007E-03
      0.360000          0.149624E-03
      0.365000          0.147204E-03
      0.370000          0.144720E-03
      0.375000          0.142178E-03
      0.380000          0.139610E-03
      0.385000          0.137069E-03
      0.390000          0.134616E-03
      0.395000          0.132312E-03
      0.400000          0.130205E-03
      0.405000          0.128321E-03
      0.410000          0.126663E-03
      0.415000          0.125208E-03
      0.420000          0.123908E-03
      0.425000          0.122697E-03
      0.430000          0.121499E-03
      0.435000          0.120238E-03
      0.440000          0.118846E-03
      0.445000          0.117273E-03
      0.450000          0.115492E-03
      0.455000          0.113500E-03
      0.460000          0.111324E-03
      0.465000          0.109012E-03
      0.470000          0.106631E-03
      0.475000          0.104257E-03
      0.480000          0.101970E-03
      0.485000          0.998446E-04
      0.490000          0.979425E-04
      0.495000          0.963077E-04
      0.500000          0.949638E-04
