 I_abs(s)[cm^-1]/c[mg/ml]
       0.00000          0.146701E-01
      0.500000E-02      0.146266E-01
      0.100000E-01      0.144969E-01
      0.150000E-01      0.142830E-01
      0.200000E-01      0.139888E-01
      0.250000E-01      0.136190E-01
      0.300000E-01      0.131797E-01
      0.350000E-01      0.126782E-01
      0.400000E-01      0.121223E-01
      0.450000E-01      0.115207E-01
      0.500000E-01      0.108823E-01
      0.550000E-01      0.102166E-01
      0.600000E-01      0.953265E-02
      0.650000E-01      0.883964E-02
      0.700000E-01      0.814625E-02
      0.750000E-01      0.746064E-02
      0.800000E-01      0.679024E-02
      0.850000E-01      0.614172E-02
      0.900000E-01      0.552079E-02
      0.950000E-01      0.493226E-02
      0.100000          0.437991E-02
      0.105000          0.386655E-02
      0.110000          0.339401E-02
      0.115000          0.296322E-02
      0.120000          0.257427E-02
      0.125000          0.222648E-02
      0.130000          0.191852E-02
      0.135000          0.164852E-02
      0.140000          0.141413E-02
      0.145000          0.121272E-02
      0.150000          0.104137E-02
      0.155000          0.897097E-03
      0.160000          0.776835E-03
      0.165000          0.677580E-03
      0.170000          0.596434E-03
      0.175000          0.530665E-03
      0.180000          0.477746E-03
      0.185000          0.435386E-03
      0.190000          0.401547E-03
      0.195000          0.374452E-03
      0.200000          0.352582E-03
      0.205000          0.334666E-03
      0.210000          0.319667E-03
      0.215000          0.306760E-03
      0.220000          0.295310E-03
      0.225000          0.284846E-03
      0.230000          0.275037E-03
      0.235000          0.265665E-03
      0.240000          0.256605E-03
      0.245000          0.247802E-03
      0.250000          0.239249E-03
      0.255000          0.230974E-03
      0.260000          0.223028E-03
      0.265000          0.215467E-03
      0.270000          0.208350E-03
      0.275000          0.201729E-03
      0.280000          0.195642E-03
      0.285000          0.190117E-03
      0.290000          0.185165E-03
      0.295000          0.180780E-03
      0.300000          0.176941E-03
      0.305000          0.173613E-03
      0.310000          0.170748E-03
      0.315000          0.168288E-03
      0.320000          0.166165E-03
      0.325000          0.164305E-03
      0.330000          0.162633E-03
      0.335000          0.161070E-03
      0.340000          0.159538E-03
      0.345000          0.157966E-03
      0.350000          0.156285E-03
      0.355000          0.154434E-03
      0.360000          0.152364E-03
      0.365000          0.150035E-03
      0.370000          0.147419E-03
      0.375000          0.144500E-03
      0.380000          0.141276E-03
      0.385000          0.137759E-03
      0.390000          0.133973E-03
      0.395000          0.129951E-03
      0.400000          0.125741E-03
      0.405000          0.121395E-03
      0.410000          0.116976E-03
      0.415000          0.112547E-03
      0.420000          0.108178E-03
      0.425000          0.103934E-03
      0.430000          0.998812E-04
      0.435000          0.960780E-04
      0.440000          0.925771E-04
      0.445000          0.894217E-04
      0.450000          0.866451E-04
      0.455000          0.842688E-04
      0.460000          0.823027E-04
      0.465000          0.807445E-04
      0.470000          0.795802E-04
      0.475000          0.787849E-04
      0.480000          0.783239E-04
      0.485000          0.781544E-04
      0.490000          0.782271E-04
      0.495000          0.784885E-04
      0.500000          0.788825E-04
