 I_abs(s)[cm^-1]/c[mg/ml]
       0.00000          0.144555E-01
      0.500000E-02      0.143776E-01
      0.100000E-01      0.141470E-01
      0.150000E-01      0.137720E-01
      0.200000E-01      0.132664E-01
      0.250000E-01      0.126481E-01
      0.300000E-01      0.119380E-01
      0.350000E-01      0.111594E-01
      0.400000E-01      0.103361E-01
      0.450000E-01      0.949148E-02
      0.500000E-01      0.864725E-02
      0.550000E-01      0.782261E-02
      0.600000E-01      0.703350E-02
      0.650000E-01      0.629221E-02
      0.700000E-01      0.560726E-02
      0.750000E-01      0.498350E-02
      0.800000E-01      0.442248E-02
      0.850000E-01      0.392298E-02
      0.900000E-01      0.348158E-02
      0.950000E-01      0.309339E-02
      0.100000          0.275271E-02
      0.105000          0.245353E-02
      0.110000          0.219013E-02
      0.115000          0.195732E-02
      0.120000          0.175074E-02
      0.125000          0.156686E-02
      0.130000          0.140303E-02
      0.135000          0.125729E-02
      0.140000          0.112824E-02
      0.145000          0.101485E-02
      0.150000          0.916225E-03
      0.155000          0.831489E-03
      0.160000          0.759646E-03
      0.165000          0.699520E-03
      0.170000          0.649740E-03
      0.175000          0.608776E-03
      0.180000          0.575005E-03
      0.185000          0.546799E-03
      0.190000          0.522616E-03
      0.195000          0.501090E-03
      0.200000          0.481094E-03
      0.205000          0.461783E-03
      0.210000          0.442610E-03
      0.215000          0.423308E-03
      0.220000          0.403859E-03
      0.225000          0.384432E-03
      0.230000          0.365327E-03
      0.235000          0.346906E-03
      0.240000          0.329534E-03
      0.245000          0.313526E-03
      0.250000          0.299119E-03
      0.255000          0.286441E-03
      0.260000          0.275514E-03
      0.265000          0.266259E-03
      0.270000          0.258509E-03
      0.275000          0.252039E-03
      0.280000          0.246585E-03
      0.285000          0.241877E-03
      0.290000          0.237655E-03
      0.295000          0.233689E-03
      0.300000          0.229791E-03
      0.305000          0.225820E-03
      0.310000          0.221684E-03
      0.315000          0.217334E-03
      0.320000          0.212760E-03
      0.325000          0.207982E-03
      0.330000          0.203042E-03
      0.335000          0.197993E-03
      0.340000          0.192895E-03
      0.345000          0.187807E-03
      0.350000          0.182782E-03
      0.355000          0.177865E-03
      0.360000          0.173093E-03
      0.365000          0.168490E-03
      0.370000          0.164070E-03
      0.375000          0.159839E-03
      0.380000          0.155794E-03
      0.385000          0.151925E-03
      0.390000          0.148218E-03
      0.395000          0.144658E-03
      0.400000          0.141228E-03
      0.405000          0.137910E-03
      0.410000          0.134690E-03
      0.415000          0.131558E-03
      0.420000          0.128506E-03
      0.425000          0.125529E-03
      0.430000          0.122627E-03
      0.435000          0.119800E-03
      0.440000          0.117051E-03
      0.445000          0.114383E-03
      0.450000          0.111798E-03
      0.455000          0.109295E-03
      0.460000          0.106872E-03
      0.465000          0.104526E-03
      0.470000          0.102251E-03
      0.475000          0.100044E-03
      0.480000          0.978984E-04
      0.485000          0.958149E-04
      0.490000          0.937962E-04
      0.495000          0.918508E-04
      0.500000          0.899931E-04
