 I_abs(s)[cm^-1]/c[mg/ml]
       0.00000          0.143527E-01
      0.500000E-02      0.143054E-01
      0.100000E-01      0.141644E-01
      0.150000E-01      0.139323E-01
      0.200000E-01      0.136133E-01
      0.250000E-01      0.132131E-01
      0.300000E-01      0.127387E-01
      0.350000E-01      0.121985E-01
      0.400000E-01      0.116017E-01
      0.450000E-01      0.109582E-01
      0.500000E-01      0.102786E-01
      0.550000E-01      0.957331E-02
      0.600000E-01      0.885314E-02
      0.650000E-01      0.812838E-02
      0.700000E-01      0.740887E-02
      0.750000E-01      0.670374E-02
      0.800000E-01      0.602127E-02
      0.850000E-01      0.536870E-02
      0.900000E-01      0.475215E-02
      0.950000E-01      0.417655E-02
      0.100000          0.364563E-02
      0.105000          0.316189E-02
      0.110000          0.272666E-02
      0.115000          0.234017E-02
      0.120000          0.200164E-02
      0.125000          0.170939E-02
      0.130000          0.146100E-02
      0.135000          0.125339E-02
      0.140000          0.108303E-02
      0.145000          0.946052E-03
      0.150000          0.838403E-03
      0.155000          0.755961E-03
      0.160000          0.694665E-03
      0.165000          0.650616E-03
      0.170000          0.620158E-03
      0.175000          0.599953E-03
      0.180000          0.587025E-03
      0.185000          0.578794E-03
      0.190000          0.573087E-03
      0.195000          0.568143E-03
      0.200000          0.562594E-03
      0.205000          0.555442E-03
      0.210000          0.546024E-03
      0.215000          0.533974E-03
      0.220000          0.519176E-03
      0.225000          0.501723E-03
      0.230000          0.481866E-03
      0.235000          0.459974E-03
      0.240000          0.436494E-03
      0.245000          0.411913E-03
      0.250000          0.386728E-03
      0.255000          0.361423E-03
      0.260000          0.336444E-03
      0.265000          0.312188E-03
      0.270000          0.288992E-03
      0.275000          0.267128E-03
      0.280000          0.246802E-03
      0.285000          0.228153E-03
      0.290000          0.211261E-03
      0.295000          0.196150E-03
      0.300000          0.182798E-03
      0.305000          0.171141E-03
      0.310000          0.161084E-03
      0.315000          0.152508E-03
      0.320000          0.145278E-03
      0.325000          0.139248E-03
      0.330000          0.134266E-03
      0.335000          0.130184E-03
      0.340000          0.126855E-03
      0.345000          0.124142E-03
      0.350000          0.121917E-03
      0.355000          0.120064E-03
      0.360000          0.118479E-03
      0.365000          0.117073E-03
      0.370000          0.115769E-03
      0.375000          0.114505E-03
      0.380000          0.113230E-03
      0.385000          0.111908E-03
      0.390000          0.110514E-03
      0.395000          0.109030E-03
      0.400000          0.107453E-03
      0.405000          0.105784E-03
      0.410000          0.104034E-03
      0.415000          0.102217E-03
      0.420000          0.100354E-03
      0.425000          0.984683E-04
      0.430000          0.965839E-04
      0.435000          0.947268E-04
      0.440000          0.929219E-04
      0.445000          0.911927E-04
      0.450000          0.895602E-04
      0.455000          0.880424E-04
      0.460000          0.866536E-04
      0.465000          0.854041E-04
      0.470000          0.842998E-04
      0.475000          0.833426E-04
      0.480000          0.825304E-04
      0.485000          0.818573E-04
      0.490000          0.813142E-04
      0.495000          0.808890E-04
      0.500000          0.805678E-04
