 I_abs(s)[cm^-1]/c[mg/ml]
       0.00000          0.146223E-01
      0.500000E-02      0.145811E-01
      0.100000E-01      0.144580E-01
      0.150000E-01      0.142552E-01
      0.200000E-01      0.139760E-01
      0.250000E-01      0.136246E-01
      0.300000E-01      0.132069E-01
      0.350000E-01      0.127291E-01
      0.400000E-01      0.121987E-01
      0.450000E-01      0.116235E-01
      0.500000E-01      0.110118E-01
      0.550000E-01      0.103722E-01
      0.600000E-01      0.971324E-02
      0.650000E-01      0.904336E-02
      0.700000E-01      0.837069E-02
      0.750000E-01      0.770291E-02
      0.800000E-01      0.704707E-02
      0.850000E-01      0.640954E-02
      0.900000E-01      0.579589E-02
      0.950000E-01      0.521082E-02
      0.100000          0.465816E-02
      0.105000          0.414087E-02
      0.110000          0.366099E-02
      0.115000          0.321977E-02
      0.120000          0.281764E-02
      0.125000          0.245435E-02
      0.130000          0.212900E-02
      0.135000          0.184017E-02
      0.140000          0.158601E-02
      0.145000          0.136428E-02
      0.150000          0.117254E-02
      0.155000          0.100816E-02
      0.160000          0.868439E-03
      0.165000          0.750659E-03
      0.170000          0.652168E-03
      0.175000          0.570421E-03
      0.180000          0.503022E-03
      0.185000          0.447758E-03
      0.190000          0.402621E-03
      0.195000          0.365816E-03
      0.200000          0.335767E-03
      0.205000          0.311115E-03
      0.210000          0.290709E-03
      0.215000          0.273590E-03
      0.220000          0.258978E-03
      0.225000          0.246251E-03
      0.230000          0.234927E-03
      0.235000          0.224646E-03
      0.240000          0.215146E-03
      0.245000          0.206250E-03
      0.250000          0.197848E-03
      0.255000          0.189880E-03
      0.260000          0.182324E-03
      0.265000          0.175185E-03
      0.270000          0.168487E-03
      0.275000          0.162260E-03
      0.280000          0.156538E-03
      0.285000          0.151353E-03
      0.290000          0.146729E-03
      0.295000          0.142683E-03
      0.300000          0.139217E-03
      0.305000          0.136324E-03
      0.310000          0.133983E-03
      0.315000          0.132162E-03
      0.320000          0.130816E-03
      0.325000          0.129890E-03
      0.330000          0.129322E-03
      0.335000          0.129043E-03
      0.340000          0.128980E-03
      0.345000          0.129059E-03
      0.350000          0.129206E-03
      0.355000          0.129351E-03
      0.360000          0.129431E-03
      0.365000          0.129387E-03
      0.370000          0.129171E-03
      0.375000          0.128747E-03
      0.380000          0.128088E-03
      0.385000          0.127178E-03
      0.390000          0.126015E-03
      0.395000          0.124605E-03
      0.400000          0.122966E-03
      0.405000          0.121122E-03
      0.410000          0.119105E-03
      0.415000          0.116953E-03
      0.420000          0.114705E-03
      0.425000          0.112401E-03
      0.430000          0.110082E-03
      0.435000          0.107785E-03
      0.440000          0.105543E-03
      0.445000          0.103385E-03
      0.450000          0.101333E-03
      0.455000          0.994042E-04
      0.460000          0.976073E-04
      0.465000          0.959469E-04
      0.470000          0.944211E-04
      0.475000          0.930235E-04
      0.480000          0.917436E-04
      0.485000          0.905682E-04
      0.490000          0.894823E-04
      0.495000          0.884704E-04
      0.500000          0.875171E-04
