 I_abs(s)[cm^-1]/c[mg/ml]
       0.00000          0.146781E-01
      0.500000E-02      0.146420E-01
      0.100000E-01      0.145341E-01
      0.150000E-01      0.143560E-01
      0.200000E-01      0.141100E-01
      0.250000E-01      0.137993E-01
      0.300000E-01      0.134280E-01
      0.350000E-01      0.130009E-01
      0.400000E-01      0.125235E-01
      0.450000E-01      0.120017E-01
      0.500000E-01      0.114420E-01
      0.550000E-01      0.108510E-01
      0.600000E-01      0.102356E-01
      0.650000E-01      0.960285E-02
      0.700000E-01      0.895951E-02
      0.750000E-01      0.831230E-02
      0.800000E-01      0.766763E-02
      0.850000E-01      0.703153E-02
      0.900000E-01      0.640956E-02
      0.950000E-01      0.580674E-02
      0.100000          0.522750E-02
      0.105000          0.467565E-02
      0.110000          0.415433E-02
      0.115000          0.366601E-02
      0.120000          0.321250E-02
      0.125000          0.279496E-02
      0.130000          0.241395E-02
      0.135000          0.206942E-02
      0.140000          0.176082E-02
      0.145000          0.148713E-02
      0.150000          0.124692E-02
      0.155000          0.103840E-02
      0.160000          0.859526E-03
      0.165000          0.708046E-03
      0.170000          0.581556E-03
      0.175000          0.477578E-03
      0.180000          0.393609E-03
      0.185000          0.327174E-03
      0.190000          0.275873E-03
      0.195000          0.237420E-03
      0.200000          0.209671E-03
      0.205000          0.190654E-03
      0.210000          0.178579E-03
      0.215000          0.171858E-03
      0.220000          0.169101E-03
      0.225000          0.169120E-03
      0.230000          0.170921E-03
      0.235000          0.173694E-03
      0.240000          0.176803E-03
      0.245000          0.179765E-03
      0.250000          0.182235E-03
      0.255000          0.183988E-03
      0.260000          0.184901E-03
      0.265000          0.184932E-03
      0.270000          0.184103E-03
      0.275000          0.182486E-03
      0.280000          0.180184E-03
      0.285000          0.177322E-03
      0.290000          0.174033E-03
      0.295000          0.170449E-03
      0.300000          0.166697E-03
      0.305000          0.162888E-03
      0.310000          0.159118E-03
      0.315000          0.155462E-03
      0.320000          0.151976E-03
      0.325000          0.148699E-03
      0.330000          0.145647E-03
      0.335000          0.142823E-03
      0.340000          0.140216E-03
      0.345000          0.137802E-03
      0.350000          0.135550E-03
      0.355000          0.133423E-03
      0.360000          0.131381E-03
      0.365000          0.129384E-03
      0.370000          0.127394E-03
      0.375000          0.125374E-03
      0.380000          0.123296E-03
      0.385000          0.121133E-03
      0.390000          0.118869E-03
      0.395000          0.116492E-03
      0.400000          0.113997E-03
      0.405000          0.111387E-03
      0.410000          0.108668E-03
      0.415000          0.105854E-03
      0.420000          0.102961E-03
      0.425000          0.100012E-03
      0.430000          0.970299E-04
      0.435000          0.940393E-04
      0.440000          0.910666E-04
      0.445000          0.881380E-04
      0.450000          0.852790E-04
      0.455000          0.825137E-04
      0.460000          0.798644E-04
      0.465000          0.773510E-04
      0.470000          0.749906E-04
      0.475000          0.727978E-04
      0.480000          0.707839E-04
      0.485000          0.689571E-04
      0.490000          0.673227E-04
      0.495000          0.658831E-04
      0.500000          0.646378E-04
