 I_abs(s)[cm^-1]/c[mg/ml]
       0.00000          0.145189E-01
      0.500000E-02      0.144490E-01
      0.100000E-01      0.142415E-01
      0.150000E-01      0.139023E-01
      0.200000E-01      0.134414E-01
      0.250000E-01      0.128719E-01
      0.300000E-01      0.122096E-01
      0.350000E-01      0.114724E-01
      0.400000E-01      0.106794E-01
      0.450000E-01      0.985011E-02
      0.500000E-01      0.900367E-02
      0.550000E-01      0.815830E-02
      0.600000E-01      0.733052E-02
      0.650000E-01      0.653471E-02
      0.700000E-01      0.578279E-02
      0.750000E-01      0.508397E-02
      0.800000E-01      0.444471E-02
      0.850000E-01      0.386883E-02
      0.900000E-01      0.335764E-02
      0.950000E-01      0.291030E-02
      0.100000          0.252412E-02
      0.105000          0.219497E-02
      0.110000          0.191771E-02
      0.115000          0.168654E-02
      0.120000          0.149541E-02
      0.125000          0.133830E-02
      0.130000          0.120946E-02
      0.135000          0.110363E-02
      0.140000          0.101614E-02
      0.145000          0.942995E-03
      0.150000          0.880858E-03
      0.155000          0.827053E-03
      0.160000          0.779495E-03
      0.165000          0.736612E-03
      0.170000          0.697261E-03
      0.175000          0.660642E-03
      0.180000          0.626213E-03
      0.185000          0.593622E-03
      0.190000          0.562648E-03
      0.195000          0.533153E-03
      0.200000          0.505050E-03
      0.205000          0.478282E-03
      0.210000          0.452805E-03
      0.215000          0.428582E-03
      0.220000          0.405580E-03
      0.225000          0.383770E-03
      0.230000          0.363121E-03
      0.235000          0.343606E-03
      0.240000          0.325198E-03
      0.245000          0.307870E-03
      0.250000          0.291596E-03
      0.255000          0.276344E-03
      0.260000          0.262086E-03
      0.265000          0.248786E-03
      0.270000          0.236413E-03
      0.275000          0.224931E-03
      0.280000          0.214311E-03
      0.285000          0.204523E-03
      0.290000          0.195542E-03
      0.295000          0.187345E-03
      0.300000          0.179914E-03
      0.305000          0.173230E-03
      0.310000          0.167271E-03
      0.315000          0.162013E-03
      0.320000          0.157424E-03
      0.325000          0.153463E-03
      0.330000          0.150077E-03
      0.335000          0.147205E-03
      0.340000          0.144776E-03
      0.345000          0.142712E-03
      0.350000          0.140932E-03
      0.355000          0.139359E-03
      0.360000          0.137918E-03
      0.365000          0.136548E-03
      0.370000          0.135201E-03
      0.375000          0.133845E-03
      0.380000          0.132469E-03
      0.385000          0.131077E-03
      0.390000          0.129690E-03
      0.395000          0.128342E-03
      0.400000          0.127073E-03
      0.405000          0.125929E-03
      0.410000          0.124950E-03
      0.415000          0.124171E-03
      0.420000          0.123614E-03
      0.425000          0.123287E-03
      0.430000          0.123182E-03
      0.435000          0.123274E-03
      0.440000          0.123522E-03
      0.445000          0.123876E-03
      0.450000          0.124272E-03
      0.455000          0.124646E-03
      0.460000          0.124931E-03
      0.465000          0.125066E-03
      0.470000          0.124997E-03
      0.475000          0.124682E-03
      0.480000          0.124090E-03
      0.485000          0.123206E-03
      0.490000          0.122031E-03
      0.495000          0.120575E-03
      0.500000          0.118863E-03
