 I_abs(s)[cm^-1]/c[mg/ml]
       0.00000          0.147820E-01
      0.500000E-02      0.147362E-01
      0.100000E-01      0.145996E-01
      0.150000E-01      0.143745E-01
      0.200000E-01      0.140647E-01
      0.250000E-01      0.136753E-01
      0.300000E-01      0.132127E-01
      0.350000E-01      0.126844E-01
      0.400000E-01      0.120988E-01
      0.450000E-01      0.114650E-01
      0.500000E-01      0.107925E-01
      0.550000E-01      0.100912E-01
      0.600000E-01      0.937110E-02
      0.650000E-01      0.864182E-02
      0.700000E-01      0.791278E-02
      0.750000E-01      0.719282E-02
      0.800000E-01      0.649008E-02
      0.850000E-01      0.581183E-02
      0.900000E-01      0.516445E-02
      0.950000E-01      0.455326E-02
      0.100000          0.398253E-02
      0.105000          0.345546E-02
      0.110000          0.297417E-02
      0.115000          0.253978E-02
      0.120000          0.215242E-02
      0.125000          0.181137E-02
      0.130000          0.151512E-02
      0.135000          0.126150E-02
      0.140000          0.104777E-02
      0.145000          0.870801E-03
      0.150000          0.727119E-03
      0.155000          0.613080E-03
      0.160000          0.524955E-03
      0.165000          0.459032E-03
      0.170000          0.411710E-03
      0.175000          0.379567E-03
      0.180000          0.359425E-03
      0.185000          0.348396E-03
      0.190000          0.343913E-03
      0.195000          0.343752E-03
      0.200000          0.346037E-03
      0.205000          0.349234E-03
      0.210000          0.352140E-03
      0.215000          0.353861E-03
      0.220000          0.353780E-03
      0.225000          0.351531E-03
      0.230000          0.346959E-03
      0.235000          0.340084E-03
      0.240000          0.331069E-03
      0.245000          0.320178E-03
      0.250000          0.307749E-03
      0.255000          0.294161E-03
      0.260000          0.279809E-03
      0.265000          0.265085E-03
      0.270000          0.250351E-03
      0.275000          0.235937E-03
      0.280000          0.222120E-03
      0.285000          0.209128E-03
      0.290000          0.197128E-03
      0.295000          0.186232E-03
      0.300000          0.176498E-03
      0.305000          0.167936E-03
      0.310000          0.160510E-03
      0.315000          0.154152E-03
      0.320000          0.148763E-03
      0.325000          0.144226E-03
      0.330000          0.140410E-03
      0.335000          0.137181E-03
      0.340000          0.134405E-03
      0.345000          0.131958E-03
      0.350000          0.129724E-03
      0.355000          0.127606E-03
      0.360000          0.125524E-03
      0.365000          0.123416E-03
      0.370000          0.121241E-03
      0.375000          0.118976E-03
      0.380000          0.116615E-03
      0.385000          0.114168E-03
      0.390000          0.111658E-03
      0.395000          0.109116E-03
      0.400000          0.106581E-03
      0.405000          0.104096E-03
      0.410000          0.101705E-03
      0.415000          0.994484E-04
      0.420000          0.973641E-04
      0.425000          0.954833E-04
      0.430000          0.938301E-04
      0.435000          0.924198E-04
      0.440000          0.912591E-04
      0.445000          0.903460E-04
      0.450000          0.896700E-04
      0.455000          0.892132E-04
      0.460000          0.889510E-04
      0.465000          0.888542E-04
      0.470000          0.888898E-04
      0.475000          0.890225E-04
      0.480000          0.892169E-04
      0.485000          0.894383E-04
      0.490000          0.896541E-04
      0.495000          0.898354E-04
      0.500000          0.899571E-04
