 I_abs(s)[cm^-1]/c[mg/ml]
       0.00000          0.147180E-01
      0.500000E-02      0.146686E-01
      0.100000E-01      0.145213E-01
      0.150000E-01      0.142792E-01
      0.200000E-01      0.139470E-01
      0.250000E-01      0.135316E-01
      0.300000E-01      0.130410E-01
      0.350000E-01      0.124845E-01
      0.400000E-01      0.118726E-01
      0.450000E-01      0.112162E-01
      0.500000E-01      0.105267E-01
      0.550000E-01      0.981528E-02
      0.600000E-01      0.909303E-02
      0.650000E-01      0.837034E-02
      0.700000E-01      0.765684E-02
      0.750000E-01      0.696111E-02
      0.800000E-01      0.629061E-02
      0.850000E-01      0.565153E-02
      0.900000E-01      0.504878E-02
      0.950000E-01      0.448599E-02
      0.100000          0.396554E-02
      0.105000          0.348867E-02
      0.110000          0.305556E-02
      0.115000          0.266550E-02
      0.120000          0.231704E-02
      0.125000          0.200812E-02
      0.130000          0.173624E-02
      0.135000          0.149859E-02
      0.140000          0.129222E-02
      0.145000          0.111412E-02
      0.150000          0.961315E-03
      0.155000          0.830961E-03
      0.160000          0.720389E-03
      0.165000          0.627139E-03
      0.170000          0.548982E-03
      0.175000          0.483918E-03
      0.180000          0.430179E-03
      0.185000          0.386204E-03
      0.190000          0.350621E-03
      0.195000          0.322227E-03
      0.200000          0.299960E-03
      0.205000          0.282882E-03
      0.210000          0.270156E-03
      0.215000          0.261033E-03
      0.220000          0.254838E-03
      0.225000          0.250967E-03
      0.230000          0.248876E-03
      0.235000          0.248082E-03
      0.240000          0.248161E-03
      0.245000          0.248748E-03
      0.250000          0.249535E-03
      0.255000          0.250271E-03
      0.260000          0.250761E-03
      0.265000          0.250860E-03
      0.270000          0.250470E-03
      0.275000          0.249536E-03
      0.280000          0.248036E-03
      0.285000          0.245975E-03
      0.290000          0.243382E-03
      0.295000          0.240297E-03
      0.300000          0.236771E-03
      0.305000          0.232855E-03
      0.310000          0.228602E-03
      0.315000          0.224063E-03
      0.320000          0.219281E-03
      0.325000          0.214297E-03
      0.330000          0.209147E-03
      0.335000          0.203864E-03
      0.340000          0.198480E-03
      0.345000          0.193026E-03
      0.350000          0.187534E-03
      0.355000          0.182038E-03
      0.360000          0.176575E-03
      0.365000          0.171183E-03
      0.370000          0.165903E-03
      0.375000          0.160775E-03
      0.380000          0.155837E-03
      0.385000          0.151125E-03
      0.390000          0.146669E-03
      0.395000          0.142493E-03
      0.400000          0.138611E-03
      0.405000          0.135031E-03
      0.410000          0.131747E-03
      0.415000          0.128748E-03
      0.420000          0.126012E-03
      0.425000          0.123509E-03
      0.430000          0.121204E-03
      0.435000          0.119060E-03
      0.440000          0.117036E-03
      0.445000          0.115094E-03
      0.450000          0.113196E-03
      0.455000          0.111311E-03
      0.460000          0.109413E-03
      0.465000          0.107486E-03
      0.470000          0.105518E-03
      0.475000          0.103508E-03
      0.480000          0.101460E-03
      0.485000          0.993874E-04
      0.490000          0.973062E-04
      0.495000          0.952378E-04
      0.500000          0.932057E-04
