 I_abs(s)[cm^-1]/c[mg/ml]
       0.00000          0.149346E-01
      0.500000E-02      0.148675E-01
      0.100000E-01      0.146683E-01
      0.150000E-01      0.143429E-01
      0.200000E-01      0.139009E-01
      0.250000E-01      0.133550E-01
      0.300000E-01      0.127204E-01
      0.350000E-01      0.120141E-01
      0.400000E-01      0.112540E-01
      0.450000E-01      0.104581E-01
      0.500000E-01      0.964416E-02
      0.550000E-01      0.882835E-02
      0.600000E-01      0.802527E-02
      0.650000E-01      0.724738E-02
      0.700000E-01      0.650479E-02
      0.750000E-01      0.580519E-02
      0.800000E-01      0.515394E-02
      0.850000E-01      0.455421E-02
      0.900000E-01      0.400731E-02
      0.950000E-01      0.351295E-02
      0.100000          0.306964E-02
      0.105000          0.267499E-02
      0.110000          0.232602E-02
      0.115000          0.201946E-02
      0.120000          0.175189E-02
      0.125000          0.151993E-02
      0.130000          0.132031E-02
      0.135000          0.114991E-02
      0.140000          0.100576E-02
      0.145000          0.885030E-03
      0.150000          0.785007E-03
      0.155000          0.703068E-03
      0.160000          0.636670E-03
      0.165000          0.583353E-03
      0.170000          0.540759E-03
      0.175000          0.506665E-03
      0.180000          0.479024E-03
      0.185000          0.456012E-03
      0.190000          0.436066E-03
      0.195000          0.417919E-03
      0.200000          0.400613E-03
      0.205000          0.383498E-03
      0.210000          0.366219E-03
      0.215000          0.348674E-03
      0.220000          0.330970E-03
      0.225000          0.313366E-03
      0.230000          0.296211E-03
      0.235000          0.279889E-03
      0.240000          0.264762E-03
      0.245000          0.251135E-03
      0.250000          0.239223E-03
      0.255000          0.229136E-03
      0.260000          0.220880E-03
      0.265000          0.214359E-03
      0.270000          0.209399E-03
      0.275000          0.205766E-03
      0.280000          0.203192E-03
      0.285000          0.201398E-03
      0.290000          0.200117E-03
      0.295000          0.199107E-03
      0.300000          0.198166E-03
      0.305000          0.197133E-03
      0.310000          0.195891E-03
      0.315000          0.194360E-03
      0.320000          0.192495E-03
      0.325000          0.190276E-03
      0.330000          0.187699E-03
      0.335000          0.184772E-03
      0.340000          0.181506E-03
      0.345000          0.177917E-03
      0.350000          0.174018E-03
      0.355000          0.169827E-03
      0.360000          0.165361E-03
      0.365000          0.160643E-03
      0.370000          0.155703E-03
      0.375000          0.150579E-03
      0.380000          0.145318E-03
      0.385000          0.139977E-03
      0.390000          0.134623E-03
      0.395000          0.129325E-03
      0.400000          0.124161E-03
      0.405000          0.119206E-03
      0.410000          0.114533E-03
      0.415000          0.110207E-03
      0.420000          0.106286E-03
      0.425000          0.102813E-03
      0.430000          0.998181E-04
      0.435000          0.973154E-04
      0.440000          0.953037E-04
      0.445000          0.937665E-04
      0.450000          0.926733E-04
      0.455000          0.919817E-04
      0.460000          0.916401E-04
      0.465000          0.915900E-04
      0.470000          0.917696E-04
      0.475000          0.921168E-04
      0.480000          0.925720E-04
      0.485000          0.930808E-04
      0.490000          0.935959E-04
      0.495000          0.940787E-04
      0.500000          0.944996E-04
