 I_abs(s)[cm^-1]/c[mg/ml]
       0.00000          0.146781E-01
      0.500000E-02      0.146209E-01
      0.100000E-01      0.144509E-01
      0.150000E-01      0.141723E-01
      0.200000E-01      0.137920E-01
      0.250000E-01      0.133191E-01
      0.300000E-01      0.127650E-01
      0.350000E-01      0.121423E-01
      0.400000E-01      0.114649E-01
      0.450000E-01      0.107470E-01
      0.500000E-01      0.100029E-01
      0.550000E-01      0.924652E-02
      0.600000E-01      0.849085E-02
      0.650000E-01      0.774764E-02
      0.700000E-01      0.702713E-02
      0.750000E-01      0.633790E-02
      0.800000E-01      0.568675E-02
      0.850000E-01      0.507865E-02
      0.900000E-01      0.451689E-02
      0.950000E-01      0.400315E-02
      0.100000          0.353770E-02
      0.105000          0.311962E-02
      0.110000          0.274700E-02
      0.115000          0.241722E-02
      0.120000          0.212715E-02
      0.125000          0.187336E-02
      0.130000          0.165230E-02
      0.135000          0.146042E-02
      0.140000          0.129434E-02
      0.145000          0.115085E-02
      0.150000          0.102704E-02
      0.155000          0.920262E-03
      0.160000          0.828167E-03
      0.165000          0.748689E-03
      0.170000          0.680021E-03
      0.175000          0.620597E-03
      0.180000          0.569059E-03
      0.185000          0.524241E-03
      0.190000          0.485140E-03
      0.195000          0.450900E-03
      0.200000          0.420797E-03
      0.205000          0.394224E-03
      0.210000          0.370676E-03
      0.215000          0.349745E-03
      0.220000          0.331102E-03
      0.225000          0.314485E-03
      0.230000          0.299688E-03
      0.235000          0.286546E-03
      0.240000          0.274922E-03
      0.245000          0.264689E-03
      0.250000          0.255728E-03
      0.255000          0.247912E-03
      0.260000          0.241100E-03
      0.265000          0.235140E-03
      0.270000          0.229866E-03
      0.275000          0.225101E-03
      0.280000          0.220666E-03
      0.285000          0.216385E-03
      0.290000          0.212098E-03
      0.295000          0.207666E-03
      0.300000          0.202979E-03
      0.305000          0.197963E-03
      0.310000          0.192583E-03
      0.315000          0.186841E-03
      0.320000          0.180776E-03
      0.325000          0.174462E-03
      0.330000          0.167995E-03
      0.335000          0.161488E-03
      0.340000          0.155064E-03
      0.345000          0.148845E-03
      0.350000          0.142942E-03
      0.355000          0.137452E-03
      0.360000          0.132450E-03
      0.365000          0.127986E-03
      0.370000          0.124085E-03
      0.375000          0.120744E-03
      0.380000          0.117940E-03
      0.385000          0.115628E-03
      0.390000          0.113748E-03
      0.395000          0.112230E-03
      0.400000          0.111000E-03
      0.405000          0.109982E-03
      0.410000          0.109105E-03
      0.415000          0.108305E-03
      0.420000          0.107528E-03
      0.425000          0.106732E-03
      0.430000          0.105886E-03
      0.435000          0.104971E-03
      0.440000          0.103977E-03
      0.445000          0.102905E-03
      0.450000          0.101761E-03
      0.455000          0.100557E-03
      0.460000          0.993079E-04
      0.465000          0.980303E-04
      0.470000          0.967396E-04
      0.475000          0.954503E-04
      0.480000          0.941742E-04
      0.485000          0.929205E-04
      0.490000          0.916957E-04
      0.495000          0.905032E-04
      0.500000          0.893442E-04
