 I_abs(s)[cm^-1]/c[mg/ml]
       0.00000          0.147020E-01
      0.500000E-02      0.146473E-01
      0.100000E-01      0.144846E-01
      0.150000E-01      0.142177E-01
      0.200000E-01      0.138530E-01
      0.250000E-01      0.133993E-01
      0.300000E-01      0.128668E-01
      0.350000E-01      0.122675E-01
      0.400000E-01      0.116141E-01
      0.450000E-01      0.109201E-01
      0.500000E-01      0.101989E-01
      0.550000E-01      0.946346E-02
      0.600000E-01      0.872598E-02
      0.650000E-01      0.799758E-02
      0.700000E-01      0.728799E-02
      0.750000E-01      0.660541E-02
      0.800000E-01      0.595638E-02
      0.850000E-01      0.534582E-02
      0.900000E-01      0.477707E-02
      0.950000E-01      0.425200E-02
      0.100000          0.377121E-02
      0.105000          0.333419E-02
      0.110000          0.293956E-02
      0.115000          0.258529E-02
      0.120000          0.226890E-02
      0.125000          0.198765E-02
      0.130000          0.173869E-02
      0.135000          0.151919E-02
      0.140000          0.132645E-02
      0.145000          0.115793E-02
      0.150000          0.101129E-02
      0.155000          0.884405E-03
      0.160000          0.775336E-03
      0.165000          0.682323E-03
      0.170000          0.603744E-03
      0.175000          0.538086E-03
      0.180000          0.483920E-03
      0.185000          0.439879E-03
      0.190000          0.404647E-03
      0.195000          0.376956E-03
      0.200000          0.355590E-03
      0.205000          0.339397E-03
      0.210000          0.327301E-03
      0.215000          0.318320E-03
      0.220000          0.311579E-03
      0.225000          0.306324E-03
      0.230000          0.301924E-03
      0.235000          0.297878E-03
      0.240000          0.293810E-03
      0.245000          0.289455E-03
      0.250000          0.284653E-03
      0.255000          0.279325E-03
      0.260000          0.273457E-03
      0.265000          0.267085E-03
      0.270000          0.260272E-03
      0.275000          0.253097E-03
      0.280000          0.245642E-03
      0.285000          0.237983E-03
      0.290000          0.230189E-03
      0.295000          0.222316E-03
      0.300000          0.214409E-03
      0.305000          0.206509E-03
      0.310000          0.198651E-03
      0.315000          0.190875E-03
      0.320000          0.183222E-03
      0.325000          0.175744E-03
      0.330000          0.168497E-03
      0.335000          0.161549E-03
      0.340000          0.154969E-03
      0.345000          0.148831E-03
      0.350000          0.143205E-03
      0.355000          0.138151E-03
      0.360000          0.133721E-03
      0.365000          0.129948E-03
      0.370000          0.126847E-03
      0.375000          0.124409E-03
      0.380000          0.122608E-03
      0.385000          0.121394E-03
      0.390000          0.120699E-03
      0.395000          0.120441E-03
      0.400000          0.120528E-03
      0.405000          0.120860E-03
      0.410000          0.121337E-03
      0.415000          0.121862E-03
      0.420000          0.122344E-03
      0.425000          0.122703E-03
      0.430000          0.122870E-03
      0.435000          0.122792E-03
      0.440000          0.122429E-03
      0.445000          0.121756E-03
      0.450000          0.120761E-03
      0.455000          0.119445E-03
      0.460000          0.117818E-03
      0.465000          0.115899E-03
      0.470000          0.113716E-03
      0.475000          0.111300E-03
      0.480000          0.108685E-03
      0.485000          0.105910E-03
      0.490000          0.103014E-03
      0.495000          0.100037E-03
      0.500000          0.970198E-04
