 I_abs(s)[cm^-1]/c[mg/ml]
       0.00000          0.147100E-01
      0.500000E-02      0.146541E-01
      0.100000E-01      0.144873E-01
      0.150000E-01      0.142133E-01
      0.200000E-01      0.138378E-01
      0.250000E-01      0.133687E-01
      0.300000E-01      0.128155E-01
      0.350000E-01      0.121893E-01
      0.400000E-01      0.115024E-01
      0.450000E-01      0.107680E-01
      0.500000E-01      0.999933E-02
      0.550000E-01      0.921004E-02
      0.600000E-01      0.841324E-02
      0.650000E-01      0.762144E-02
      0.700000E-01      0.684614E-02
      0.750000E-01      0.609763E-02
      0.800000E-01      0.538479E-02
      0.850000E-01      0.471494E-02
      0.900000E-01      0.409374E-02
      0.950000E-01      0.352524E-02
      0.100000          0.301184E-02
      0.105000          0.255446E-02
      0.110000          0.215258E-02
      0.115000          0.180449E-02
      0.120000          0.150743E-02
      0.125000          0.125783E-02
      0.130000          0.105149E-02
      0.135000          0.883816E-03
      0.140000          0.750008E-03
      0.145000          0.645245E-03
      0.150000          0.564839E-03
      0.155000          0.504370E-03
      0.160000          0.459788E-03
      0.165000          0.427484E-03
      0.170000          0.404334E-03
      0.175000          0.387718E-03
      0.180000          0.375513E-03
      0.185000          0.366064E-03
      0.190000          0.358148E-03
      0.195000          0.350914E-03
      0.200000          0.343825E-03
      0.205000          0.336598E-03
      0.210000          0.329139E-03
      0.215000          0.321483E-03
      0.220000          0.313748E-03
      0.225000          0.306085E-03
      0.230000          0.298646E-03
      0.235000          0.291562E-03
      0.240000          0.284918E-03
      0.245000          0.278755E-03
      0.250000          0.273060E-03
      0.255000          0.267779E-03
      0.260000          0.262820E-03
      0.265000          0.258068E-03
      0.270000          0.253397E-03
      0.275000          0.248685E-03
      0.280000          0.243821E-03
      0.285000          0.238721E-03
      0.290000          0.233330E-03
      0.295000          0.227629E-03
      0.300000          0.221636E-03
      0.305000          0.215401E-03
      0.310000          0.209006E-03
      0.315000          0.202556E-03
      0.320000          0.196174E-03
      0.325000          0.189989E-03
      0.330000          0.184129E-03
      0.335000          0.178715E-03
      0.340000          0.173848E-03
      0.345000          0.169609E-03
      0.350000          0.166051E-03
      0.355000          0.163197E-03
      0.360000          0.161039E-03
      0.365000          0.159538E-03
      0.370000          0.158629E-03
      0.375000          0.158220E-03
      0.380000          0.158201E-03
      0.385000          0.158451E-03
      0.390000          0.158837E-03
      0.395000          0.159228E-03
      0.400000          0.159496E-03
      0.405000          0.159523E-03
      0.410000          0.159207E-03
      0.415000          0.158464E-03
      0.420000          0.157232E-03
      0.425000          0.155473E-03
      0.430000          0.153171E-03
      0.435000          0.150336E-03
      0.440000          0.146998E-03
      0.445000          0.143209E-03
      0.450000          0.139035E-03
      0.455000          0.134556E-03
      0.460000          0.129864E-03
      0.465000          0.125051E-03
      0.470000          0.120214E-03
      0.475000          0.115445E-03
      0.480000          0.110831E-03
      0.485000          0.106449E-03
      0.490000          0.102362E-03
      0.495000          0.986221E-04
      0.500000          0.952654E-04
