 I_abs(s)[cm^-1]/c[mg/ml]
       0.00000          0.147660E-01
      0.500000E-02      0.147220E-01
      0.100000E-01      0.145907E-01
      0.150000E-01      0.143743E-01
      0.200000E-01      0.140765E-01
      0.250000E-01      0.137019E-01
      0.300000E-01      0.132568E-01
      0.350000E-01      0.127482E-01
      0.400000E-01      0.121841E-01
      0.450000E-01      0.115730E-01
      0.500000E-01      0.109241E-01
      0.550000E-01      0.102465E-01
      0.600000E-01      0.954978E-02
      0.650000E-01      0.884300E-02
      0.700000E-01      0.813503E-02
      0.750000E-01      0.743421E-02
      0.800000E-01      0.674820E-02
      0.850000E-01      0.608390E-02
      0.900000E-01      0.544729E-02
      0.950000E-01      0.484345E-02
      0.100000          0.427645E-02
      0.105000          0.374936E-02
      0.110000          0.326431E-02
      0.115000          0.282246E-02
      0.120000          0.242412E-02
      0.125000          0.206880E-02
      0.130000          0.175531E-02
      0.135000          0.148186E-02
      0.140000          0.124618E-02
      0.145000          0.104559E-02
      0.150000          0.877166E-03
      0.155000          0.737786E-03
      0.160000          0.624258E-03
      0.165000          0.533393E-03
      0.170000          0.462079E-03
      0.175000          0.407345E-03
      0.180000          0.366405E-03
      0.185000          0.336703E-03
      0.190000          0.315928E-03
      0.195000          0.302037E-03
      0.200000          0.293256E-03
      0.205000          0.288074E-03
      0.210000          0.285234E-03
      0.215000          0.283719E-03
      0.220000          0.282726E-03
      0.225000          0.281651E-03
      0.230000          0.280056E-03
      0.235000          0.277651E-03
      0.240000          0.274269E-03
      0.245000          0.269838E-03
      0.250000          0.264369E-03
      0.255000          0.257930E-03
      0.260000          0.250631E-03
      0.265000          0.242614E-03
      0.270000          0.234035E-03
      0.275000          0.225059E-03
      0.280000          0.215850E-03
      0.285000          0.206564E-03
      0.290000          0.197349E-03
      0.295000          0.188334E-03
      0.300000          0.179635E-03
      0.305000          0.171347E-03
      0.310000          0.163546E-03
      0.315000          0.156291E-03
      0.320000          0.149619E-03
      0.325000          0.143551E-03
      0.330000          0.138089E-03
      0.335000          0.133220E-03
      0.340000          0.128917E-03
      0.345000          0.125141E-03
      0.350000          0.121843E-03
      0.355000          0.118967E-03
      0.360000          0.116450E-03
      0.365000          0.114228E-03
      0.370000          0.112236E-03
      0.375000          0.110412E-03
      0.380000          0.108695E-03
      0.385000          0.107035E-03
      0.390000          0.105385E-03
      0.395000          0.103709E-03
      0.400000          0.101981E-03
      0.405000          0.100185E-03
      0.410000          0.983128E-04
      0.415000          0.963685E-04
      0.420000          0.943637E-04
      0.425000          0.923177E-04
      0.430000          0.902560E-04
      0.435000          0.882090E-04
      0.440000          0.862098E-04
      0.445000          0.842927E-04
      0.450000          0.824916E-04
      0.455000          0.808379E-04
      0.460000          0.793600E-04
      0.465000          0.780810E-04
      0.470000          0.770187E-04
      0.475000          0.761843E-04
      0.480000          0.755825E-04
      0.485000          0.752114E-04
      0.490000          0.750624E-04
      0.495000          0.751211E-04
      0.500000          0.753680E-04
