 I_abs(s)[cm^-1]/c[mg/ml]
       0.00000          0.147340E-01
      0.500000E-02      0.146953E-01
      0.100000E-01      0.145799E-01
      0.150000E-01      0.143893E-01
      0.200000E-01      0.141266E-01
      0.250000E-01      0.137954E-01
      0.300000E-01      0.134006E-01
      0.350000E-01      0.129479E-01
      0.400000E-01      0.124437E-01
      0.450000E-01      0.118948E-01
      0.500000E-01      0.113086E-01
      0.550000E-01      0.106929E-01
      0.600000E-01      0.100552E-01
      0.650000E-01      0.940337E-02
      0.700000E-01      0.874492E-02
      0.750000E-01      0.808706E-02
      0.800000E-01      0.743656E-02
      0.850000E-01      0.679965E-02
      0.900000E-01      0.618191E-02
      0.950000E-01      0.558825E-02
      0.100000          0.502279E-02
      0.105000          0.448890E-02
      0.110000          0.398917E-02
      0.115000          0.352541E-02
      0.120000          0.309870E-02
      0.125000          0.270941E-02
      0.130000          0.235729E-02
      0.135000          0.204153E-02
      0.140000          0.176080E-02
      0.145000          0.151340E-02
      0.150000          0.129726E-02
      0.155000          0.111010E-02
      0.160000          0.949465E-03
      0.165000          0.812797E-03
      0.170000          0.697533E-03
      0.175000          0.601141E-03
      0.180000          0.521184E-03
      0.185000          0.455357E-03
      0.190000          0.401521E-03
      0.195000          0.357728E-03
      0.200000          0.322235E-03
      0.205000          0.293510E-03
      0.210000          0.270233E-03
      0.215000          0.251288E-03
      0.220000          0.235750E-03
      0.225000          0.222870E-03
      0.230000          0.212057E-03
      0.235000          0.202855E-03
      0.240000          0.194924E-03
      0.245000          0.188017E-03
      0.250000          0.181962E-03
      0.255000          0.176642E-03
      0.260000          0.171979E-03
      0.265000          0.167920E-03
      0.270000          0.164425E-03
      0.275000          0.161459E-03
      0.280000          0.158985E-03
      0.285000          0.156960E-03
      0.290000          0.155330E-03
      0.295000          0.154033E-03
      0.300000          0.153001E-03
      0.305000          0.152156E-03
      0.310000          0.151419E-03
      0.315000          0.150709E-03
      0.320000          0.149947E-03
      0.325000          0.149060E-03
      0.330000          0.147985E-03
      0.335000          0.146667E-03
      0.340000          0.145066E-03
      0.345000          0.143152E-03
      0.350000          0.140911E-03
      0.355000          0.138344E-03
      0.360000          0.135463E-03
      0.365000          0.132292E-03
      0.370000          0.128867E-03
      0.375000          0.125231E-03
      0.380000          0.121434E-03
      0.385000          0.117530E-03
      0.390000          0.113576E-03
      0.395000          0.109630E-03
      0.400000          0.105746E-03
      0.405000          0.101977E-03
      0.410000          0.983710E-04
      0.415000          0.949687E-04
      0.420000          0.918056E-04
      0.425000          0.889096E-04
      0.430000          0.863011E-04
      0.435000          0.839931E-04
      0.440000          0.819913E-04
      0.445000          0.802945E-04
      0.450000          0.788953E-04
      0.455000          0.777806E-04
      0.460000          0.769327E-04
      0.465000          0.763299E-04
      0.470000          0.759473E-04
      0.475000          0.757581E-04
      0.480000          0.757337E-04
      0.485000          0.758453E-04
      0.490000          0.760639E-04
      0.495000          0.763615E-04
      0.500000          0.767112E-04
