 I_abs(s)[cm^-1]/c[mg/ml]
       0.00000          0.137824E-01
      0.500000E-02      0.137087E-01
      0.100000E-01      0.134898E-01
      0.150000E-01      0.131323E-01
      0.200000E-01      0.126470E-01
      0.250000E-01      0.120482E-01
      0.300000E-01      0.113532E-01
      0.350000E-01      0.105816E-01
      0.400000E-01      0.975460E-02
      0.450000E-01      0.889374E-02
      0.500000E-01      0.802045E-02
      0.550000E-01      0.715509E-02
      0.600000E-01      0.631626E-02
      0.650000E-01      0.552019E-02
      0.700000E-01      0.478032E-02
      0.750000E-01      0.410696E-02
      0.800000E-01      0.350719E-02
      0.850000E-01      0.298485E-02
      0.900000E-01      0.254068E-02
      0.950000E-01      0.217269E-02
      0.100000          0.187645E-02
      0.105000          0.164563E-02
      0.110000          0.147243E-02
      0.115000          0.134818E-02
      0.120000          0.126376E-02
      0.125000          0.121011E-02
      0.130000          0.117860E-02
      0.135000          0.116139E-02
      0.140000          0.115165E-02
      0.145000          0.114372E-02
      0.150000          0.113319E-02
      0.155000          0.111690E-02
      0.160000          0.109288E-02
      0.165000          0.106023E-02
      0.170000          0.101895E-02
      0.175000          0.969798E-03
      0.180000          0.914047E-03
      0.185000          0.853343E-03
      0.190000          0.789517E-03
      0.195000          0.724432E-03
      0.200000          0.659862E-03
      0.205000          0.597391E-03
      0.210000          0.538350E-03
      0.215000          0.483779E-03
      0.220000          0.434412E-03
      0.225000          0.390682E-03
      0.230000          0.352751E-03
      0.235000          0.320541E-03
      0.240000          0.293775E-03
      0.245000          0.272027E-03
      0.250000          0.254763E-03
      0.255000          0.241385E-03
      0.260000          0.231266E-03
      0.265000          0.223783E-03
      0.270000          0.218343E-03
      0.275000          0.214395E-03
      0.280000          0.211453E-03
      0.285000          0.209097E-03
      0.290000          0.206976E-03
      0.295000          0.204815E-03
      0.300000          0.202406E-03
      0.305000          0.199606E-03
      0.310000          0.196331E-03
      0.315000          0.192550E-03
      0.320000          0.188275E-03
      0.325000          0.183554E-03
      0.330000          0.178464E-03
      0.335000          0.173101E-03
      0.340000          0.167571E-03
      0.345000          0.161984E-03
      0.350000          0.156449E-03
      0.355000          0.151064E-03
      0.360000          0.145912E-03
      0.365000          0.141062E-03
      0.370000          0.136561E-03
      0.375000          0.132435E-03
      0.380000          0.128693E-03
      0.385000          0.125323E-03
      0.390000          0.122298E-03
      0.395000          0.119580E-03
      0.400000          0.117121E-03
      0.405000          0.114870E-03
      0.410000          0.112776E-03
      0.415000          0.110788E-03
      0.420000          0.108863E-03
      0.425000          0.106968E-03
      0.430000          0.105076E-03
      0.435000          0.103174E-03
      0.440000          0.101255E-03
      0.445000          0.993251E-04
      0.450000          0.973967E-04
      0.455000          0.954888E-04
      0.460000          0.936247E-04
      0.465000          0.918300E-04
      0.470000          0.901305E-04
      0.475000          0.885504E-04
      0.480000          0.871107E-04
      0.485000          0.858280E-04
      0.490000          0.847136E-04
      0.495000          0.837726E-04
      0.500000          0.830041E-04
