 I_abs(s)[cm^-1]/c[mg/ml]
       0.00000          0.147740E-01
      0.500000E-02      0.147348E-01
      0.100000E-01      0.146178E-01
      0.150000E-01      0.144246E-01
      0.200000E-01      0.141584E-01
      0.250000E-01      0.138229E-01
      0.300000E-01      0.134233E-01
      0.350000E-01      0.129652E-01
      0.400000E-01      0.124552E-01
      0.450000E-01      0.119004E-01
      0.500000E-01      0.113083E-01
      0.550000E-01      0.106868E-01
      0.600000E-01      0.100436E-01
      0.650000E-01      0.938666E-02
      0.700000E-01      0.872349E-02
      0.750000E-01      0.806136E-02
      0.800000E-01      0.740704E-02
      0.850000E-01      0.676674E-02
      0.900000E-01      0.614599E-02
      0.950000E-01      0.554961E-02
      0.100000          0.498165E-02
      0.105000          0.444539E-02
      0.110000          0.394332E-02
      0.115000          0.347716E-02
      0.120000          0.304791E-02
      0.125000          0.265592E-02
      0.130000          0.230088E-02
      0.135000          0.198199E-02
      0.140000          0.169796E-02
      0.145000          0.144711E-02
      0.150000          0.122749E-02
      0.155000          0.103689E-02
      0.160000          0.872987E-03
      0.165000          0.733356E-03
      0.170000          0.615563E-03
      0.175000          0.517210E-03
      0.180000          0.435978E-03
      0.185000          0.369668E-03
      0.190000          0.316224E-03
      0.195000          0.273751E-03
      0.200000          0.240531E-03
      0.205000          0.215024E-03
      0.210000          0.195869E-03
      0.215000          0.181876E-03
      0.220000          0.172017E-03
      0.225000          0.165417E-03
      0.230000          0.161335E-03
      0.235000          0.159153E-03
      0.240000          0.158362E-03
      0.245000          0.158543E-03
      0.250000          0.159359E-03
      0.255000          0.160539E-03
      0.260000          0.161868E-03
      0.265000          0.163180E-03
      0.270000          0.164345E-03
      0.275000          0.165266E-03
      0.280000          0.165875E-03
      0.285000          0.166123E-03
      0.290000          0.165983E-03
      0.295000          0.165439E-03
      0.300000          0.164494E-03
      0.305000          0.163157E-03
      0.310000          0.161450E-03
      0.315000          0.159401E-03
      0.320000          0.157044E-03
      0.325000          0.154418E-03
      0.330000          0.151564E-03
      0.335000          0.148527E-03
      0.340000          0.145349E-03
      0.345000          0.142073E-03
      0.350000          0.138739E-03
      0.355000          0.135386E-03
      0.360000          0.132047E-03
      0.365000          0.128753E-03
      0.370000          0.125528E-03
      0.375000          0.122394E-03
      0.380000          0.119368E-03
      0.385000          0.116462E-03
      0.390000          0.113685E-03
      0.395000          0.111042E-03
      0.400000          0.108535E-03
      0.405000          0.106165E-03
      0.410000          0.103929E-03
      0.415000          0.101825E-03
      0.420000          0.998468E-04
      0.425000          0.979895E-04
      0.430000          0.962469E-04
      0.435000          0.946125E-04
      0.440000          0.930794E-04
      0.445000          0.916406E-04
      0.450000          0.902887E-04
      0.455000          0.890165E-04
      0.460000          0.878163E-04
      0.465000          0.866806E-04
      0.470000          0.856019E-04
      0.475000          0.845727E-04
      0.480000          0.835858E-04
      0.485000          0.826344E-04
      0.490000          0.817120E-04
      0.495000          0.808132E-04
      0.500000          0.799331E-04
