 I_abs(s)[cm^-1]/c[mg/ml]
       0.00000          0.150556E-01
      0.500000E-02      0.149853E-01
      0.100000E-01      0.147763E-01
      0.150000E-01      0.144342E-01
      0.200000E-01      0.139681E-01
      0.250000E-01      0.133901E-01
      0.300000E-01      0.127152E-01
      0.350000E-01      0.119601E-01
      0.400000E-01      0.111430E-01
      0.450000E-01      0.102829E-01
      0.500000E-01      0.939872E-02
      0.550000E-01      0.850869E-02
      0.600000E-01      0.762988E-02
      0.650000E-01      0.677762E-02
      0.700000E-01      0.596513E-02
      0.750000E-01      0.520321E-02
      0.800000E-01      0.450012E-02
      0.850000E-01      0.386153E-02
      0.900000E-01      0.329062E-02
      0.950000E-01      0.278820E-02
      0.100000          0.235304E-02
      0.105000          0.198214E-02
      0.110000          0.167108E-02
      0.115000          0.141443E-02
      0.120000          0.120608E-02
      0.125000          0.103959E-02
      0.130000          0.908517E-03
      0.135000          0.806642E-03
      0.140000          0.728202E-03
      0.145000          0.668025E-03
      0.150000          0.621627E-03
      0.155000          0.585248E-03
      0.160000          0.555851E-03
      0.165000          0.531084E-03
      0.170000          0.509207E-03
      0.175000          0.489012E-03
      0.180000          0.469728E-03
      0.185000          0.450921E-03
      0.190000          0.432410E-03
      0.195000          0.414186E-03
      0.200000          0.396338E-03
      0.205000          0.379008E-03
      0.210000          0.362347E-03
      0.215000          0.346491E-03
      0.220000          0.331546E-03
      0.225000          0.317582E-03
      0.230000          0.304635E-03
      0.235000          0.292709E-03
      0.240000          0.281788E-03
      0.245000          0.271837E-03
      0.250000          0.262813E-03
      0.255000          0.254666E-03
      0.260000          0.247343E-03
      0.265000          0.240790E-03
      0.270000          0.234950E-03
      0.275000          0.229760E-03
      0.280000          0.225157E-03
      0.285000          0.221068E-03
      0.290000          0.217417E-03
      0.295000          0.214120E-03
      0.300000          0.211093E-03
      0.305000          0.208249E-03
      0.310000          0.205503E-03
      0.315000          0.202776E-03
      0.320000          0.200000E-03
      0.325000          0.197117E-03
      0.330000          0.194084E-03
      0.335000          0.190871E-03
      0.340000          0.187467E-03
      0.345000          0.183871E-03
      0.350000          0.180099E-03
      0.355000          0.176175E-03
      0.360000          0.172129E-03
      0.365000          0.167997E-03
      0.370000          0.163815E-03
      0.375000          0.159620E-03
      0.380000          0.155444E-03
      0.385000          0.151313E-03
      0.390000          0.147252E-03
      0.395000          0.143275E-03
      0.400000          0.139398E-03
      0.405000          0.135628E-03
      0.410000          0.131972E-03
      0.415000          0.128435E-03
      0.420000          0.125023E-03
      0.425000          0.121743E-03
      0.430000          0.118602E-03
      0.435000          0.115610E-03
      0.440000          0.112777E-03
      0.445000          0.110116E-03
      0.450000          0.107638E-03
      0.455000          0.105353E-03
      0.460000          0.103270E-03
      0.465000          0.101393E-03
      0.470000          0.997222E-04
      0.475000          0.982533E-04
      0.480000          0.969761E-04
      0.485000          0.958757E-04
      0.490000          0.949324E-04
      0.495000          0.941226E-04
      0.500000          0.934204E-04
