 I_abs(s)[cm^-1]/c[mg/ml]
       0.00000          0.148783E-01
      0.500000E-02      0.148353E-01
      0.100000E-01      0.147069E-01
      0.150000E-01      0.144953E-01
      0.200000E-01      0.142038E-01
      0.250000E-01      0.138371E-01
      0.300000E-01      0.134009E-01
      0.350000E-01      0.129021E-01
      0.400000E-01      0.123480E-01
      0.450000E-01      0.117471E-01
      0.500000E-01      0.111079E-01
      0.550000E-01      0.104395E-01
      0.600000E-01      0.975095E-02
      0.650000E-01      0.905107E-02
      0.700000E-01      0.834854E-02
      0.750000E-01      0.765151E-02
      0.800000E-01      0.696757E-02
      0.850000E-01      0.630355E-02
      0.900000E-01      0.566548E-02
      0.950000E-01      0.505849E-02
      0.100000          0.448677E-02
      0.105000          0.395356E-02
      0.110000          0.346115E-02
      0.115000          0.301092E-02
      0.120000          0.260338E-02
      0.125000          0.223826E-02
      0.130000          0.191454E-02
      0.135000          0.163063E-02
      0.140000          0.138440E-02
      0.145000          0.117332E-02
      0.150000          0.994545E-03
      0.155000          0.845045E-03
      0.160000          0.721673E-03
      0.165000          0.621270E-03
      0.170000          0.540735E-03
      0.175000          0.477093E-03
      0.180000          0.427553E-03
      0.185000          0.389545E-03
      0.190000          0.360752E-03
      0.195000          0.339127E-03
      0.200000          0.322901E-03
      0.205000          0.310581E-03
      0.210000          0.300939E-03
      0.215000          0.292993E-03
      0.220000          0.285990E-03
      0.225000          0.279374E-03
      0.230000          0.272764E-03
      0.235000          0.265922E-03
      0.240000          0.258727E-03
      0.245000          0.251148E-03
      0.250000          0.243220E-03
      0.255000          0.235021E-03
      0.260000          0.226656E-03
      0.265000          0.218239E-03
      0.270000          0.209884E-03
      0.275000          0.201693E-03
      0.280000          0.193755E-03
      0.285000          0.186137E-03
      0.290000          0.178887E-03
      0.295000          0.172031E-03
      0.300000          0.165579E-03
      0.305000          0.159526E-03
      0.310000          0.153852E-03
      0.315000          0.148531E-03
      0.320000          0.143531E-03
      0.325000          0.138818E-03
      0.330000          0.134357E-03
      0.335000          0.130118E-03
      0.340000          0.126074E-03
      0.345000          0.122202E-03
      0.350000          0.118488E-03
      0.355000          0.114918E-03
      0.360000          0.111489E-03
      0.365000          0.108199E-03
      0.370000          0.105048E-03
      0.375000          0.102043E-03
      0.380000          0.991869E-04
      0.385000          0.964868E-04
      0.390000          0.939474E-04
      0.395000          0.915723E-04
      0.400000          0.893632E-04
      0.405000          0.873194E-04
      0.410000          0.854379E-04
      0.415000          0.837131E-04
      0.420000          0.821372E-04
      0.425000          0.807006E-04
      0.430000          0.793921E-04
      0.435000          0.781996E-04
      0.440000          0.771105E-04
      0.445000          0.761124E-04
      0.450000          0.751932E-04
      0.455000          0.743424E-04
      0.460000          0.735507E-04
      0.465000          0.728107E-04
      0.470000          0.721170E-04
      0.475000          0.714665E-04
      0.480000          0.708582E-04
      0.485000          0.702934E-04
      0.490000          0.697753E-04
      0.495000          0.693089E-04
      0.500000          0.689008E-04
