 I_abs(s)[cm^-1]/c[mg/ml]
       0.00000          0.147660E-01
      0.500000E-02      0.147253E-01
      0.100000E-01      0.146038E-01
      0.150000E-01      0.144034E-01
      0.200000E-01      0.141273E-01
      0.250000E-01      0.137798E-01
      0.300000E-01      0.133662E-01
      0.350000E-01      0.128927E-01
      0.400000E-01      0.123665E-01
      0.450000E-01      0.117951E-01
      0.500000E-01      0.111866E-01
      0.550000E-01      0.105493E-01
      0.600000E-01      0.989164E-02
      0.650000E-01      0.922183E-02
      0.700000E-01      0.854791E-02
      0.750000E-01      0.787749E-02
      0.800000E-01      0.721759E-02
      0.850000E-01      0.657461E-02
      0.900000E-01      0.595418E-02
      0.950000E-01      0.536112E-02
      0.100000          0.479939E-02
      0.105000          0.427210E-02
      0.110000          0.378147E-02
      0.115000          0.332891E-02
      0.120000          0.291505E-02
      0.125000          0.253979E-02
      0.130000          0.220239E-02
      0.135000          0.190158E-02
      0.140000          0.163560E-02
      0.145000          0.140235E-02
      0.150000          0.119944E-02
      0.155000          0.102431E-02
      0.160000          0.874324E-03
      0.165000          0.746799E-03
      0.170000          0.639124E-03
      0.175000          0.548791E-03
      0.180000          0.473442E-03
      0.185000          0.410909E-03
      0.190000          0.359232E-03
      0.195000          0.316670E-03
      0.200000          0.281709E-03
      0.205000          0.253050E-03
      0.210000          0.229603E-03
      0.215000          0.210466E-03
      0.220000          0.194903E-03
      0.225000          0.182327E-03
      0.230000          0.172268E-03
      0.235000          0.164356E-03
      0.240000          0.158294E-03
      0.245000          0.153842E-03
      0.250000          0.150797E-03
      0.255000          0.148980E-03
      0.260000          0.148224E-03
      0.265000          0.148366E-03
      0.270000          0.149246E-03
      0.275000          0.150700E-03
      0.280000          0.152562E-03
      0.285000          0.154668E-03
      0.290000          0.156857E-03
      0.295000          0.158974E-03
      0.300000          0.160878E-03
      0.305000          0.162443E-03
      0.310000          0.163562E-03
      0.315000          0.164153E-03
      0.320000          0.164156E-03
      0.325000          0.163537E-03
      0.330000          0.162289E-03
      0.335000          0.160427E-03
      0.340000          0.157988E-03
      0.345000          0.155029E-03
      0.350000          0.151621E-03
      0.355000          0.147847E-03
      0.360000          0.143797E-03
      0.365000          0.139563E-03
      0.370000          0.135236E-03
      0.375000          0.130905E-03
      0.380000          0.126648E-03
      0.385000          0.122534E-03
      0.390000          0.118621E-03
      0.395000          0.114954E-03
      0.400000          0.111564E-03
      0.405000          0.108469E-03
      0.410000          0.105674E-03
      0.415000          0.103173E-03
      0.420000          0.100950E-03
      0.425000          0.989830E-04
      0.430000          0.972413E-04
      0.435000          0.956918E-04
      0.440000          0.942991E-04
      0.445000          0.930278E-04
      0.450000          0.918440E-04
      0.455000          0.907165E-04
      0.460000          0.896183E-04
      0.465000          0.885270E-04
      0.470000          0.874258E-04
      0.475000          0.863029E-04
      0.480000          0.851523E-04
      0.485000          0.839726E-04
      0.490000          0.827672E-04
      0.495000          0.815434E-04
      0.500000          0.803112E-04
