 I_abs(s)[cm^-1]/c[mg/ml]
       0.00000          0.146302E-01
      0.500000E-02      0.145909E-01
      0.100000E-01      0.144736E-01
      0.150000E-01      0.142800E-01
      0.200000E-01      0.140130E-01
      0.250000E-01      0.136766E-01
      0.300000E-01      0.132757E-01
      0.350000E-01      0.128162E-01
      0.400000E-01      0.123045E-01
      0.450000E-01      0.117479E-01
      0.500000E-01      0.111537E-01
      0.550000E-01      0.105299E-01
      0.600000E-01      0.988426E-02
      0.650000E-01      0.922477E-02
      0.700000E-01      0.855905E-02
      0.750000E-01      0.789442E-02
      0.800000E-01      0.723777E-02
      0.850000E-01      0.659538E-02
      0.900000E-01      0.597292E-02
      0.950000E-01      0.537531E-02
      0.100000          0.480674E-02
      0.105000          0.427058E-02
      0.110000          0.376944E-02
      0.115000          0.330514E-02
      0.120000          0.287878E-02
      0.125000          0.249074E-02
      0.130000          0.214080E-02
      0.135000          0.182816E-02
      0.140000          0.155152E-02
      0.145000          0.130919E-02
      0.150000          0.109914E-02
      0.155000          0.919115E-03
      0.160000          0.766658E-03
      0.165000          0.639229E-03
      0.170000          0.534248E-03
      0.175000          0.449153E-03
      0.180000          0.381457E-03
      0.185000          0.328778E-03
      0.190000          0.288878E-03
      0.195000          0.259684E-03
      0.200000          0.239301E-03
      0.205000          0.226025E-03
      0.210000          0.218343E-03
      0.215000          0.214931E-03
      0.220000          0.214647E-03
      0.225000          0.216521E-03
      0.230000          0.219743E-03
      0.235000          0.223649E-03
      0.240000          0.227705E-03
      0.245000          0.231494E-03
      0.250000          0.234700E-03
      0.255000          0.237098E-03
      0.260000          0.238534E-03
      0.265000          0.238921E-03
      0.270000          0.238223E-03
      0.275000          0.236448E-03
      0.280000          0.233638E-03
      0.285000          0.229864E-03
      0.290000          0.225219E-03
      0.295000          0.219808E-03
      0.300000          0.213750E-03
      0.305000          0.207168E-03
      0.310000          0.200188E-03
      0.315000          0.192933E-03
      0.320000          0.185524E-03
      0.325000          0.178071E-03
      0.330000          0.170679E-03
      0.335000          0.163436E-03
      0.340000          0.156423E-03
      0.345000          0.149702E-03
      0.350000          0.143324E-03
      0.355000          0.137324E-03
      0.360000          0.131725E-03
      0.365000          0.126534E-03
      0.370000          0.121748E-03
      0.375000          0.117354E-03
      0.380000          0.113328E-03
      0.385000          0.109641E-03
      0.390000          0.106260E-03
      0.395000          0.103147E-03
      0.400000          0.100265E-03
      0.405000          0.975765E-04
      0.410000          0.950481E-04
      0.415000          0.926491E-04
      0.420000          0.903535E-04
      0.425000          0.881411E-04
      0.430000          0.859972E-04
      0.435000          0.839130E-04
      0.440000          0.818852E-04
      0.445000          0.799156E-04
      0.450000          0.780101E-04
      0.455000          0.761783E-04
      0.460000          0.744320E-04
      0.465000          0.727848E-04
      0.470000          0.712503E-04
      0.475000          0.698420E-04
      0.480000          0.685719E-04
      0.485000          0.674500E-04
      0.490000          0.664834E-04
      0.495000          0.656765E-04
      0.500000          0.650302E-04
