 I_abs(s)[cm^-1]/c[mg/ml]
       0.00000          0.145348E-01
      0.500000E-02      0.144830E-01
      0.100000E-01      0.143289E-01
      0.150000E-01      0.140756E-01
      0.200000E-01      0.137284E-01
      0.250000E-01      0.132946E-01
      0.300000E-01      0.127829E-01
      0.350000E-01      0.122034E-01
      0.400000E-01      0.115674E-01
      0.450000E-01      0.108867E-01
      0.500000E-01      0.101735E-01
      0.550000E-01      0.944005E-02
      0.600000E-01      0.869810E-02
      0.650000E-01      0.795885E-02
      0.700000E-01      0.723256E-02
      0.750000E-01      0.652835E-02
      0.800000E-01      0.585407E-02
      0.850000E-01      0.521614E-02
      0.900000E-01      0.461954E-02
      0.950000E-01      0.406783E-02
      0.100000          0.356315E-02
      0.105000          0.310638E-02
      0.110000          0.269721E-02
      0.115000          0.233435E-02
      0.120000          0.201565E-02
      0.125000          0.173836E-02
      0.130000          0.149921E-02
      0.135000          0.129468E-02
      0.140000          0.112108E-02
      0.145000          0.974750E-03
      0.150000          0.852133E-03
      0.155000          0.749887E-03
      0.160000          0.664940E-03
      0.165000          0.594540E-03
      0.170000          0.536272E-03
      0.175000          0.488058E-03
      0.180000          0.448143E-03
      0.185000          0.415070E-03
      0.190000          0.387644E-03
      0.195000          0.364896E-03
      0.200000          0.346042E-03
      0.205000          0.330446E-03
      0.210000          0.317585E-03
      0.215000          0.307022E-03
      0.220000          0.298379E-03
      0.225000          0.291326E-03
      0.230000          0.285562E-03
      0.235000          0.280814E-03
      0.240000          0.276832E-03
      0.245000          0.273390E-03
      0.250000          0.270287E-03
      0.255000          0.267350E-03
      0.260000          0.264439E-03
      0.265000          0.261443E-03
      0.270000          0.258287E-03
      0.275000          0.254924E-03
      0.280000          0.251337E-03
      0.285000          0.247530E-03
      0.290000          0.243529E-03
      0.295000          0.239368E-03
      0.300000          0.235089E-03
      0.305000          0.230734E-03
      0.310000          0.226338E-03
      0.315000          0.221929E-03
      0.320000          0.217526E-03
      0.325000          0.213132E-03
      0.330000          0.208740E-03
      0.335000          0.204336E-03
      0.340000          0.199894E-03
      0.345000          0.195389E-03
      0.350000          0.190793E-03
      0.355000          0.186086E-03
      0.360000          0.181250E-03
      0.365000          0.176283E-03
      0.370000          0.171191E-03
      0.375000          0.165996E-03
      0.380000          0.160732E-03
      0.385000          0.155443E-03
      0.390000          0.150184E-03
      0.395000          0.145017E-03
      0.400000          0.140008E-03
      0.405000          0.135218E-03
      0.410000          0.130710E-03
      0.415000          0.126535E-03
      0.420000          0.122734E-03
      0.425000          0.119338E-03
      0.430000          0.116359E-03
      0.435000          0.113798E-03
      0.440000          0.111639E-03
      0.445000          0.109854E-03
      0.450000          0.108402E-03
      0.455000          0.107234E-03
      0.460000          0.106292E-03
      0.465000          0.105517E-03
      0.470000          0.104849E-03
      0.475000          0.104230E-03
      0.480000          0.103608E-03
      0.485000          0.102937E-03
      0.490000          0.102183E-03
      0.495000          0.101318E-03
      0.500000          0.100328E-03
