 I_abs(s)[cm^-1]/c[mg/ml]
       0.00000          0.147260E-01
      0.500000E-02      0.146864E-01
      0.100000E-01      0.145682E-01
      0.150000E-01      0.143733E-01
      0.200000E-01      0.141046E-01
      0.250000E-01      0.137662E-01
      0.300000E-01      0.133634E-01
      0.350000E-01      0.129020E-01
      0.400000E-01      0.123887E-01
      0.450000E-01      0.118310E-01
      0.500000E-01      0.112364E-01
      0.550000E-01      0.106131E-01
      0.600000E-01      0.996899E-02
      0.650000E-01      0.931212E-02
      0.700000E-01      0.865020E-02
      0.750000E-01      0.799057E-02
      0.800000E-01      0.734007E-02
      0.850000E-01      0.670491E-02
      0.900000E-01      0.609060E-02
      0.950000E-01      0.550189E-02
      0.100000          0.494273E-02
      0.105000          0.441624E-02
      0.110000          0.392474E-02
      0.115000          0.346976E-02
      0.120000          0.305206E-02
      0.125000          0.267175E-02
      0.130000          0.232830E-02
      0.135000          0.202066E-02
      0.140000          0.174730E-02
      0.145000          0.150635E-02
      0.150000          0.129565E-02
      0.155000          0.111285E-02
      0.160000          0.955487E-03
      0.165000          0.821051E-03
      0.170000          0.707050E-03
      0.175000          0.611071E-03
      0.180000          0.530812E-03
      0.185000          0.464125E-03
      0.190000          0.409038E-03
      0.195000          0.363763E-03
      0.200000          0.326712E-03
      0.205000          0.296491E-03
      0.210000          0.271892E-03
      0.215000          0.251885E-03
      0.220000          0.235602E-03
      0.225000          0.222320E-03
      0.230000          0.211442E-03
      0.235000          0.202481E-03
      0.240000          0.195041E-03
      0.245000          0.188800E-03
      0.250000          0.183499E-03
      0.255000          0.178927E-03
      0.260000          0.174911E-03
      0.265000          0.171309E-03
      0.270000          0.168003E-03
      0.275000          0.164895E-03
      0.280000          0.161905E-03
      0.285000          0.158968E-03
      0.290000          0.156032E-03
      0.295000          0.153058E-03
      0.300000          0.150021E-03
      0.305000          0.146909E-03
      0.310000          0.143719E-03
      0.315000          0.140462E-03
      0.320000          0.137155E-03
      0.325000          0.133824E-03
      0.330000          0.130500E-03
      0.335000          0.127217E-03
      0.340000          0.124011E-03
      0.345000          0.120916E-03
      0.350000          0.117961E-03
      0.355000          0.115172E-03
      0.360000          0.112566E-03
      0.365000          0.110154E-03
      0.370000          0.107939E-03
      0.375000          0.105913E-03
      0.380000          0.104063E-03
      0.385000          0.102369E-03
      0.390000          0.100803E-03
      0.395000          0.993345E-04
      0.400000          0.979322E-04
      0.405000          0.965627E-04
      0.410000          0.951946E-04
      0.415000          0.937998E-04
      0.420000          0.923548E-04
      0.425000          0.908421E-04
      0.430000          0.892506E-04
      0.435000          0.875769E-04
      0.440000          0.858246E-04
      0.445000          0.840044E-04
      0.450000          0.821334E-04
      0.455000          0.802343E-04
      0.460000          0.783342E-04
      0.465000          0.764629E-04
      0.470000          0.746523E-04
      0.475000          0.729338E-04
      0.480000          0.713378E-04
      0.485000          0.698919E-04
      0.490000          0.686200E-04
      0.495000          0.675408E-04
      0.500000          0.666678E-04
