 I_abs(s)[cm^-1]/c[mg/ml]
       0.00000          0.143369E-01
      0.500000E-02      0.142742E-01
      0.100000E-01      0.140876E-01
      0.150000E-01      0.137821E-01
      0.200000E-01      0.133657E-01
      0.250000E-01      0.128490E-01
      0.300000E-01      0.122451E-01
      0.350000E-01      0.115686E-01
      0.400000E-01      0.108357E-01
      0.450000E-01      0.100628E-01
      0.500000E-01      0.926667E-02
      0.550000E-01      0.846332E-02
      0.600000E-01      0.766776E-02
      0.650000E-01      0.689348E-02
      0.700000E-01      0.615212E-02
      0.750000E-01      0.545325E-02
      0.800000E-01      0.480417E-02
      0.850000E-01      0.420994E-02
      0.900000E-01      0.367343E-02
      0.950000E-01      0.319548E-02
      0.100000          0.277514E-02
      0.105000          0.240991E-02
      0.110000          0.209611E-02
      0.115000          0.182921E-02
      0.120000          0.160408E-02
      0.125000          0.141539E-02
      0.130000          0.125782E-02
      0.135000          0.112630E-02
      0.140000          0.101616E-02
      0.145000          0.923300E-03
      0.150000          0.844204E-03
      0.155000          0.775989E-03
      0.160000          0.716374E-03
      0.165000          0.663629E-03
      0.170000          0.616496E-03
      0.175000          0.574105E-03
      0.180000          0.535874E-03
      0.185000          0.501420E-03
      0.190000          0.470481E-03
      0.195000          0.442847E-03
      0.200000          0.418307E-03
      0.205000          0.396625E-03
      0.210000          0.377517E-03
      0.215000          0.360653E-03
      0.220000          0.345670E-03
      0.225000          0.332187E-03
      0.230000          0.319832E-03
      0.235000          0.308261E-03
      0.240000          0.297184E-03
      0.245000          0.286377E-03
      0.250000          0.275696E-03
      0.255000          0.265074E-03
      0.260000          0.254521E-03
      0.265000          0.244114E-03
      0.270000          0.233975E-03
      0.275000          0.224260E-03
      0.280000          0.215136E-03
      0.285000          0.206762E-03
      0.290000          0.199271E-03
      0.295000          0.192759E-03
      0.300000          0.187274E-03
      0.305000          0.182815E-03
      0.310000          0.179329E-03
      0.315000          0.176716E-03
      0.320000          0.174843E-03
      0.325000          0.173547E-03
      0.330000          0.172653E-03
      0.335000          0.171983E-03
      0.340000          0.171370E-03
      0.345000          0.170666E-03
      0.350000          0.169751E-03
      0.355000          0.168536E-03
      0.360000          0.166966E-03
      0.365000          0.165022E-03
      0.370000          0.162711E-03
      0.375000          0.160069E-03
      0.380000          0.157149E-03
      0.385000          0.154016E-03
      0.390000          0.150743E-03
      0.395000          0.147399E-03
      0.400000          0.144050E-03
      0.405000          0.140750E-03
      0.410000          0.137542E-03
      0.415000          0.134454E-03
      0.420000          0.131502E-03
      0.425000          0.128688E-03
      0.430000          0.126007E-03
      0.435000          0.123444E-03
      0.440000          0.120983E-03
      0.445000          0.118603E-03
      0.450000          0.116288E-03
      0.455000          0.114025E-03
      0.460000          0.111802E-03
      0.465000          0.109617E-03
      0.470000          0.107470E-03
      0.475000          0.105367E-03
      0.480000          0.103317E-03
      0.485000          0.101330E-03
      0.490000          0.994179E-04
      0.495000          0.975889E-04
      0.500000          0.958503E-04
