 I_abs(s)[cm^-1]/c[mg/ml]
       0.00000          0.146302E-01
      0.500000E-02      0.145916E-01
      0.100000E-01      0.144763E-01
      0.150000E-01      0.142861E-01
      0.200000E-01      0.140237E-01
      0.250000E-01      0.136931E-01
      0.300000E-01      0.132991E-01
      0.350000E-01      0.128474E-01
      0.400000E-01      0.123444E-01
      0.450000E-01      0.117970E-01
      0.500000E-01      0.112127E-01
      0.550000E-01      0.105991E-01
      0.600000E-01      0.996399E-02
      0.650000E-01      0.931511E-02
      0.700000E-01      0.866000E-02
      0.750000E-01      0.800588E-02
      0.800000E-01      0.735952E-02
      0.850000E-01      0.672712E-02
      0.900000E-01      0.611426E-02
      0.950000E-01      0.552580E-02
      0.100000          0.496582E-02
      0.105000          0.443765E-02
      0.110000          0.394381E-02
      0.115000          0.348606E-02
      0.120000          0.306541E-02
      0.125000          0.268218E-02
      0.130000          0.233604E-02
      0.135000          0.202611E-02
      0.140000          0.175102E-02
      0.145000          0.150897E-02
      0.150000          0.129787E-02
      0.155000          0.111538E-02
      0.160000          0.958997E-03
      0.165000          0.826131E-03
      0.170000          0.714187E-03
      0.175000          0.620614E-03
      0.180000          0.542958E-03
      0.185000          0.478905E-03
      0.190000          0.426315E-03
      0.195000          0.383245E-03
      0.200000          0.347962E-03
      0.205000          0.318950E-03
      0.210000          0.294908E-03
      0.215000          0.274744E-03
      0.220000          0.257560E-03
      0.225000          0.242640E-03
      0.230000          0.229423E-03
      0.235000          0.217491E-03
      0.240000          0.206542E-03
      0.245000          0.196369E-03
      0.250000          0.186842E-03
      0.255000          0.177887E-03
      0.260000          0.169472E-03
      0.265000          0.161589E-03
      0.270000          0.154247E-03
      0.275000          0.147457E-03
      0.280000          0.141229E-03
      0.285000          0.135567E-03
      0.290000          0.130465E-03
      0.295000          0.125904E-03
      0.300000          0.121858E-03
      0.305000          0.118288E-03
      0.310000          0.115149E-03
      0.315000          0.112391E-03
      0.320000          0.109960E-03
      0.325000          0.107802E-03
      0.330000          0.105867E-03
      0.335000          0.104104E-03
      0.340000          0.102471E-03
      0.345000          0.100932E-03
      0.350000          0.994553E-04
      0.355000          0.980184E-04
      0.360000          0.966043E-04
      0.365000          0.952025E-04
      0.370000          0.938076E-04
      0.375000          0.924187E-04
      0.380000          0.910383E-04
      0.385000          0.896714E-04
      0.390000          0.883242E-04
      0.395000          0.870037E-04
      0.400000          0.857166E-04
      0.405000          0.844689E-04
      0.410000          0.832658E-04
      0.415000          0.821106E-04
      0.420000          0.810057E-04
      0.425000          0.799517E-04
      0.430000          0.789483E-04
      0.435000          0.779940E-04
      0.440000          0.770865E-04
      0.445000          0.762234E-04
      0.450000          0.754019E-04
      0.455000          0.746194E-04
      0.460000          0.738739E-04
      0.465000          0.731638E-04
      0.470000          0.724885E-04
      0.475000          0.718479E-04
      0.480000          0.712428E-04
      0.485000          0.706749E-04
      0.490000          0.701463E-04
      0.495000          0.696596E-04
      0.500000          0.692177E-04
