 I_abs(s)[cm^-1]/c[mg/ml]
       0.00000          0.145348E-01
      0.500000E-02      0.144718E-01
      0.100000E-01      0.142846E-01
      0.150000E-01      0.139783E-01
      0.200000E-01      0.135609E-01
      0.250000E-01      0.130434E-01
      0.300000E-01      0.124392E-01
      0.350000E-01      0.117630E-01
      0.400000E-01      0.110311E-01
      0.450000E-01      0.102601E-01
      0.500000E-01      0.946638E-02
      0.550000E-01      0.866584E-02
      0.600000E-01      0.787303E-02
      0.650000E-01      0.710093E-02
      0.700000E-01      0.636057E-02
      0.750000E-01      0.566086E-02
      0.800000E-01      0.500851E-02
      0.850000E-01      0.440802E-02
      0.900000E-01      0.386187E-02
      0.950000E-01      0.337066E-02
      0.100000          0.293341E-02
      0.105000          0.254785E-02
      0.110000          0.221072E-02
      0.115000          0.191811E-02
      0.120000          0.166573E-02
      0.125000          0.144915E-02
      0.130000          0.126405E-02
      0.135000          0.110634E-02
      0.140000          0.972300E-03
      0.145000          0.858609E-03
      0.150000          0.762395E-03
      0.155000          0.681200E-03
      0.160000          0.612950E-03
      0.165000          0.555896E-03
      0.170000          0.508554E-03
      0.175000          0.469641E-03
      0.180000          0.438024E-03
      0.185000          0.412674E-03
      0.190000          0.392637E-03
      0.195000          0.377015E-03
      0.200000          0.364962E-03
      0.205000          0.355686E-03
      0.210000          0.348462E-03
      0.215000          0.342639E-03
      0.220000          0.337661E-03
      0.225000          0.333073E-03
      0.230000          0.328524E-03
      0.235000          0.323771E-03
      0.240000          0.318672E-03
      0.245000          0.313170E-03
      0.250000          0.307281E-03
      0.255000          0.301074E-03
      0.260000          0.294647E-03
      0.265000          0.288114E-03
      0.270000          0.281584E-03
      0.275000          0.275147E-03
      0.280000          0.268869E-03
      0.285000          0.262783E-03
      0.290000          0.256893E-03
      0.295000          0.251174E-03
      0.300000          0.245580E-03
      0.305000          0.240056E-03
      0.310000          0.234539E-03
      0.315000          0.228974E-03
      0.320000          0.223319E-03
      0.325000          0.217547E-03
      0.330000          0.211655E-03
      0.335000          0.205661E-03
      0.340000          0.199601E-03
      0.345000          0.193531E-03
      0.350000          0.187518E-03
      0.355000          0.181633E-03
      0.360000          0.175950E-03
      0.365000          0.170538E-03
      0.370000          0.165454E-03
      0.375000          0.160743E-03
      0.380000          0.156433E-03
      0.385000          0.152535E-03
      0.390000          0.149043E-03
      0.395000          0.145935E-03
      0.400000          0.143174E-03
      0.405000          0.140715E-03
      0.410000          0.138504E-03
      0.415000          0.136482E-03
      0.420000          0.134590E-03
      0.425000          0.132771E-03
      0.430000          0.130971E-03
      0.435000          0.129146E-03
      0.440000          0.127258E-03
      0.445000          0.125279E-03
      0.450000          0.123191E-03
      0.455000          0.120987E-03
      0.460000          0.118670E-03
      0.465000          0.116250E-03
      0.470000          0.113748E-03
      0.475000          0.111191E-03
      0.480000          0.108608E-03
      0.485000          0.106034E-03
      0.490000          0.103504E-03
      0.495000          0.101052E-03
      0.500000          0.987080E-04
