 I_abs(s)[cm^-1]/c[mg/ml]
       0.00000          0.142503E-01
      0.500000E-02      0.141966E-01
      0.100000E-01      0.140367E-01
      0.150000E-01      0.137743E-01
      0.200000E-01      0.134150E-01
      0.250000E-01      0.129670E-01
      0.300000E-01      0.124397E-01
      0.350000E-01      0.118444E-01
      0.400000E-01      0.111934E-01
      0.450000E-01      0.104994E-01
      0.500000E-01      0.977573E-02
      0.550000E-01      0.903552E-02
      0.600000E-01      0.829136E-02
      0.650000E-01      0.755507E-02
      0.700000E-01      0.683731E-02
      0.750000E-01      0.614745E-02
      0.800000E-01      0.549327E-02
      0.850000E-01      0.488098E-02
      0.900000E-01      0.431511E-02
      0.950000E-01      0.379852E-02
      0.100000          0.333257E-02
      0.105000          0.291715E-02
      0.110000          0.255093E-02
      0.115000          0.223153E-02
      0.120000          0.195571E-02
      0.125000          0.171967E-02
      0.130000          0.151922E-02
      0.135000          0.134997E-02
      0.140000          0.120758E-02
      0.145000          0.108786E-02
      0.150000          0.986940E-03
      0.155000          0.901332E-03
      0.160000          0.828007E-03
      0.165000          0.764422E-03
      0.170000          0.708516E-03
      0.175000          0.658685E-03
      0.180000          0.613740E-03
      0.185000          0.572849E-03
      0.190000          0.535466E-03
      0.195000          0.501265E-03
      0.200000          0.470072E-03
      0.205000          0.441801E-03
      0.210000          0.416402E-03
      0.215000          0.393821E-03
      0.220000          0.373962E-03
      0.225000          0.356677E-03
      0.230000          0.341754E-03
      0.235000          0.328919E-03
      0.240000          0.317848E-03
      0.245000          0.308185E-03
      0.250000          0.299557E-03
      0.255000          0.291599E-03
      0.260000          0.283973E-03
      0.265000          0.276383E-03
      0.270000          0.268594E-03
      0.275000          0.260434E-03
      0.280000          0.251807E-03
      0.285000          0.242683E-03
      0.290000          0.233100E-03
      0.295000          0.223150E-03
      0.300000          0.212971E-03
      0.305000          0.202729E-03
      0.310000          0.192608E-03
      0.315000          0.182792E-03
      0.320000          0.173457E-03
      0.325000          0.164756E-03
      0.330000          0.156811E-03
      0.335000          0.149711E-03
      0.340000          0.143505E-03
      0.345000          0.138207E-03
      0.350000          0.133793E-03
      0.355000          0.130209E-03
      0.360000          0.127377E-03
      0.365000          0.125199E-03
      0.370000          0.123568E-03
      0.375000          0.122369E-03
      0.380000          0.121493E-03
      0.385000          0.120835E-03
      0.390000          0.120303E-03
      0.395000          0.119818E-03
      0.400000          0.119317E-03
      0.405000          0.118753E-03
      0.410000          0.118094E-03
      0.415000          0.117323E-03
      0.420000          0.116433E-03
      0.425000          0.115426E-03
      0.430000          0.114311E-03
      0.435000          0.113101E-03
      0.440000          0.111812E-03
      0.445000          0.110458E-03
      0.450000          0.109053E-03
      0.455000          0.107609E-03
      0.460000          0.106137E-03
      0.465000          0.104644E-03
      0.470000          0.103136E-03
      0.475000          0.101619E-03
      0.480000          0.100097E-03
      0.485000          0.985767E-04
      0.490000          0.970645E-04
      0.495000          0.955690E-04
      0.500000          0.941009E-04
