 I_abs(s)[cm^-1]/c[mg/ml]
       0.00000          0.145427E-01
      0.500000E-02      0.144968E-01
      0.100000E-01      0.143600E-01
      0.150000E-01      0.141350E-01
      0.200000E-01      0.138262E-01
      0.250000E-01      0.134396E-01
      0.300000E-01      0.129828E-01
      0.350000E-01      0.124641E-01
      0.400000E-01      0.118930E-01
      0.450000E-01      0.112795E-01
      0.500000E-01      0.106340E-01
      0.550000E-01      0.996688E-02
      0.600000E-01      0.928818E-02
      0.650000E-01      0.860753E-02
      0.700000E-01      0.793380E-02
      0.750000E-01      0.727498E-02
      0.800000E-01      0.663799E-02
      0.850000E-01      0.602863E-02
      0.900000E-01      0.545150E-02
      0.950000E-01      0.491003E-02
      0.100000          0.440650E-02
      0.105000          0.394210E-02
      0.110000          0.351705E-02
      0.115000          0.313075E-02
      0.120000          0.278185E-02
      0.125000          0.246846E-02
      0.130000          0.218827E-02
      0.135000          0.193869E-02
      0.140000          0.171700E-02
      0.145000          0.152042E-02
      0.150000          0.134628E-02
      0.155000          0.119202E-02
      0.160000          0.105529E-02
      0.165000          0.933979E-03
      0.170000          0.826234E-03
      0.175000          0.730451E-03
      0.180000          0.645274E-03
      0.185000          0.569568E-03
      0.190000          0.502393E-03
      0.195000          0.442971E-03
      0.200000          0.390648E-03
      0.205000          0.344867E-03
      0.210000          0.305134E-03
      0.215000          0.270992E-03
      0.220000          0.242004E-03
      0.225000          0.217736E-03
      0.230000          0.197752E-03
      0.235000          0.181604E-03
      0.240000          0.168838E-03
      0.245000          0.159000E-03
      0.250000          0.151636E-03
      0.255000          0.146307E-03
      0.260000          0.142596E-03
      0.265000          0.140115E-03
      0.270000          0.138515E-03
      0.275000          0.137488E-03
      0.280000          0.136776E-03
      0.285000          0.136168E-03
      0.290000          0.135504E-03
      0.295000          0.134669E-03
      0.300000          0.133591E-03
      0.305000          0.132236E-03
      0.310000          0.130603E-03
      0.315000          0.128716E-03
      0.320000          0.126615E-03
      0.325000          0.124356E-03
      0.330000          0.121999E-03
      0.335000          0.119607E-03
      0.340000          0.117239E-03
      0.345000          0.114948E-03
      0.350000          0.112778E-03
      0.355000          0.110763E-03
      0.360000          0.108927E-03
      0.365000          0.107282E-03
      0.370000          0.105832E-03
      0.375000          0.104572E-03
      0.380000          0.103490E-03
      0.385000          0.102567E-03
      0.390000          0.101783E-03
      0.395000          0.101115E-03
      0.400000          0.100538E-03
      0.405000          0.100032E-03
      0.410000          0.995732E-04
      0.415000          0.991444E-04
      0.420000          0.987293E-04
      0.425000          0.983154E-04
      0.430000          0.978926E-04
      0.435000          0.974540E-04
      0.440000          0.969948E-04
      0.445000          0.965121E-04
      0.450000          0.960048E-04
      0.455000          0.954725E-04
      0.460000          0.949157E-04
      0.465000          0.943352E-04
      0.470000          0.937322E-04
      0.475000          0.931076E-04
      0.480000          0.924628E-04
      0.485000          0.917989E-04
      0.490000          0.911176E-04
      0.495000          0.904208E-04
      0.500000          0.897109E-04
