 I_abs(s)[cm^-1]/c[mg/ml]
       0.00000          0.148381E-01
      0.500000E-02      0.147824E-01
      0.100000E-01      0.146165E-01
      0.150000E-01      0.143441E-01
      0.200000E-01      0.139712E-01
      0.250000E-01      0.135059E-01
      0.300000E-01      0.129582E-01
      0.350000E-01      0.123394E-01
      0.400000E-01      0.116621E-01
      0.450000E-01      0.109394E-01
      0.500000E-01      0.101849E-01
      0.550000E-01      0.941189E-02
      0.600000E-01      0.863313E-02
      0.650000E-01      0.786065E-02
      0.700000E-01      0.710531E-02
      0.750000E-01      0.637664E-02
      0.800000E-01      0.568265E-02
      0.850000E-01      0.502979E-02
      0.900000E-01      0.442288E-02
      0.950000E-01      0.386516E-02
      0.100000          0.335839E-02
      0.105000          0.290298E-02
      0.110000          0.249815E-02
      0.115000          0.214211E-02
      0.120000          0.183225E-02
      0.125000          0.156538E-02
      0.130000          0.133788E-02
      0.135000          0.114589E-02
      0.140000          0.985474E-03
      0.145000          0.852742E-03
      0.150000          0.743969E-03
      0.155000          0.655663E-03
      0.160000          0.584630E-03
      0.165000          0.528002E-03
      0.170000          0.483252E-03
      0.175000          0.448187E-03
      0.180000          0.420935E-03
      0.185000          0.399920E-03
      0.190000          0.383829E-03
      0.195000          0.371576E-03
      0.200000          0.362275E-03
      0.205000          0.355200E-03
      0.210000          0.349762E-03
      0.215000          0.345478E-03
      0.220000          0.341952E-03
      0.225000          0.338857E-03
      0.230000          0.335924E-03
      0.235000          0.332926E-03
      0.240000          0.329675E-03
      0.245000          0.326019E-03
      0.250000          0.321833E-03
      0.255000          0.317020E-03
      0.260000          0.311513E-03
      0.265000          0.305270E-03
      0.270000          0.298273E-03
      0.275000          0.290534E-03
      0.280000          0.282087E-03
      0.285000          0.272990E-03
      0.290000          0.263323E-03
      0.295000          0.253186E-03
      0.300000          0.242696E-03
      0.305000          0.231983E-03
      0.310000          0.221186E-03
      0.315000          0.210450E-03
      0.320000          0.199920E-03
      0.325000          0.189736E-03
      0.330000          0.180031E-03
      0.335000          0.170921E-03
      0.340000          0.162507E-03
      0.345000          0.154867E-03
      0.350000          0.148056E-03
      0.355000          0.142103E-03
      0.360000          0.137014E-03
      0.365000          0.132765E-03
      0.370000          0.129314E-03
      0.375000          0.126595E-03
      0.380000          0.124526E-03
      0.385000          0.123011E-03
      0.390000          0.121949E-03
      0.395000          0.121232E-03
      0.400000          0.120757E-03
      0.405000          0.120424E-03
      0.410000          0.120144E-03
      0.415000          0.119841E-03
      0.420000          0.119453E-03
      0.425000          0.118935E-03
      0.430000          0.118258E-03
      0.435000          0.117408E-03
      0.440000          0.116386E-03
      0.445000          0.115207E-03
      0.450000          0.113894E-03
      0.455000          0.112476E-03
      0.460000          0.110987E-03
      0.465000          0.109462E-03
      0.470000          0.107935E-03
      0.475000          0.106434E-03
      0.480000          0.104985E-03
      0.485000          0.103605E-03
      0.490000          0.102303E-03
      0.495000          0.101083E-03
      0.500000          0.999417E-04
