 I_abs(s)[cm^-1]/c[mg/ml]
       0.00000          0.141875E-01
      0.500000E-02      0.141320E-01
      0.100000E-01      0.139672E-01
      0.150000E-01      0.136972E-01
      0.200000E-01      0.133289E-01
      0.250000E-01      0.128717E-01
      0.300000E-01      0.123368E-01
      0.350000E-01      0.117370E-01
      0.400000E-01      0.110860E-01
      0.450000E-01      0.103982E-01
      0.500000E-01      0.968793E-02
      0.550000E-01      0.896889E-02
      0.600000E-01      0.825393E-02
      0.650000E-01      0.755457E-02
      0.700000E-01      0.688070E-02
      0.750000E-01      0.624040E-02
      0.800000E-01      0.563987E-02
      0.850000E-01      0.508335E-02
      0.900000E-01      0.457329E-02
      0.950000E-01      0.411042E-02
      0.100000          0.369401E-02
      0.105000          0.332209E-02
      0.110000          0.299175E-02
      0.115000          0.269941E-02
      0.120000          0.244109E-02
      0.125000          0.221265E-02
      0.130000          0.201005E-02
      0.135000          0.182946E-02
      0.140000          0.166745E-02
      0.145000          0.152101E-02
      0.150000          0.138768E-02
      0.155000          0.126544E-02
      0.160000          0.115277E-02
      0.165000          0.104857E-02
      0.170000          0.952067E-03
      0.175000          0.862752E-03
      0.180000          0.780312E-03
      0.185000          0.704545E-03
      0.190000          0.635303E-03
      0.195000          0.572435E-03
      0.200000          0.515762E-03
      0.205000          0.465049E-03
      0.210000          0.419997E-03
      0.215000          0.380253E-03
      0.220000          0.345415E-03
      0.225000          0.315050E-03
      0.230000          0.288714E-03
      0.235000          0.265967E-03
      0.240000          0.246392E-03
      0.245000          0.229606E-03
      0.250000          0.215263E-03
      0.255000          0.203064E-03
      0.260000          0.192745E-03
      0.265000          0.184081E-03
      0.270000          0.176873E-03
      0.275000          0.170939E-03
      0.280000          0.166109E-03
      0.285000          0.162219E-03
      0.290000          0.159099E-03
      0.295000          0.156581E-03
      0.300000          0.154491E-03
      0.305000          0.152658E-03
      0.310000          0.150916E-03
      0.315000          0.149110E-03
      0.320000          0.147107E-03
      0.325000          0.144798E-03
      0.330000          0.142106E-03
      0.335000          0.138989E-03
      0.340000          0.135444E-03
      0.345000          0.131501E-03
      0.350000          0.127228E-03
      0.355000          0.122717E-03
      0.360000          0.118084E-03
      0.365000          0.113457E-03
      0.370000          0.108969E-03
      0.375000          0.104748E-03
      0.380000          0.100910E-03
      0.385000          0.975527E-04
      0.390000          0.947472E-04
      0.395000          0.925373E-04
      0.400000          0.909369E-04
      0.405000          0.899306E-04
      0.410000          0.894761E-04
      0.415000          0.895076E-04
      0.420000          0.899414E-04
      0.425000          0.906811E-04
      0.430000          0.916241E-04
      0.435000          0.926676E-04
      0.440000          0.937138E-04
      0.445000          0.946752E-04
      0.450000          0.954784E-04
      0.455000          0.960664E-04
      0.460000          0.964007E-04
      0.465000          0.964608E-04
      0.470000          0.962443E-04
      0.475000          0.957644E-04
      0.480000          0.950480E-04
      0.485000          0.941323E-04
      0.490000          0.930618E-04
      0.495000          0.918847E-04
      0.500000          0.906498E-04
