 I_abs(s)[cm^-1]/c[mg/ml]
       0.00000          0.144713E-01
      0.500000E-02      0.144259E-01
      0.100000E-01      0.142903E-01
      0.150000E-01      0.140675E-01
      0.200000E-01      0.137617E-01
      0.250000E-01      0.133790E-01
      0.300000E-01      0.129268E-01
      0.350000E-01      0.124134E-01
      0.400000E-01      0.118483E-01
      0.450000E-01      0.112414E-01
      0.500000E-01      0.106029E-01
      0.550000E-01      0.994301E-02
      0.600000E-01      0.927177E-02
      0.650000E-01      0.859859E-02
      0.700000E-01      0.793217E-02
      0.750000E-01      0.728032E-02
      0.800000E-01      0.664978E-02
      0.850000E-01      0.604618E-02
      0.900000E-01      0.547397E-02
      0.950000E-01      0.493645E-02
      0.100000          0.443577E-02
      0.105000          0.397307E-02
      0.110000          0.354853E-02
      0.115000          0.316153E-02
      0.120000          0.281078E-02
      0.125000          0.249446E-02
      0.130000          0.221039E-02
      0.135000          0.195612E-02
      0.140000          0.172911E-02
      0.145000          0.152680E-02
      0.150000          0.134669E-02
      0.155000          0.118647E-02
      0.160000          0.104398E-02
      0.165000          0.917322E-03
      0.170000          0.804803E-03
      0.175000          0.704976E-03
      0.180000          0.616601E-03
      0.185000          0.538630E-03
      0.190000          0.470169E-03
      0.195000          0.410453E-03
      0.200000          0.358807E-03
      0.205000          0.314618E-03
      0.210000          0.277312E-03
      0.215000          0.246328E-03
      0.220000          0.221108E-03
      0.225000          0.201088E-03
      0.230000          0.185692E-03
      0.235000          0.174337E-03
      0.240000          0.166439E-03
      0.245000          0.161419E-03
      0.250000          0.158718E-03
      0.255000          0.157801E-03
      0.260000          0.158176E-03
      0.265000          0.159397E-03
      0.270000          0.161072E-03
      0.275000          0.162870E-03
      0.280000          0.164523E-03
      0.285000          0.165825E-03
      0.290000          0.166629E-03
      0.295000          0.166846E-03
      0.300000          0.166432E-03
      0.305000          0.165390E-03
      0.310000          0.163754E-03
      0.315000          0.161585E-03
      0.320000          0.158963E-03
      0.325000          0.155976E-03
      0.330000          0.152721E-03
      0.335000          0.149288E-03
      0.340000          0.145767E-03
      0.345000          0.142234E-03
      0.350000          0.138757E-03
      0.355000          0.135391E-03
      0.360000          0.132177E-03
      0.365000          0.129147E-03
      0.370000          0.126318E-03
      0.375000          0.123701E-03
      0.380000          0.121296E-03
      0.385000          0.119098E-03
      0.390000          0.117095E-03
      0.395000          0.115276E-03
      0.400000          0.113623E-03
      0.405000          0.112121E-03
      0.410000          0.110752E-03
      0.415000          0.109500E-03
      0.420000          0.108349E-03
      0.425000          0.107286E-03
      0.430000          0.106296E-03
      0.435000          0.105368E-03
      0.440000          0.104491E-03
      0.445000          0.103652E-03
      0.450000          0.102843E-03
      0.455000          0.102054E-03
      0.460000          0.101275E-03
      0.465000          0.100498E-03
      0.470000          0.997143E-04
      0.475000          0.989164E-04
      0.480000          0.980973E-04
      0.485000          0.972507E-04
      0.490000          0.963715E-04
      0.495000          0.954559E-04
      0.500000          0.945015E-04
