 I_abs(s)[cm^-1]/c[mg/ml]
       0.00000          0.140622E-01
      0.500000E-02      0.140042E-01
      0.100000E-01      0.138319E-01
      0.150000E-01      0.135496E-01
      0.200000E-01      0.131645E-01
      0.250000E-01      0.126863E-01
      0.300000E-01      0.121268E-01
      0.350000E-01      0.114993E-01
      0.400000E-01      0.108184E-01
      0.450000E-01      0.100991E-01
      0.500000E-01      0.935651E-02
      0.550000E-01      0.860537E-02
      0.600000E-01      0.785936E-02
      0.650000E-01      0.713090E-02
      0.700000E-01      0.643074E-02
      0.750000E-01      0.576779E-02
      0.800000E-01      0.514896E-02
      0.850000E-01      0.457912E-02
      0.900000E-01      0.406119E-02
      0.950000E-01      0.359623E-02
      0.100000          0.318366E-02
      0.105000          0.282150E-02
      0.110000          0.250665E-02
      0.115000          0.223514E-02
      0.120000          0.200247E-02
      0.125000          0.180385E-02
      0.130000          0.163445E-02
      0.135000          0.148959E-02
      0.140000          0.136493E-02
      0.145000          0.125658E-02
      0.150000          0.116116E-02
      0.155000          0.107586E-02
      0.160000          0.998416E-03
      0.165000          0.927091E-03
      0.170000          0.860620E-03
      0.175000          0.798142E-03
      0.180000          0.739125E-03
      0.185000          0.683289E-03
      0.190000          0.630531E-03
      0.195000          0.580863E-03
      0.200000          0.534354E-03
      0.205000          0.491087E-03
      0.210000          0.451132E-03
      0.215000          0.414519E-03
      0.220000          0.381231E-03
      0.225000          0.351205E-03
      0.230000          0.324328E-03
      0.235000          0.300450E-03
      0.240000          0.279390E-03
      0.245000          0.260947E-03
      0.250000          0.244907E-03
      0.255000          0.231050E-03
      0.260000          0.219158E-03
      0.265000          0.209013E-03
      0.270000          0.200406E-03
      0.275000          0.193133E-03
      0.280000          0.186994E-03
      0.285000          0.181802E-03
      0.290000          0.177372E-03
      0.295000          0.173531E-03
      0.300000          0.170117E-03
      0.305000          0.166981E-03
      0.310000          0.163992E-03
      0.315000          0.161035E-03
      0.320000          0.158022E-03
      0.325000          0.154886E-03
      0.330000          0.151588E-03
      0.335000          0.148114E-03
      0.340000          0.144474E-03
      0.345000          0.140700E-03
      0.350000          0.136843E-03
      0.355000          0.132965E-03
      0.360000          0.129136E-03
      0.365000          0.125429E-03
      0.370000          0.121909E-03
      0.375000          0.118635E-03
      0.380000          0.115650E-03
      0.385000          0.112982E-03
      0.390000          0.110640E-03
      0.395000          0.108616E-03
      0.400000          0.106883E-03
      0.405000          0.105404E-03
      0.410000          0.104129E-03
      0.415000          0.103003E-03
      0.420000          0.101973E-03
      0.425000          0.100987E-03
      0.430000          0.100004E-03
      0.435000          0.989947E-04
      0.440000          0.979422E-04
      0.445000          0.968463E-04
      0.450000          0.957215E-04
      0.455000          0.945951E-04
      0.460000          0.935053E-04
      0.465000          0.924963E-04
      0.470000          0.916150E-04
      0.475000          0.909058E-04
      0.480000          0.904061E-04
      0.485000          0.901425E-04
      0.490000          0.901275E-04
      0.495000          0.903575E-04
      0.500000          0.908115E-04
