 I_abs(s)[cm^-1]/c[mg/ml]
       0.00000          0.145825E-01
      0.500000E-02      0.145415E-01
      0.100000E-01      0.144192E-01
      0.150000E-01      0.142176E-01
      0.200000E-01      0.139398E-01
      0.250000E-01      0.135903E-01
      0.300000E-01      0.131742E-01
      0.350000E-01      0.126981E-01
      0.400000E-01      0.121691E-01
      0.450000E-01      0.115947E-01
      0.500000E-01      0.109833E-01
      0.550000E-01      0.103431E-01
      0.600000E-01      0.968273E-02
      0.650000E-01      0.901043E-02
      0.700000E-01      0.833432E-02
      0.750000E-01      0.766206E-02
      0.800000E-01      0.700076E-02
      0.850000E-01      0.635686E-02
      0.900000E-01      0.573603E-02
      0.950000E-01      0.514315E-02
      0.100000          0.458221E-02
      0.105000          0.405634E-02
      0.110000          0.356783E-02
      0.115000          0.311810E-02
      0.120000          0.270780E-02
      0.125000          0.233688E-02
      0.130000          0.200462E-02
      0.135000          0.170976E-02
      0.140000          0.145056E-02
      0.145000          0.122492E-02
      0.150000          0.103046E-02
      0.155000          0.864599E-03
      0.160000          0.724667E-03
      0.165000          0.607950E-03
      0.170000          0.511772E-03
      0.175000          0.433549E-03
      0.180000          0.370828E-03
      0.185000          0.321329E-03
      0.190000          0.282962E-03
      0.195000          0.253847E-03
      0.200000          0.232314E-03
      0.205000          0.216905E-03
      0.210000          0.206364E-03
      0.215000          0.199623E-03
      0.220000          0.195790E-03
      0.225000          0.194125E-03
      0.230000          0.194024E-03
      0.235000          0.194999E-03
      0.240000          0.196658E-03
      0.245000          0.198691E-03
      0.250000          0.200850E-03
      0.255000          0.202940E-03
      0.260000          0.204808E-03
      0.265000          0.206332E-03
      0.270000          0.207417E-03
      0.275000          0.207990E-03
      0.280000          0.207997E-03
      0.285000          0.207400E-03
      0.290000          0.206178E-03
      0.295000          0.204324E-03
      0.300000          0.201848E-03
      0.305000          0.198774E-03
      0.310000          0.195141E-03
      0.315000          0.191001E-03
      0.320000          0.186416E-03
      0.325000          0.181463E-03
      0.330000          0.176221E-03
      0.335000          0.170780E-03
      0.340000          0.165228E-03
      0.345000          0.159656E-03
      0.350000          0.154150E-03
      0.355000          0.148790E-03
      0.360000          0.143648E-03
      0.365000          0.138786E-03
      0.370000          0.134255E-03
      0.375000          0.130089E-03
      0.380000          0.126313E-03
      0.385000          0.122936E-03
      0.390000          0.119955E-03
      0.395000          0.117353E-03
      0.400000          0.115105E-03
      0.405000          0.113176E-03
      0.410000          0.111524E-03
      0.415000          0.110101E-03
      0.420000          0.108858E-03
      0.425000          0.107745E-03
      0.430000          0.106713E-03
      0.435000          0.105715E-03
      0.440000          0.104710E-03
      0.445000          0.103663E-03
      0.450000          0.102545E-03
      0.455000          0.101334E-03
      0.460000          0.100016E-03
      0.465000          0.985838E-04
      0.470000          0.970392E-04
      0.475000          0.953892E-04
      0.480000          0.936473E-04
      0.485000          0.918318E-04
      0.490000          0.899650E-04
      0.495000          0.880722E-04
      0.500000          0.861803E-04
