 I_abs(s)[cm^-1]/c[mg/ml]
       0.00000          0.142975E-01
      0.500000E-02      0.142355E-01
      0.100000E-01      0.140512E-01
      0.150000E-01      0.137502E-01
      0.200000E-01      0.133412E-01
      0.250000E-01      0.128361E-01
      0.300000E-01      0.122489E-01
      0.350000E-01      0.115953E-01
      0.400000E-01      0.108920E-01
      0.450000E-01      0.101559E-01
      0.500000E-01      0.940342E-02
      0.550000E-01      0.864985E-02
      0.600000E-01      0.790892E-02
      0.650000E-01      0.719235E-02
      0.700000E-01      0.650966E-02
      0.750000E-01      0.586805E-02
      0.800000E-01      0.527241E-02
      0.850000E-01      0.472551E-02
      0.900000E-01      0.422820E-02
      0.950000E-01      0.377973E-02
      0.100000          0.337804E-02
      0.105000          0.302016E-02
      0.110000          0.270249E-02
      0.115000          0.242110E-02
      0.120000          0.217203E-02
      0.125000          0.195140E-02
      0.130000          0.175561E-02
      0.135000          0.158144E-02
      0.140000          0.142604E-02
      0.145000          0.128697E-02
      0.150000          0.116220E-02
      0.155000          0.105003E-02
      0.160000          0.949056E-03
      0.165000          0.858136E-03
      0.170000          0.776321E-03
      0.175000          0.702819E-03
      0.180000          0.636957E-03
      0.185000          0.578152E-03
      0.190000          0.525890E-03
      0.195000          0.479702E-03
      0.200000          0.439158E-03
      0.205000          0.403846E-03
      0.210000          0.373369E-03
      0.215000          0.347334E-03
      0.220000          0.325347E-03
      0.225000          0.307005E-03
      0.230000          0.291900E-03
      0.235000          0.279613E-03
      0.240000          0.269723E-03
      0.245000          0.261809E-03
      0.250000          0.255461E-03
      0.255000          0.250287E-03
      0.260000          0.245927E-03
      0.265000          0.242057E-03
      0.270000          0.238402E-03
      0.275000          0.234740E-03
      0.280000          0.230903E-03
      0.285000          0.226780E-03
      0.290000          0.222309E-03
      0.295000          0.217476E-03
      0.300000          0.212308E-03
      0.305000          0.206856E-03
      0.310000          0.201195E-03
      0.315000          0.195410E-03
      0.320000          0.189588E-03
      0.325000          0.183815E-03
      0.330000          0.178165E-03
      0.335000          0.172702E-03
      0.340000          0.167475E-03
      0.345000          0.162520E-03
      0.350000          0.157859E-03
      0.355000          0.153501E-03
      0.360000          0.149445E-03
      0.365000          0.145682E-03
      0.370000          0.142194E-03
      0.375000          0.138958E-03
      0.380000          0.135947E-03
      0.385000          0.133131E-03
      0.390000          0.130474E-03
      0.395000          0.127944E-03
      0.400000          0.125504E-03
      0.405000          0.123121E-03
      0.410000          0.120762E-03
      0.415000          0.118398E-03
      0.420000          0.116004E-03
      0.425000          0.113562E-03
      0.430000          0.111059E-03
      0.435000          0.108493E-03
      0.440000          0.105866E-03
      0.445000          0.103191E-03
      0.450000          0.100484E-03
      0.455000          0.977721E-04
      0.460000          0.950832E-04
      0.465000          0.924495E-04
      0.470000          0.899036E-04
      0.475000          0.874767E-04
      0.480000          0.851969E-04
      0.485000          0.830870E-04
      0.490000          0.811635E-04
      0.495000          0.794354E-04
      0.500000          0.779040E-04
