 I_abs(s)[cm^-1]/c[mg/ml]
       0.00000          0.146064E-01
      0.500000E-02      0.145513E-01
      0.100000E-01      0.143873E-01
      0.150000E-01      0.141185E-01
      0.200000E-01      0.137510E-01
      0.250000E-01      0.132933E-01
      0.300000E-01      0.127559E-01
      0.350000E-01      0.121504E-01
      0.400000E-01      0.114897E-01
      0.450000E-01      0.107873E-01
      0.500000E-01      0.100564E-01
      0.550000E-01      0.931041E-02
      0.600000E-01      0.856165E-02
      0.650000E-01      0.782156E-02
      0.700000E-01      0.710024E-02
      0.750000E-01      0.640632E-02
      0.800000E-01      0.574681E-02
      0.850000E-01      0.512712E-02
      0.900000E-01      0.455106E-02
      0.950000E-01      0.402092E-02
      0.100000          0.353769E-02
      0.105000          0.310113E-02
      0.110000          0.271006E-02
      0.115000          0.236251E-02
      0.120000          0.205596E-02
      0.125000          0.178746E-02
      0.130000          0.155388E-02
      0.135000          0.135199E-02
      0.140000          0.117858E-02
      0.145000          0.103056E-02
      0.150000          0.904998E-03
      0.155000          0.799159E-03
      0.160000          0.710524E-03
      0.165000          0.636788E-03
      0.170000          0.575856E-03
      0.175000          0.525828E-03
      0.180000          0.484987E-03
      0.185000          0.451790E-03
      0.190000          0.424854E-03
      0.195000          0.402953E-03
      0.200000          0.385013E-03
      0.205000          0.370105E-03
      0.210000          0.357450E-03
      0.215000          0.346407E-03
      0.220000          0.336474E-03
      0.225000          0.327276E-03
      0.230000          0.318555E-03
      0.235000          0.310153E-03
      0.240000          0.301994E-03
      0.245000          0.294066E-03
      0.250000          0.286402E-03
      0.255000          0.279057E-03
      0.260000          0.272094E-03
      0.265000          0.265567E-03
      0.270000          0.259511E-03
      0.275000          0.253936E-03
      0.280000          0.248826E-03
      0.285000          0.244137E-03
      0.290000          0.239801E-03
      0.295000          0.235740E-03
      0.300000          0.231864E-03
      0.305000          0.228088E-03
      0.310000          0.224332E-03
      0.315000          0.220534E-03
      0.320000          0.216649E-03
      0.325000          0.212653E-03
      0.330000          0.208541E-03
      0.335000          0.204328E-03
      0.340000          0.200038E-03
      0.345000          0.195709E-03
      0.350000          0.191376E-03
      0.355000          0.187076E-03
      0.360000          0.182837E-03
      0.365000          0.178680E-03
      0.370000          0.174614E-03
      0.375000          0.170635E-03
      0.380000          0.166732E-03
      0.385000          0.162884E-03
      0.390000          0.159069E-03
      0.395000          0.155261E-03
      0.400000          0.151439E-03
      0.405000          0.147587E-03
      0.410000          0.143696E-03
      0.415000          0.139766E-03
      0.420000          0.135809E-03
      0.425000          0.131841E-03
      0.430000          0.127889E-03
      0.435000          0.123981E-03
      0.440000          0.120149E-03
      0.445000          0.116424E-03
      0.450000          0.112834E-03
      0.455000          0.109400E-03
      0.460000          0.106139E-03
      0.465000          0.103061E-03
      0.470000          0.100168E-03
      0.475000          0.974566E-04
      0.480000          0.949174E-04
      0.485000          0.925389E-04
      0.490000          0.903072E-04
      0.495000          0.882086E-04
      0.500000          0.862303E-04
