 I_abs(s)[cm^-1]/c[mg/ml]
       0.00000          0.144476E-01
      0.500000E-02      0.143960E-01
      0.100000E-01      0.142424E-01
      0.150000E-01      0.139900E-01
      0.200000E-01      0.136441E-01
      0.250000E-01      0.132117E-01
      0.300000E-01      0.127015E-01
      0.350000E-01      0.121238E-01
      0.400000E-01      0.114895E-01
      0.450000E-01      0.108106E-01
      0.500000E-01      0.100993E-01
      0.550000E-01      0.936788E-02
      0.600000E-01      0.862825E-02
      0.650000E-01      0.789174E-02
      0.700000E-01      0.716880E-02
      0.750000E-01      0.646875E-02
      0.800000E-01      0.579964E-02
      0.850000E-01      0.516813E-02
      0.900000E-01      0.457936E-02
      0.950000E-01      0.403704E-02
      0.100000          0.354340E-02
      0.105000          0.309931E-02
      0.110000          0.270443E-02
      0.115000          0.235729E-02
      0.120000          0.205553E-02
      0.125000          0.179605E-02
      0.130000          0.157524E-02
      0.135000          0.138910E-02
      0.140000          0.123347E-02
      0.145000          0.110420E-02
      0.150000          0.997236E-03
      0.155000          0.908764E-03
      0.160000          0.835301E-03
      0.165000          0.773752E-03
      0.170000          0.721439E-03
      0.175000          0.676123E-03
      0.180000          0.635991E-03
      0.185000          0.599633E-03
      0.190000          0.566003E-03
      0.195000          0.534376E-03
      0.200000          0.504292E-03
      0.205000          0.475502E-03
      0.210000          0.447920E-03
      0.215000          0.421567E-03
      0.220000          0.396531E-03
      0.225000          0.372932E-03
      0.230000          0.350890E-03
      0.235000          0.330502E-03
      0.240000          0.311832E-03
      0.245000          0.294901E-03
      0.250000          0.279685E-03
      0.255000          0.266117E-03
      0.260000          0.254092E-03
      0.265000          0.243479E-03
      0.270000          0.234124E-03
      0.275000          0.225864E-03
      0.280000          0.218533E-03
      0.285000          0.211970E-03
      0.290000          0.206023E-03
      0.295000          0.200558E-03
      0.300000          0.195457E-03
      0.305000          0.190622E-03
      0.310000          0.185974E-03
      0.315000          0.181450E-03
      0.320000          0.177006E-03
      0.325000          0.172610E-03
      0.330000          0.168242E-03
      0.335000          0.163892E-03
      0.340000          0.159556E-03
      0.345000          0.155235E-03
      0.350000          0.150936E-03
      0.355000          0.146667E-03
      0.360000          0.142437E-03
      0.365000          0.138257E-03
      0.370000          0.134140E-03
      0.375000          0.130099E-03
      0.380000          0.126145E-03
      0.385000          0.122294E-03
      0.390000          0.118557E-03
      0.395000          0.114949E-03
      0.400000          0.111482E-03
      0.405000          0.108169E-03
      0.410000          0.105019E-03
      0.415000          0.102044E-03
      0.420000          0.992501E-04
      0.425000          0.966446E-04
      0.430000          0.942317E-04
      0.435000          0.920138E-04
      0.440000          0.899914E-04
      0.445000          0.881635E-04
      0.450000          0.865277E-04
      0.455000          0.850802E-04
      0.460000          0.838162E-04
      0.465000          0.827301E-04
      0.470000          0.818159E-04
      0.475000          0.810667E-04
      0.480000          0.804754E-04
      0.485000          0.800342E-04
      0.490000          0.797346E-04
      0.495000          0.795673E-04
      0.500000          0.795219E-04
