 I_abs(s)[cm^-1]/c[mg/ml]
       0.00000          0.147660E-01
      0.500000E-02      0.147101E-01
      0.100000E-01      0.145439E-01
      0.150000E-01      0.142712E-01
      0.200000E-01      0.138987E-01
      0.250000E-01      0.134350E-01
      0.300000E-01      0.128907E-01
      0.350000E-01      0.122780E-01
      0.400000E-01      0.116098E-01
      0.450000E-01      0.108998E-01
      0.500000E-01      0.101617E-01
      0.550000E-01      0.940878E-02
      0.600000E-01      0.865355E-02
      0.650000E-01      0.790745E-02
      0.700000E-01      0.718052E-02
      0.750000E-01      0.648129E-02
      0.800000E-01      0.581664E-02
      0.850000E-01      0.519180E-02
      0.900000E-01      0.461041E-02
      0.950000E-01      0.407464E-02
      0.100000          0.358534E-02
      0.105000          0.314222E-02
      0.110000          0.274410E-02
      0.115000          0.238909E-02
      0.120000          0.207479E-02
      0.125000          0.179847E-02
      0.130000          0.155725E-02
      0.135000          0.134818E-02
      0.140000          0.116839E-02
      0.145000          0.101507E-02
      0.150000          0.885601E-03
      0.155000          0.777472E-03
      0.160000          0.688346E-03
      0.165000          0.616014E-03
      0.170000          0.558390E-03
      0.175000          0.513487E-03
      0.180000          0.479412E-03
      0.185000          0.454357E-03
      0.190000          0.436602E-03
      0.195000          0.424527E-03
      0.200000          0.416625E-03
      0.205000          0.411522E-03
      0.210000          0.407999E-03
      0.215000          0.405009E-03
      0.220000          0.401692E-03
      0.225000          0.397384E-03
      0.230000          0.391620E-03
      0.235000          0.384123E-03
      0.240000          0.374794E-03
      0.245000          0.363687E-03
      0.250000          0.350984E-03
      0.255000          0.336965E-03
      0.260000          0.321974E-03
      0.265000          0.306389E-03
      0.270000          0.290591E-03
      0.275000          0.274941E-03
      0.280000          0.259759E-03
      0.285000          0.245310E-03
      0.290000          0.231794E-03
      0.295000          0.219345E-03
      0.300000          0.208033E-03
      0.305000          0.197872E-03
      0.310000          0.188825E-03
      0.315000          0.180818E-03
      0.320000          0.173752E-03
      0.325000          0.167512E-03
      0.330000          0.161979E-03
      0.335000          0.157037E-03
      0.340000          0.152580E-03
      0.345000          0.148514E-03
      0.350000          0.144762E-03
      0.355000          0.141263E-03
      0.360000          0.137968E-03
      0.365000          0.134843E-03
      0.370000          0.131863E-03
      0.375000          0.129011E-03
      0.380000          0.126273E-03
      0.385000          0.123641E-03
      0.390000          0.121105E-03
      0.395000          0.118660E-03
      0.400000          0.116298E-03
      0.405000          0.114015E-03
      0.410000          0.111807E-03
      0.415000          0.109673E-03
      0.420000          0.107612E-03
      0.425000          0.105629E-03
      0.430000          0.103730E-03
      0.435000          0.101923E-03
      0.440000          0.100220E-03
      0.445000          0.986310E-04
      0.450000          0.971671E-04
      0.455000          0.958374E-04
      0.460000          0.946484E-04
      0.465000          0.936027E-04
      0.470000          0.926988E-04
      0.475000          0.919302E-04
      0.480000          0.912859E-04
      0.485000          0.907506E-04
      0.490000          0.903056E-04
      0.495000          0.899298E-04
      0.500000          0.896009E-04
