 I_abs(s)[cm^-1]/c[mg/ml]
       0.00000          0.146781E-01
      0.500000E-02      0.146193E-01
      0.100000E-01      0.144446E-01
      0.150000E-01      0.141583E-01
      0.200000E-01      0.137679E-01
      0.250000E-01      0.132832E-01
      0.300000E-01      0.127161E-01
      0.350000E-01      0.120801E-01
      0.400000E-01      0.113898E-01
      0.450000E-01      0.106601E-01
      0.500000E-01      0.990616E-02
      0.550000E-01      0.914233E-02
      0.600000E-01      0.838203E-02
      0.650000E-01      0.763723E-02
      0.700000E-01      0.691822E-02
      0.750000E-01      0.623339E-02
      0.800000E-01      0.558917E-02
      0.850000E-01      0.499002E-02
      0.900000E-01      0.443855E-02
      0.950000E-01      0.393569E-02
      0.100000          0.348091E-02
      0.105000          0.307250E-02
      0.110000          0.270784E-02
      0.115000          0.238371E-02
      0.120000          0.209653E-02
      0.125000          0.184259E-02
      0.130000          0.161829E-02
      0.135000          0.142025E-02
      0.140000          0.124540E-02
      0.145000          0.109108E-02
      0.150000          0.955016E-03
      0.155000          0.835326E-03
      0.160000          0.730444E-03
      0.165000          0.639079E-03
      0.170000          0.560136E-03
      0.175000          0.492649E-03
      0.180000          0.435718E-03
      0.185000          0.388459E-03
      0.190000          0.349975E-03
      0.195000          0.319333E-03
      0.200000          0.295566E-03
      0.205000          0.277684E-03
      0.210000          0.264699E-03
      0.215000          0.255647E-03
      0.220000          0.249625E-03
      0.225000          0.245815E-03
      0.230000          0.243509E-03
      0.235000          0.242122E-03
      0.240000          0.241203E-03
      0.245000          0.240433E-03
      0.250000          0.239609E-03
      0.255000          0.238632E-03
      0.260000          0.237484E-03
      0.265000          0.236201E-03
      0.270000          0.234849E-03
      0.275000          0.233502E-03
      0.280000          0.232220E-03
      0.285000          0.231037E-03
      0.290000          0.229951E-03
      0.295000          0.228923E-03
      0.300000          0.227879E-03
      0.305000          0.226717E-03
      0.310000          0.225317E-03
      0.315000          0.223555E-03
      0.320000          0.221317E-03
      0.325000          0.218505E-03
      0.330000          0.215054E-03
      0.335000          0.210932E-03
      0.340000          0.206146E-03
      0.345000          0.200744E-03
      0.350000          0.194805E-03
      0.355000          0.188441E-03
      0.360000          0.181780E-03
      0.365000          0.174964E-03
      0.370000          0.168136E-03
      0.375000          0.161430E-03
      0.380000          0.154968E-03
      0.385000          0.148849E-03
      0.390000          0.143149E-03
      0.395000          0.137917E-03
      0.400000          0.133176E-03
      0.405000          0.128928E-03
      0.410000          0.125152E-03
      0.415000          0.121815E-03
      0.420000          0.118873E-03
      0.425000          0.116274E-03
      0.430000          0.113967E-03
      0.435000          0.111904E-03
      0.440000          0.110040E-03
      0.445000          0.108340E-03
      0.450000          0.106772E-03
      0.455000          0.105316E-03
      0.460000          0.103957E-03
      0.465000          0.102685E-03
      0.470000          0.101494E-03
      0.475000          0.100382E-03
      0.480000          0.993483E-04
      0.485000          0.983901E-04
      0.490000          0.975061E-04
      0.495000          0.966934E-04
      0.500000          0.959484E-04
