 I_abs(s)[cm^-1]/c[mg/ml]
       0.00000          0.146781E-01
      0.500000E-02      0.146164E-01
      0.100000E-01      0.144330E-01
      0.150000E-01      0.141331E-01
      0.200000E-01      0.137247E-01
      0.250000E-01      0.132188E-01
      0.300000E-01      0.126286E-01
      0.350000E-01      0.119689E-01
      0.400000E-01      0.112556E-01
      0.450000E-01      0.105049E-01
      0.500000E-01      0.973290E-02
      0.550000E-01      0.895467E-02
      0.600000E-01      0.818411E-02
      0.650000E-01      0.743338E-02
      0.700000E-01      0.671270E-02
      0.750000E-01      0.603012E-02
      0.800000E-01      0.539158E-02
      0.850000E-01      0.480094E-02
      0.900000E-01      0.426015E-02
      0.950000E-01      0.376949E-02
      0.100000          0.332786E-02
      0.105000          0.293311E-02
      0.110000          0.258228E-02
      0.115000          0.227197E-02
      0.120000          0.199853E-02
      0.125000          0.175830E-02
      0.130000          0.154779E-02
      0.135000          0.136371E-02
      0.140000          0.120313E-02
      0.145000          0.106343E-02
      0.150000          0.942314E-03
      0.155000          0.837757E-03
      0.160000          0.747978E-03
      0.165000          0.671372E-03
      0.170000          0.606468E-03
      0.175000          0.551892E-03
      0.180000          0.506332E-03
      0.185000          0.468536E-03
      0.190000          0.437303E-03
      0.195000          0.411497E-03
      0.200000          0.390058E-03
      0.205000          0.372027E-03
      0.210000          0.356558E-03
      0.215000          0.342937E-03
      0.220000          0.330582E-03
      0.225000          0.319054E-03
      0.230000          0.308042E-03
      0.235000          0.297351E-03
      0.240000          0.286884E-03
      0.245000          0.276620E-03
      0.250000          0.266589E-03
      0.255000          0.256850E-03
      0.260000          0.247471E-03
      0.265000          0.238514E-03
      0.270000          0.230024E-03
      0.275000          0.222022E-03
      0.280000          0.214505E-03
      0.285000          0.207450E-03
      0.290000          0.200815E-03
      0.295000          0.194550E-03
      0.300000          0.188603E-03
      0.305000          0.182928E-03
      0.310000          0.177487E-03
      0.315000          0.172256E-03
      0.320000          0.167224E-03
      0.325000          0.162397E-03
      0.330000          0.157788E-03
      0.335000          0.153418E-03
      0.340000          0.149314E-03
      0.345000          0.145498E-03
      0.350000          0.141990E-03
      0.355000          0.138802E-03
      0.360000          0.135935E-03
      0.365000          0.133383E-03
      0.370000          0.131131E-03
      0.375000          0.129155E-03
      0.380000          0.127426E-03
      0.385000          0.125913E-03
      0.390000          0.124583E-03
      0.395000          0.123405E-03
      0.400000          0.122349E-03
      0.405000          0.121391E-03
      0.410000          0.120510E-03
      0.415000          0.119686E-03
      0.420000          0.118906E-03
      0.425000          0.118158E-03
      0.430000          0.117430E-03
      0.435000          0.116712E-03
      0.440000          0.115996E-03
      0.445000          0.115270E-03
      0.450000          0.114526E-03
      0.455000          0.113753E-03
      0.460000          0.112943E-03
      0.465000          0.112090E-03
      0.470000          0.111187E-03
      0.475000          0.110233E-03
      0.480000          0.109227E-03
      0.485000          0.108174E-03
      0.490000          0.107081E-03
      0.495000          0.105956E-03
      0.500000          0.104811E-03
