 I_abs(s)[cm^-1]/c[mg/ml]
       0.00000          0.146382E-01
      0.500000E-02      0.145945E-01
      0.100000E-01      0.144639E-01
      0.150000E-01      0.142489E-01
      0.200000E-01      0.139528E-01
      0.250000E-01      0.135808E-01
      0.300000E-01      0.131389E-01
      0.350000E-01      0.126343E-01
      0.400000E-01      0.120750E-01
      0.450000E-01      0.114696E-01
      0.500000E-01      0.108272E-01
      0.550000E-01      0.101572E-01
      0.600000E-01      0.946892E-02
      0.650000E-01      0.877147E-02
      0.700000E-01      0.807364E-02
      0.750000E-01      0.738365E-02
      0.800000E-01      0.670902E-02
      0.850000E-01      0.605645E-02
      0.900000E-01      0.543174E-02
      0.950000E-01      0.483971E-02
      0.100000          0.428417E-02
      0.105000          0.376796E-02
      0.110000          0.329291E-02
      0.115000          0.285994E-02
      0.120000          0.246912E-02
      0.125000          0.211973E-02
      0.130000          0.181042E-02
      0.135000          0.153925E-02
      0.140000          0.130386E-02
      0.145000          0.110156E-02
      0.150000          0.929418E-03
      0.155000          0.784413E-03
      0.160000          0.663487E-03
      0.165000          0.563644E-03
      0.170000          0.482013E-03
      0.175000          0.415904E-03
      0.180000          0.362847E-03
      0.185000          0.320624E-03
      0.190000          0.287276E-03
      0.195000          0.261111E-03
      0.200000          0.240697E-03
      0.205000          0.224845E-03
      0.210000          0.212590E-03
      0.215000          0.203164E-03
      0.220000          0.195971E-03
      0.225000          0.190554E-03
      0.230000          0.186574E-03
      0.235000          0.183776E-03
      0.240000          0.181970E-03
      0.245000          0.181009E-03
      0.250000          0.180774E-03
      0.255000          0.181158E-03
      0.260000          0.182060E-03
      0.265000          0.183374E-03
      0.270000          0.184992E-03
      0.275000          0.186801E-03
      0.280000          0.188683E-03
      0.285000          0.190520E-03
      0.290000          0.192198E-03
      0.295000          0.193608E-03
      0.300000          0.194656E-03
      0.305000          0.195260E-03
      0.310000          0.195355E-03
      0.315000          0.194900E-03
      0.320000          0.193869E-03
      0.325000          0.192262E-03
      0.330000          0.190094E-03
      0.335000          0.187400E-03
      0.340000          0.184230E-03
      0.345000          0.180646E-03
      0.350000          0.176719E-03
      0.355000          0.172525E-03
      0.360000          0.168143E-03
      0.365000          0.163650E-03
      0.370000          0.159119E-03
      0.375000          0.154617E-03
      0.380000          0.150205E-03
      0.385000          0.145931E-03
      0.390000          0.141836E-03
      0.395000          0.137948E-03
      0.400000          0.134287E-03
      0.405000          0.130862E-03
      0.410000          0.127674E-03
      0.415000          0.124717E-03
      0.420000          0.121979E-03
      0.425000          0.119441E-03
      0.430000          0.117083E-03
      0.435000          0.114884E-03
      0.440000          0.112820E-03
      0.445000          0.110870E-03
      0.450000          0.109013E-03
      0.455000          0.107230E-03
      0.460000          0.105506E-03
      0.465000          0.103828E-03
      0.470000          0.102187E-03
      0.475000          0.100577E-03
      0.480000          0.989945E-04
      0.485000          0.974378E-04
      0.490000          0.959082E-04
      0.495000          0.944084E-04
      0.500000          0.929419E-04
