 I_abs(s)[cm^-1]/c[mg/ml]
       0.00000          0.143843E-01
      0.500000E-02      0.143419E-01
      0.100000E-01      0.142153E-01
      0.150000E-01      0.140070E-01
      0.200000E-01      0.137204E-01
      0.250000E-01      0.133605E-01
      0.300000E-01      0.129336E-01
      0.350000E-01      0.124468E-01
      0.400000E-01      0.119080E-01
      0.450000E-01      0.113259E-01
      0.500000E-01      0.107095E-01
      0.550000E-01      0.100678E-01
      0.600000E-01      0.941008E-02
      0.650000E-01      0.874505E-02
      0.700000E-01      0.808116E-02
      0.750000E-01      0.742617E-02
      0.800000E-01      0.678712E-02
      0.850000E-01      0.617018E-02
      0.900000E-01      0.558057E-02
      0.950000E-01      0.502255E-02
      0.100000          0.449937E-02
      0.105000          0.401332E-02
      0.110000          0.356574E-02
      0.115000          0.315712E-02
      0.120000          0.278715E-02
      0.125000          0.245486E-02
      0.130000          0.215870E-02
      0.135000          0.189665E-02
      0.140000          0.166636E-02
      0.145000          0.146522E-02
      0.150000          0.129051E-02
      0.155000          0.113945E-02
      0.160000          0.100931E-02
      0.165000          0.897448E-03
      0.170000          0.801406E-03
      0.175000          0.718903E-03
      0.180000          0.647890E-03
      0.185000          0.586553E-03
      0.190000          0.533320E-03
      0.195000          0.486851E-03
      0.200000          0.446028E-03
      0.205000          0.409935E-03
      0.210000          0.377831E-03
      0.215000          0.349132E-03
      0.220000          0.323378E-03
      0.225000          0.300216E-03
      0.230000          0.279368E-03
      0.235000          0.260618E-03
      0.240000          0.243791E-03
      0.245000          0.228737E-03
      0.250000          0.215323E-03
      0.255000          0.203419E-03
      0.260000          0.192899E-03
      0.265000          0.183632E-03
      0.270000          0.175487E-03
      0.275000          0.168325E-03
      0.280000          0.162010E-03
      0.285000          0.156403E-03
      0.290000          0.151373E-03
      0.295000          0.146791E-03
      0.300000          0.142542E-03
      0.305000          0.138520E-03
      0.310000          0.134633E-03
      0.315000          0.130807E-03
      0.320000          0.126982E-03
      0.325000          0.123116E-03
      0.330000          0.119184E-03
      0.335000          0.115178E-03
      0.340000          0.111101E-03
      0.345000          0.106975E-03
      0.350000          0.102830E-03
      0.355000          0.987071E-04
      0.360000          0.946539E-04
      0.365000          0.907243E-04
      0.370000          0.869747E-04
      0.375000          0.834619E-04
      0.380000          0.802412E-04
      0.385000          0.773642E-04
      0.390000          0.748767E-04
      0.395000          0.728173E-04
      0.400000          0.712155E-04
      0.405000          0.700915E-04
      0.410000          0.694544E-04
      0.415000          0.693027E-04
      0.420000          0.696236E-04
      0.425000          0.703935E-04
      0.430000          0.715788E-04
      0.435000          0.731367E-04
      0.440000          0.750165E-04
      0.445000          0.771609E-04
      0.450000          0.795079E-04
      0.455000          0.819924E-04
      0.460000          0.845482E-04
      0.465000          0.871096E-04
      0.470000          0.896132E-04
      0.475000          0.919999E-04
      0.480000          0.942159E-04
      0.485000          0.962145E-04
      0.490000          0.979565E-04
      0.495000          0.994114E-04
      0.500000          0.100558E-03
