 I_abs(s)[cm^-1]/c[mg/ml]
       0.00000          0.148542E-01
      0.500000E-02      0.147996E-01
      0.100000E-01      0.146370E-01
      0.150000E-01      0.143698E-01
      0.200000E-01      0.140038E-01
      0.250000E-01      0.135466E-01
      0.300000E-01      0.130078E-01
      0.350000E-01      0.123982E-01
      0.400000E-01      0.117298E-01
      0.450000E-01      0.110154E-01
      0.500000E-01      0.102682E-01
      0.550000E-01      0.950103E-02
      0.600000E-01      0.872675E-02
      0.650000E-01      0.795727E-02
      0.700000E-01      0.720354E-02
      0.750000E-01      0.647529E-02
      0.800000E-01      0.578081E-02
      0.850000E-01      0.512686E-02
      0.900000E-01      0.451861E-02
      0.950000E-01      0.395966E-02
      0.100000          0.345205E-02
      0.105000          0.299644E-02
      0.110000          0.259218E-02
      0.115000          0.223753E-02
      0.120000          0.192985E-02
      0.125000          0.166580E-02
      0.130000          0.144152E-02
      0.135000          0.125286E-02
      0.140000          0.109557E-02
      0.145000          0.965404E-03
      0.150000          0.858307E-03
      0.155000          0.770496E-03
      0.160000          0.698543E-03
      0.165000          0.639422E-03
      0.170000          0.590534E-03
      0.175000          0.549701E-03
      0.180000          0.515154E-03
      0.185000          0.485493E-03
      0.190000          0.459644E-03
      0.195000          0.436807E-03
      0.200000          0.416405E-03
      0.205000          0.398027E-03
      0.210000          0.381388E-03
      0.215000          0.366279E-03
      0.220000          0.352537E-03
      0.225000          0.340019E-03
      0.230000          0.328584E-03
      0.235000          0.318082E-03
      0.240000          0.308348E-03
      0.245000          0.299211E-03
      0.250000          0.290491E-03
      0.255000          0.282013E-03
      0.260000          0.273615E-03
      0.265000          0.265155E-03
      0.270000          0.256522E-03
      0.275000          0.247640E-03
      0.280000          0.238472E-03
      0.285000          0.229024E-03
      0.290000          0.219336E-03
      0.295000          0.209487E-03
      0.300000          0.199583E-03
      0.305000          0.189751E-03
      0.310000          0.180132E-03
      0.315000          0.170872E-03
      0.320000          0.162112E-03
      0.325000          0.153983E-03
      0.330000          0.146595E-03
      0.335000          0.140039E-03
      0.340000          0.134376E-03
      0.345000          0.129638E-03
      0.350000          0.125828E-03
      0.355000          0.122920E-03
      0.360000          0.120864E-03
      0.365000          0.119583E-03
      0.370000          0.118985E-03
      0.375000          0.118960E-03
      0.380000          0.119391E-03
      0.385000          0.120157E-03
      0.390000          0.121136E-03
      0.395000          0.122211E-03
      0.400000          0.123273E-03
      0.405000          0.124227E-03
      0.410000          0.124989E-03
      0.415000          0.125493E-03
      0.420000          0.125689E-03
      0.425000          0.125545E-03
      0.430000          0.125046E-03
      0.435000          0.124192E-03
      0.440000          0.122999E-03
      0.445000          0.121495E-03
      0.450000          0.119717E-03
      0.455000          0.117713E-03
      0.460000          0.115535E-03
      0.465000          0.113238E-03
      0.470000          0.110879E-03
      0.475000          0.108512E-03
      0.480000          0.106188E-03
      0.485000          0.103953E-03
      0.490000          0.101846E-03
      0.495000          0.998969E-04
      0.500000          0.981280E-04
