 I_abs(s)[cm^-1]/c[mg/ml]
       0.00000          0.147020E-01
      0.500000E-02      0.146433E-01
      0.100000E-01      0.144684E-01
      0.150000E-01      0.141815E-01
      0.200000E-01      0.137891E-01
      0.250000E-01      0.133002E-01
      0.300000E-01      0.127258E-01
      0.350000E-01      0.120782E-01
      0.400000E-01      0.113712E-01
      0.450000E-01      0.106191E-01
      0.500000E-01      0.983657E-02
      0.550000E-01      0.903794E-02
      0.600000E-01      0.823698E-02
      0.650000E-01      0.744645E-02
      0.700000E-01      0.667781E-02
      0.750000E-01      0.594100E-02
      0.800000E-01      0.524425E-02
      0.850000E-01      0.459404E-02
      0.900000E-01      0.399503E-02
      0.950000E-01      0.345020E-02
      0.100000          0.296087E-02
      0.105000          0.252693E-02
      0.110000          0.214700E-02
      0.115000          0.181864E-02
      0.120000          0.153859E-02
      0.125000          0.130297E-02
      0.130000          0.110752E-02
      0.135000          0.947767E-03
      0.140000          0.819187E-03
      0.145000          0.717375E-03
      0.150000          0.638138E-03
      0.155000          0.577587E-03
      0.160000          0.532189E-03
      0.165000          0.498806E-03
      0.170000          0.474706E-03
      0.175000          0.457559E-03
      0.180000          0.445422E-03
      0.185000          0.436709E-03
      0.190000          0.430160E-03
      0.195000          0.424803E-03
      0.200000          0.419918E-03
      0.205000          0.414995E-03
      0.210000          0.409701E-03
      0.215000          0.403845E-03
      0.220000          0.397344E-03
      0.225000          0.390200E-03
      0.230000          0.382472E-03
      0.235000          0.374256E-03
      0.240000          0.365668E-03
      0.245000          0.356827E-03
      0.250000          0.347850E-03
      0.255000          0.338836E-03
      0.260000          0.329868E-03
      0.265000          0.321006E-03
      0.270000          0.312290E-03
      0.275000          0.303737E-03
      0.280000          0.295351E-03
      0.285000          0.287121E-03
      0.290000          0.279031E-03
      0.295000          0.271058E-03
      0.300000          0.263184E-03
      0.305000          0.255395E-03
      0.310000          0.247684E-03
      0.315000          0.240052E-03
      0.320000          0.232513E-03
      0.325000          0.225084E-03
      0.330000          0.217792E-03
      0.335000          0.210666E-03
      0.340000          0.203739E-03
      0.345000          0.197038E-03
      0.350000          0.190589E-03
      0.355000          0.184407E-03
      0.360000          0.178502E-03
      0.365000          0.172874E-03
      0.370000          0.167513E-03
      0.375000          0.162401E-03
      0.380000          0.157516E-03
      0.385000          0.152828E-03
      0.390000          0.148307E-03
      0.395000          0.143925E-03
      0.400000          0.139655E-03
      0.405000          0.135477E-03
      0.410000          0.131378E-03
      0.415000          0.127351E-03
      0.420000          0.123401E-03
      0.425000          0.119539E-03
      0.430000          0.115782E-03
      0.435000          0.112155E-03
      0.440000          0.108686E-03
      0.445000          0.105407E-03
      0.450000          0.102346E-03
      0.455000          0.995321E-04
      0.460000          0.969895E-04
      0.465000          0.947365E-04
      0.470000          0.927849E-04
      0.475000          0.911387E-04
      0.480000          0.897944E-04
      0.485000          0.887404E-04
      0.490000          0.879577E-04
      0.495000          0.874211E-04
      0.500000          0.870998E-04
