 I_abs(s)[cm^-1]/c[mg/ml]
       0.00000          0.142032E-01
      0.500000E-02      0.141243E-01
      0.100000E-01      0.138910E-01
      0.150000E-01      0.135129E-01
      0.200000E-01      0.130053E-01
      0.250000E-01      0.123880E-01
      0.300000E-01      0.116844E-01
      0.350000E-01      0.109193E-01
      0.400000E-01      0.101178E-01
      0.450000E-01      0.930412E-02
      0.500000E-01      0.849959E-02
      0.550000E-01      0.772237E-02
      0.600000E-01      0.698656E-02
      0.650000E-01      0.630200E-02
      0.700000E-01      0.567441E-02
      0.750000E-01      0.510576E-02
      0.800000E-01      0.459492E-02
      0.850000E-01      0.413842E-02
      0.900000E-01      0.373125E-02
      0.950000E-01      0.336767E-02
      0.100000          0.304185E-02
      0.105000          0.274839E-02
      0.110000          0.248272E-02
      0.115000          0.224118E-02
      0.120000          0.202109E-02
      0.125000          0.182062E-02
      0.130000          0.163858E-02
      0.135000          0.147415E-02
      0.140000          0.132669E-02
      0.145000          0.119555E-02
      0.150000          0.107986E-02
      0.155000          0.978549E-03
      0.160000          0.890278E-03
      0.165000          0.813530E-03
      0.170000          0.746688E-03
      0.175000          0.688147E-03
      0.180000          0.636415E-03
      0.185000          0.590199E-03
      0.190000          0.548458E-03
      0.195000          0.510415E-03
      0.200000          0.475548E-03
      0.205000          0.443540E-03
      0.210000          0.414219E-03
      0.215000          0.387497E-03
      0.220000          0.363307E-03
      0.225000          0.341556E-03
      0.230000          0.322101E-03
      0.235000          0.304740E-03
      0.240000          0.289224E-03
      0.245000          0.275280E-03
      0.250000          0.262643E-03
      0.255000          0.251081E-03
      0.260000          0.240425E-03
      0.265000          0.230575E-03
      0.270000          0.221505E-03
      0.275000          0.213246E-03
      0.280000          0.205868E-03
      0.285000          0.199448E-03
      0.290000          0.194049E-03
      0.295000          0.189690E-03
      0.300000          0.186329E-03
      0.305000          0.183862E-03
      0.310000          0.182122E-03
      0.315000          0.180894E-03
      0.320000          0.179937E-03
      0.325000          0.179008E-03
      0.330000          0.177886E-03
      0.335000          0.176396E-03
      0.340000          0.174419E-03
      0.345000          0.171908E-03
      0.350000          0.168877E-03
      0.355000          0.165401E-03
      0.360000          0.161597E-03
      0.365000          0.157604E-03
      0.370000          0.153568E-03
      0.375000          0.149619E-03
      0.380000          0.145862E-03
      0.385000          0.142363E-03
      0.390000          0.139151E-03
      0.395000          0.136215E-03
      0.400000          0.133514E-03
      0.405000          0.130988E-03
      0.410000          0.128566E-03
      0.415000          0.126182E-03
      0.420000          0.123781E-03
      0.425000          0.121329E-03
      0.430000          0.118815E-03
      0.435000          0.116248E-03
      0.440000          0.113659E-03
      0.445000          0.111091E-03
      0.450000          0.108595E-03
      0.455000          0.106220E-03
      0.460000          0.104009E-03
      0.465000          0.101991E-03
      0.470000          0.100183E-03
      0.475000          0.985832E-04
      0.480000          0.971797E-04
      0.485000          0.959485E-04
      0.490000          0.948604E-04
      0.495000          0.938850E-04
      0.500000          0.929953E-04
