 I_abs(s)[cm^-1]/c[mg/ml]
       0.00000          0.148381E-01
      0.500000E-02      0.147740E-01
      0.100000E-01      0.145832E-01
      0.150000E-01      0.142712E-01
      0.200000E-01      0.138467E-01
      0.250000E-01      0.133211E-01
      0.300000E-01      0.127085E-01
      0.350000E-01      0.120243E-01
      0.400000E-01      0.112855E-01
      0.450000E-01      0.105092E-01
      0.500000E-01      0.971236E-02
      0.550000E-01      0.891091E-02
      0.600000E-01      0.811948E-02
      0.650000E-01      0.735085E-02
      0.700000E-01      0.661561E-02
      0.750000E-01      0.592208E-02
      0.800000E-01      0.527620E-02
      0.850000E-01      0.468166E-02
      0.900000E-01      0.414005E-02
      0.950000E-01      0.365114E-02
      0.100000          0.321322E-02
      0.105000          0.282343E-02
      0.110000          0.247813E-02
      0.115000          0.217325E-02
      0.120000          0.190458E-02
      0.125000          0.166802E-02
      0.130000          0.145978E-02
      0.135000          0.127651E-02
      0.140000          0.111534E-02
      0.145000          0.973922E-03
      0.150000          0.850345E-03
      0.155000          0.743094E-03
      0.160000          0.650943E-03
      0.165000          0.572851E-03
      0.170000          0.507862E-03
      0.175000          0.455022E-03
      0.180000          0.413313E-03
      0.185000          0.381615E-03
      0.190000          0.358689E-03
      0.195000          0.343195E-03
      0.200000          0.333718E-03
      0.205000          0.328820E-03
      0.210000          0.327094E-03
      0.215000          0.327225E-03
      0.220000          0.328041E-03
      0.225000          0.328562E-03
      0.230000          0.328027E-03
      0.235000          0.325916E-03
      0.240000          0.321942E-03
      0.245000          0.316044E-03
      0.250000          0.308350E-03
      0.255000          0.299144E-03
      0.260000          0.288818E-03
      0.265000          0.277824E-03
      0.270000          0.266632E-03
      0.275000          0.255684E-03
      0.280000          0.245364E-03
      0.285000          0.235976E-03
      0.290000          0.227722E-03
      0.295000          0.220707E-03
      0.300000          0.214936E-03
      0.305000          0.210332E-03
      0.310000          0.206746E-03
      0.315000          0.203984E-03
      0.320000          0.201824E-03
      0.325000          0.200039E-03
      0.330000          0.198413E-03
      0.335000          0.196756E-03
      0.340000          0.194915E-03
      0.345000          0.192779E-03
      0.350000          0.190280E-03
      0.355000          0.187393E-03
      0.360000          0.184125E-03
      0.365000          0.180516E-03
      0.370000          0.176626E-03
      0.375000          0.172526E-03
      0.380000          0.168293E-03
      0.385000          0.164001E-03
      0.390000          0.159717E-03
      0.395000          0.155500E-03
      0.400000          0.151394E-03
      0.405000          0.147432E-03
      0.410000          0.143634E-03
      0.415000          0.140012E-03
      0.420000          0.136568E-03
      0.425000          0.133299E-03
      0.430000          0.130199E-03
      0.435000          0.127259E-03
      0.440000          0.124471E-03
      0.445000          0.121825E-03
      0.450000          0.119312E-03
      0.455000          0.116927E-03
      0.460000          0.114661E-03
      0.465000          0.112508E-03
      0.470000          0.110460E-03
      0.475000          0.108510E-03
      0.480000          0.106651E-03
      0.485000          0.104873E-03
      0.490000          0.103169E-03
      0.495000          0.101529E-03
      0.500000          0.999474E-04
