 I_abs(s)[cm^-1]/c[mg/ml]
       0.00000          0.145507E-01
      0.500000E-02      0.144832E-01
      0.100000E-01      0.142829E-01
      0.150000E-01      0.139558E-01
      0.200000E-01      0.135119E-01
      0.250000E-01      0.129642E-01
      0.300000E-01      0.123285E-01
      0.350000E-01      0.116224E-01
      0.400000E-01      0.108647E-01
      0.450000E-01      0.100743E-01
      0.500000E-01      0.926959E-02
      0.550000E-01      0.846786E-02
      0.600000E-01      0.768440E-02
      0.650000E-01      0.693222E-02
      0.700000E-01      0.622172E-02
      0.750000E-01      0.556051E-02
      0.800000E-01      0.495346E-02
      0.850000E-01      0.440287E-02
      0.900000E-01      0.390870E-02
      0.950000E-01      0.346899E-02
      0.100000          0.308025E-02
      0.105000          0.273794E-02
      0.110000          0.243693E-02
      0.115000          0.217186E-02
      0.120000          0.193753E-02
      0.125000          0.172916E-02
      0.130000          0.154263E-02
      0.135000          0.137451E-02
      0.140000          0.122217E-02
      0.145000          0.108371E-02
      0.150000          0.957845E-03
      0.155000          0.843847E-03
      0.160000          0.741331E-03
      0.165000          0.650134E-03
      0.170000          0.570164E-03
      0.175000          0.501284E-03
      0.180000          0.443217E-03
      0.185000          0.395492E-03
      0.190000          0.357421E-03
      0.195000          0.328103E-03
      0.200000          0.306461E-03
      0.205000          0.291294E-03
      0.210000          0.281344E-03
      0.215000          0.275357E-03
      0.220000          0.272153E-03
      0.225000          0.270680E-03
      0.230000          0.270053E-03
      0.235000          0.269578E-03
      0.240000          0.268766E-03
      0.245000          0.267318E-03
      0.250000          0.265112E-03
      0.255000          0.262166E-03
      0.260000          0.258605E-03
      0.265000          0.254621E-03
      0.270000          0.250434E-03
      0.275000          0.246257E-03
      0.280000          0.242269E-03
      0.285000          0.238597E-03
      0.290000          0.235304E-03
      0.295000          0.232384E-03
      0.300000          0.229772E-03
      0.305000          0.227349E-03
      0.310000          0.224962E-03
      0.315000          0.222440E-03
      0.320000          0.219609E-03
      0.325000          0.216315E-03
      0.330000          0.212434E-03
      0.335000          0.207882E-03
      0.340000          0.202626E-03
      0.345000          0.196681E-03
      0.350000          0.190113E-03
      0.355000          0.183032E-03
      0.360000          0.175580E-03
      0.365000          0.167926E-03
      0.370000          0.160251E-03
      0.375000          0.152734E-03
      0.380000          0.145548E-03
      0.385000          0.138842E-03
      0.390000          0.132737E-03
      0.395000          0.127324E-03
      0.400000          0.122652E-03
      0.405000          0.118739E-03
      0.410000          0.115563E-03
      0.415000          0.113075E-03
      0.420000          0.111199E-03
      0.425000          0.109841E-03
      0.430000          0.108896E-03
      0.435000          0.108255E-03
      0.440000          0.107811E-03
      0.445000          0.107467E-03
      0.450000          0.107138E-03
      0.455000          0.106754E-03
      0.460000          0.106267E-03
      0.465000          0.105644E-03
      0.470000          0.104870E-03
      0.475000          0.103948E-03
      0.480000          0.102890E-03
      0.485000          0.101723E-03
      0.490000          0.100474E-03
      0.495000          0.991765E-04
      0.500000          0.978631E-04
