 I_abs(s)[cm^-1]/c[mg/ml]
       0.00000          0.137901E-01
      0.500000E-02      0.137163E-01
      0.100000E-01      0.134971E-01
      0.150000E-01      0.131398E-01
      0.200000E-01      0.126561E-01
      0.250000E-01      0.120612E-01
      0.300000E-01      0.113737E-01
      0.350000E-01      0.106143E-01
      0.400000E-01      0.980468E-02
      0.450000E-01      0.896705E-02
      0.500000E-01      0.812275E-02
      0.550000E-01      0.729154E-02
      0.600000E-01      0.649088E-02
      0.650000E-01      0.573538E-02
      0.700000E-01      0.503640E-02
      0.750000E-01      0.440192E-02
      0.800000E-01      0.383651E-02
      0.850000E-01      0.334160E-02
      0.900000E-01      0.291578E-02
      0.950000E-01      0.255525E-02
      0.100000          0.225442E-02
      0.105000          0.200640E-02
      0.110000          0.180361E-02
      0.115000          0.163830E-02
      0.120000          0.150298E-02
      0.125000          0.139078E-02
      0.130000          0.129574E-02
      0.135000          0.121296E-02
      0.140000          0.113861E-02
      0.145000          0.106997E-02
      0.150000          0.100526E-02
      0.155000          0.943554E-03
      0.160000          0.884524E-03
      0.165000          0.828294E-03
      0.170000          0.775231E-03
      0.175000          0.725788E-03
      0.180000          0.680361E-03
      0.185000          0.639205E-03
      0.190000          0.602374E-03
      0.195000          0.569703E-03
      0.200000          0.540830E-03
      0.205000          0.515230E-03
      0.210000          0.492278E-03
      0.215000          0.471305E-03
      0.220000          0.451667E-03
      0.225000          0.432793E-03
      0.230000          0.414231E-03
      0.235000          0.395667E-03
      0.240000          0.376937E-03
      0.245000          0.358018E-03
      0.250000          0.339009E-03
      0.255000          0.320099E-03
      0.260000          0.301533E-03
      0.265000          0.283579E-03
      0.270000          0.266490E-03
      0.275000          0.250484E-03
      0.280000          0.235717E-03
      0.285000          0.222279E-03
      0.290000          0.210190E-03
      0.295000          0.199404E-03
      0.300000          0.189825E-03
      0.305000          0.181318E-03
      0.310000          0.173733E-03
      0.315000          0.166914E-03
      0.320000          0.160723E-03
      0.325000          0.155045E-03
      0.330000          0.149799E-03
      0.335000          0.144936E-03
      0.340000          0.140442E-03
      0.345000          0.136332E-03
      0.350000          0.132638E-03
      0.355000          0.129401E-03
      0.360000          0.126664E-03
      0.365000          0.124460E-03
      0.370000          0.122803E-03
      0.375000          0.121688E-03
      0.380000          0.121084E-03
      0.385000          0.120937E-03
      0.390000          0.121174E-03
      0.395000          0.121702E-03
      0.400000          0.122423E-03
      0.405000          0.123233E-03
      0.410000          0.124034E-03
      0.415000          0.124738E-03
      0.420000          0.125271E-03
      0.425000          0.125579E-03
      0.430000          0.125629E-03
      0.435000          0.125407E-03
      0.440000          0.124919E-03
      0.445000          0.124184E-03
      0.450000          0.123237E-03
      0.455000          0.122115E-03
      0.460000          0.120863E-03
      0.465000          0.119520E-03
      0.470000          0.118123E-03
      0.475000          0.116700E-03
      0.480000          0.115268E-03
      0.485000          0.113836E-03
      0.490000          0.112403E-03
      0.495000          0.110958E-03
      0.500000          0.109485E-03
