 I_abs(s)[cm^-1]/c[mg/ml]
       0.00000          0.144951E-01
      0.500000E-02      0.144489E-01
      0.100000E-01      0.143112E-01
      0.150000E-01      0.140844E-01
      0.200000E-01      0.137727E-01
      0.250000E-01      0.133817E-01
      0.300000E-01      0.129182E-01
      0.350000E-01      0.123903E-01
      0.400000E-01      0.118070E-01
      0.450000E-01      0.111778E-01
      0.500000E-01      0.105127E-01
      0.550000E-01      0.982215E-02
      0.600000E-01      0.911610E-02
      0.650000E-01      0.840442E-02
      0.700000E-01      0.769643E-02
      0.750000E-01      0.700072E-02
      0.800000E-01      0.632503E-02
      0.850000E-01      0.567612E-02
      0.900000E-01      0.505968E-02
      0.950000E-01      0.448029E-02
      0.100000          0.394140E-02
      0.105000          0.344536E-02
      0.110000          0.299349E-02
      0.115000          0.258609E-02
      0.120000          0.222264E-02
      0.125000          0.190181E-02
      0.130000          0.162167E-02
      0.135000          0.137975E-02
      0.140000          0.117320E-02
      0.145000          0.998938E-03
      0.150000          0.853696E-03
      0.155000          0.734184E-03
      0.160000          0.637154E-03
      0.165000          0.559478E-03
      0.170000          0.498211E-03
      0.175000          0.450630E-03
      0.180000          0.414268E-03
      0.185000          0.386929E-03
      0.190000          0.366691E-03
      0.195000          0.351907E-03
      0.200000          0.341187E-03
      0.205000          0.333380E-03
      0.210000          0.327555E-03
      0.215000          0.322974E-03
      0.220000          0.319068E-03
      0.225000          0.315410E-03
      0.230000          0.311695E-03
      0.235000          0.307714E-03
      0.240000          0.303339E-03
      0.245000          0.298504E-03
      0.250000          0.293191E-03
      0.255000          0.287420E-03
      0.260000          0.281234E-03
      0.265000          0.274698E-03
      0.270000          0.267889E-03
      0.275000          0.260887E-03
      0.280000          0.253779E-03
      0.285000          0.246645E-03
      0.290000          0.239566E-03
      0.295000          0.232610E-03
      0.300000          0.225838E-03
      0.305000          0.219300E-03
      0.310000          0.213030E-03
      0.315000          0.207051E-03
      0.320000          0.201371E-03
      0.325000          0.195985E-03
      0.330000          0.190876E-03
      0.335000          0.186016E-03
      0.340000          0.181367E-03
      0.345000          0.176887E-03
      0.350000          0.172529E-03
      0.355000          0.168246E-03
      0.360000          0.163993E-03
      0.365000          0.159730E-03
      0.370000          0.155425E-03
      0.375000          0.151052E-03
      0.380000          0.146599E-03
      0.385000          0.142062E-03
      0.390000          0.137449E-03
      0.395000          0.132778E-03
      0.400000          0.128077E-03
      0.405000          0.123381E-03
      0.410000          0.118731E-03
      0.415000          0.114171E-03
      0.420000          0.109747E-03
      0.425000          0.105503E-03
      0.430000          0.101479E-03
      0.435000          0.977127E-04
      0.440000          0.942320E-04
      0.445000          0.910581E-04
      0.450000          0.882035E-04
      0.455000          0.856717E-04
      0.460000          0.834579E-04
      0.465000          0.815490E-04
      0.470000          0.799251E-04
      0.475000          0.785607E-04
      0.480000          0.774261E-04
      0.485000          0.764891E-04
      0.490000          0.757165E-04
      0.495000          0.750756E-04
      0.500000          0.745360E-04
