 I_abs(s)[cm^-1]/c[mg/ml]
       0.00000          0.140778E-01
      0.500000E-02      0.140035E-01
      0.100000E-01      0.137832E-01
      0.150000E-01      0.134245E-01
      0.200000E-01      0.129396E-01
      0.250000E-01      0.123448E-01
      0.300000E-01      0.116594E-01
      0.350000E-01      0.109047E-01
      0.400000E-01      0.101033E-01
      0.450000E-01      0.927734E-02
      0.500000E-01      0.844827E-02
      0.550000E-01      0.763540E-02
      0.600000E-01      0.685541E-02
      0.650000E-01      0.612180E-02
      0.700000E-01      0.544459E-02
      0.750000E-01      0.483030E-02
      0.800000E-01      0.428205E-02
      0.850000E-01      0.379987E-02
      0.900000E-01      0.338121E-02
      0.950000E-01      0.302145E-02
      0.100000          0.271450E-02
      0.105000          0.245338E-02
      0.110000          0.223082E-02
      0.115000          0.203968E-02
      0.120000          0.187340E-02
      0.125000          0.172621E-02
      0.130000          0.159336E-02
      0.135000          0.147112E-02
      0.140000          0.135683E-02
      0.145000          0.124874E-02
      0.150000          0.114590E-02
      0.155000          0.104798E-02
      0.160000          0.955074E-03
      0.165000          0.867554E-03
      0.170000          0.785889E-03
      0.175000          0.710542E-03
      0.180000          0.641872E-03
      0.185000          0.580085E-03
      0.190000          0.525206E-03
      0.195000          0.477080E-03
      0.200000          0.435392E-03
      0.205000          0.399699E-03
      0.210000          0.369466E-03
      0.215000          0.344104E-03
      0.220000          0.323003E-03
      0.225000          0.305565E-03
      0.230000          0.291222E-03
      0.235000          0.279452E-03
      0.240000          0.269791E-03
      0.245000          0.261831E-03
      0.250000          0.255225E-03
      0.255000          0.249682E-03
      0.260000          0.244964E-03
      0.265000          0.240878E-03
      0.270000          0.237274E-03
      0.275000          0.234034E-03
      0.280000          0.231070E-03
      0.285000          0.228313E-03
      0.290000          0.225710E-03
      0.295000          0.223215E-03
      0.300000          0.220786E-03
      0.305000          0.218378E-03
      0.310000          0.215941E-03
      0.315000          0.213421E-03
      0.320000          0.210758E-03
      0.325000          0.207891E-03
      0.330000          0.204759E-03
      0.335000          0.201312E-03
      0.340000          0.197510E-03
      0.345000          0.193333E-03
      0.350000          0.188786E-03
      0.355000          0.183894E-03
      0.360000          0.178712E-03
      0.365000          0.173314E-03
      0.370000          0.167795E-03
      0.375000          0.162259E-03
      0.380000          0.156816E-03
      0.385000          0.151571E-03
      0.390000          0.146617E-03
      0.395000          0.142028E-03
      0.400000          0.137855E-03
      0.405000          0.134122E-03
      0.410000          0.130828E-03
      0.415000          0.127947E-03
      0.420000          0.125432E-03
      0.425000          0.123223E-03
      0.430000          0.121252E-03
      0.435000          0.119450E-03
      0.440000          0.117753E-03
      0.445000          0.116106E-03
      0.450000          0.114467E-03
      0.455000          0.112811E-03
      0.460000          0.111123E-03
      0.465000          0.109404E-03
      0.470000          0.107661E-03
      0.475000          0.105908E-03
      0.480000          0.104159E-03
      0.485000          0.102427E-03
      0.490000          0.100717E-03
      0.495000          0.990294E-04
      0.500000          0.973554E-04
