 I_abs(s)[cm^-1]/c[mg/ml]
       0.00000          0.146701E-01
      0.500000E-02      0.146099E-01
      0.100000E-01      0.144309E-01
      0.150000E-01      0.141377E-01
      0.200000E-01      0.137375E-01
      0.250000E-01      0.132405E-01
      0.300000E-01      0.126585E-01
      0.350000E-01      0.120053E-01
      0.400000E-01      0.112957E-01
      0.450000E-01      0.105452E-01
      0.500000E-01      0.976908E-02
      0.550000E-01      0.898240E-02
      0.600000E-01      0.819909E-02
      0.650000E-01      0.743177E-02
      0.700000E-01      0.669142E-02
      0.750000E-01      0.598711E-02
      0.800000E-01      0.532594E-02
      0.850000E-01      0.471301E-02
      0.900000E-01      0.415146E-02
      0.950000E-01      0.364265E-02
      0.100000          0.318635E-02
      0.105000          0.278099E-02
      0.110000          0.242394E-02
      0.115000          0.211179E-02
      0.120000          0.184061E-02
      0.125000          0.160623E-02
      0.130000          0.140444E-02
      0.135000          0.123117E-02
      0.140000          0.108263E-02
      0.145000          0.955418E-03
      0.150000          0.846525E-03
      0.155000          0.753394E-03
      0.160000          0.673876E-03
      0.165000          0.606196E-03
      0.170000          0.548896E-03
      0.175000          0.500767E-03
      0.180000          0.460793E-03
      0.185000          0.428081E-03
      0.190000          0.401820E-03
      0.195000          0.381238E-03
      0.200000          0.365576E-03
      0.205000          0.354082E-03
      0.210000          0.346001E-03
      0.215000          0.340590E-03
      0.220000          0.337132E-03
      0.225000          0.334949E-03
      0.230000          0.333427E-03
      0.235000          0.332030E-03
      0.240000          0.330313E-03
      0.245000          0.327934E-03
      0.250000          0.324651E-03
      0.255000          0.320325E-03
      0.260000          0.314909E-03
      0.265000          0.308435E-03
      0.270000          0.301001E-03
      0.275000          0.292755E-03
      0.280000          0.283873E-03
      0.285000          0.274548E-03
      0.290000          0.264970E-03
      0.295000          0.255321E-03
      0.300000          0.245760E-03
      0.305000          0.236419E-03
      0.310000          0.227403E-03
      0.315000          0.218786E-03
      0.320000          0.210616E-03
      0.325000          0.202919E-03
      0.330000          0.195701E-03
      0.335000          0.188957E-03
      0.340000          0.182670E-03
      0.345000          0.176824E-03
      0.350000          0.171399E-03
      0.355000          0.166377E-03
      0.360000          0.161744E-03
      0.365000          0.157488E-03
      0.370000          0.153599E-03
      0.375000          0.150068E-03
      0.380000          0.146887E-03
      0.385000          0.144041E-03
      0.390000          0.141515E-03
      0.395000          0.139286E-03
      0.400000          0.137324E-03
      0.405000          0.135595E-03
      0.410000          0.134055E-03
      0.415000          0.132659E-03
      0.420000          0.131357E-03
      0.425000          0.130096E-03
      0.430000          0.128826E-03
      0.435000          0.127498E-03
      0.440000          0.126071E-03
      0.445000          0.124509E-03
      0.450000          0.122785E-03
      0.455000          0.120882E-03
      0.460000          0.118793E-03
      0.465000          0.116520E-03
      0.470000          0.114078E-03
      0.475000          0.111487E-03
      0.480000          0.108777E-03
      0.485000          0.105980E-03
      0.490000          0.103135E-03
      0.495000          0.100281E-03
      0.500000          0.974574E-04
