 I_abs(s)[cm^-1]/c[mg/ml]
       0.00000          0.147820E-01
      0.500000E-02      0.147258E-01
      0.100000E-01      0.145586E-01
      0.150000E-01      0.142845E-01
      0.200000E-01      0.139102E-01
      0.250000E-01      0.134447E-01
      0.300000E-01      0.128988E-01
      0.350000E-01      0.122849E-01
      0.400000E-01      0.116164E-01
      0.450000E-01      0.109073E-01
      0.500000E-01      0.101716E-01
      0.550000E-01      0.942271E-02
      0.600000E-01      0.867345E-02
      0.650000E-01      0.793532E-02
      0.700000E-01      0.721840E-02
      0.750000E-01      0.653111E-02
      0.800000E-01      0.588015E-02
      0.850000E-01      0.527046E-02
      0.900000E-01      0.470529E-02
      0.950000E-01      0.418632E-02
      0.100000          0.371387E-02
      0.105000          0.328705E-02
      0.110000          0.290405E-02
      0.115000          0.256236E-02
      0.120000          0.225897E-02
      0.125000          0.199062E-02
      0.130000          0.175396E-02
      0.135000          0.154569E-02
      0.140000          0.136267E-02
      0.145000          0.120202E-02
      0.150000          0.106112E-02
      0.155000          0.937656E-03
      0.160000          0.829611E-03
      0.165000          0.735220E-03
      0.170000          0.652956E-03
      0.175000          0.581478E-03
      0.180000          0.519602E-03
      0.185000          0.466265E-03
      0.190000          0.420495E-03
      0.195000          0.381395E-03
      0.200000          0.348128E-03
      0.205000          0.319917E-03
      0.210000          0.296038E-03
      0.215000          0.275831E-03
      0.220000          0.258699E-03
      0.225000          0.244120E-03
      0.230000          0.231642E-03
      0.235000          0.220892E-03
      0.240000          0.211569E-03
      0.245000          0.203441E-03
      0.250000          0.196336E-03
      0.255000          0.190129E-03
      0.260000          0.184738E-03
      0.265000          0.180104E-03
      0.270000          0.176185E-03
      0.275000          0.172945E-03
      0.280000          0.170346E-03
      0.285000          0.168344E-03
      0.290000          0.166883E-03
      0.295000          0.165899E-03
      0.300000          0.165314E-03
      0.305000          0.165046E-03
      0.310000          0.165008E-03
      0.315000          0.165112E-03
      0.320000          0.165272E-03
      0.325000          0.165409E-03
      0.330000          0.165454E-03
      0.335000          0.165347E-03
      0.340000          0.165039E-03
      0.345000          0.164492E-03
      0.350000          0.163679E-03
      0.355000          0.162585E-03
      0.360000          0.161199E-03
      0.365000          0.159521E-03
      0.370000          0.157558E-03
      0.375000          0.155320E-03
      0.380000          0.152823E-03
      0.385000          0.150090E-03
      0.390000          0.147143E-03
      0.395000          0.144014E-03
      0.400000          0.140733E-03
      0.405000          0.137337E-03
      0.410000          0.133863E-03
      0.415000          0.130353E-03
      0.420000          0.126846E-03
      0.425000          0.123383E-03
      0.430000          0.120001E-03
      0.435000          0.116736E-03
      0.440000          0.113619E-03
      0.445000          0.110674E-03
      0.450000          0.107920E-03
      0.455000          0.105369E-03
      0.460000          0.103026E-03
      0.465000          0.100889E-03
      0.470000          0.989502E-04
      0.475000          0.971962E-04
      0.480000          0.956104E-04
      0.485000          0.941733E-04
      0.490000          0.928642E-04
      0.495000          0.916626E-04
      0.500000          0.905490E-04
