 I_abs(s)[cm^-1]/c[mg/ml]
       0.00000          0.146302E-01
      0.500000E-02      0.145806E-01
      0.100000E-01      0.144328E-01
      0.150000E-01      0.141897E-01
      0.200000E-01      0.138563E-01
      0.250000E-01      0.134391E-01
      0.300000E-01      0.129462E-01
      0.350000E-01      0.123870E-01
      0.400000E-01      0.117718E-01
      0.450000E-01      0.111119E-01
      0.500000E-01      0.104185E-01
      0.550000E-01      0.970319E-02
      0.600000E-01      0.897719E-02
      0.650000E-01      0.825121E-02
      0.700000E-01      0.753519E-02
      0.750000E-01      0.683807E-02
      0.800000E-01      0.616767E-02
      0.850000E-01      0.553053E-02
      0.900000E-01      0.493185E-02
      0.950000E-01      0.437552E-02
      0.100000          0.386408E-02
      0.105000          0.339883E-02
      0.110000          0.297992E-02
      0.115000          0.260648E-02
      0.120000          0.227677E-02
      0.125000          0.198832E-02
      0.130000          0.173815E-02
      0.135000          0.152288E-02
      0.140000          0.133889E-02
      0.145000          0.118252E-02
      0.150000          0.105013E-02
      0.155000          0.938218E-03
      0.160000          0.843542E-03
      0.165000          0.763144E-03
      0.170000          0.694406E-03
      0.175000          0.635067E-03
      0.180000          0.583229E-03
      0.185000          0.537346E-03
      0.190000          0.496197E-03
      0.195000          0.458854E-03
      0.200000          0.424645E-03
      0.205000          0.393111E-03
      0.210000          0.363964E-03
      0.215000          0.337044E-03
      0.220000          0.312281E-03
      0.225000          0.289663E-03
      0.230000          0.269205E-03
      0.235000          0.250926E-03
      0.240000          0.234831E-03
      0.245000          0.220898E-03
      0.250000          0.209075E-03
      0.255000          0.199268E-03
      0.260000          0.191349E-03
      0.265000          0.185157E-03
      0.270000          0.180500E-03
      0.275000          0.177167E-03
      0.280000          0.174932E-03
      0.285000          0.173564E-03
      0.290000          0.172832E-03
      0.295000          0.172513E-03
      0.300000          0.172401E-03
      0.305000          0.172308E-03
      0.310000          0.172071E-03
      0.315000          0.171553E-03
      0.320000          0.170646E-03
      0.325000          0.169272E-03
      0.330000          0.167380E-03
      0.335000          0.164948E-03
      0.340000          0.161980E-03
      0.345000          0.158504E-03
      0.350000          0.154564E-03
      0.355000          0.150225E-03
      0.360000          0.145561E-03
      0.365000          0.140658E-03
      0.370000          0.135604E-03
      0.375000          0.130492E-03
      0.380000          0.125409E-03
      0.385000          0.120442E-03
      0.390000          0.115666E-03
      0.395000          0.111151E-03
      0.400000          0.106953E-03
      0.405000          0.103116E-03
      0.410000          0.996748E-04
      0.415000          0.966473E-04
      0.420000          0.940413E-04
      0.425000          0.918524E-04
      0.430000          0.900658E-04
      0.435000          0.886572E-04
      0.440000          0.875948E-04
      0.445000          0.868407E-04
      0.450000          0.863528E-04
      0.455000          0.860863E-04
      0.460000          0.859954E-04
      0.465000          0.860353E-04
      0.470000          0.861628E-04
      0.475000          0.863381E-04
      0.480000          0.865255E-04
      0.485000          0.866940E-04
      0.490000          0.868182E-04
      0.495000          0.868782E-04
      0.500000          0.868595E-04
