 I_abs(s)[cm^-1]/c[mg/ml]
       0.00000          0.146781E-01
      0.500000E-02      0.146261E-01
      0.100000E-01      0.144711E-01
      0.150000E-01      0.142169E-01
      0.200000E-01      0.138691E-01
      0.250000E-01      0.134355E-01
      0.300000E-01      0.129254E-01
      0.350000E-01      0.123498E-01
      0.400000E-01      0.117203E-01
      0.450000E-01      0.110491E-01
      0.500000E-01      0.103486E-01
      0.550000E-01      0.963090E-02
      0.600000E-01      0.890746E-02
      0.650000E-01      0.818885E-02
      0.700000E-01      0.748448E-02
      0.750000E-01      0.680248E-02
      0.800000E-01      0.614953E-02
      0.850000E-01      0.553089E-02
      0.900000E-01      0.495042E-02
      0.950000E-01      0.441065E-02
      0.100000          0.391289E-02
      0.105000          0.345743E-02
      0.110000          0.304368E-02
      0.115000          0.267035E-02
      0.120000          0.233564E-02
      0.125000          0.203735E-02
      0.130000          0.177310E-02
      0.135000          0.154036E-02
      0.140000          0.133661E-02
      0.145000          0.115938E-02
      0.150000          0.100628E-02
      0.155000          0.875045E-03
      0.160000          0.763544E-03
      0.165000          0.669774E-03
      0.170000          0.591849E-03
      0.175000          0.527994E-03
      0.180000          0.476532E-03
      0.185000          0.435873E-03
      0.190000          0.404510E-03
      0.195000          0.381020E-03
      0.200000          0.364060E-03
      0.205000          0.352377E-03
      0.210000          0.344816E-03
      0.215000          0.340324E-03
      0.220000          0.337961E-03
      0.225000          0.336904E-03
      0.230000          0.336452E-03
      0.235000          0.336024E-03
      0.240000          0.335159E-03
      0.245000          0.333507E-03
      0.250000          0.330825E-03
      0.255000          0.326963E-03
      0.260000          0.321850E-03
      0.265000          0.315489E-03
      0.270000          0.307935E-03
      0.275000          0.299291E-03
      0.280000          0.289689E-03
      0.285000          0.279288E-03
      0.290000          0.268255E-03
      0.295000          0.256768E-03
      0.300000          0.245001E-03
      0.305000          0.233123E-03
      0.310000          0.221295E-03
      0.315000          0.209660E-03
      0.320000          0.198350E-03
      0.325000          0.187476E-03
      0.330000          0.177131E-03
      0.335000          0.167386E-03
      0.340000          0.158294E-03
      0.345000          0.149886E-03
      0.350000          0.142176E-03
      0.355000          0.135159E-03
      0.360000          0.128815E-03
      0.365000          0.123113E-03
      0.370000          0.118009E-03
      0.375000          0.113455E-03
      0.380000          0.109397E-03
      0.385000          0.105780E-03
      0.390000          0.102551E-03
      0.395000          0.996609E-04
      0.400000          0.970650E-04
      0.405000          0.947254E-04
      0.410000          0.926109E-04
      0.415000          0.906970E-04
      0.420000          0.889659E-04
      0.425000          0.874050E-04
      0.430000          0.860064E-04
      0.435000          0.847651E-04
      0.440000          0.836781E-04
      0.445000          0.827430E-04
      0.450000          0.819567E-04
      0.455000          0.813150E-04
      0.460000          0.808120E-04
      0.465000          0.804392E-04
      0.470000          0.801862E-04
      0.475000          0.800404E-04
      0.480000          0.799876E-04
      0.485000          0.800123E-04
      0.490000          0.800984E-04
      0.495000          0.802298E-04
      0.500000          0.803904E-04
