 I_abs(s)[cm^-1]/c[mg/ml]
       0.00000          0.146382E-01
      0.500000E-02      0.145973E-01
      0.100000E-01      0.144751E-01
      0.150000E-01      0.142737E-01
      0.200000E-01      0.139963E-01
      0.250000E-01      0.136472E-01
      0.300000E-01      0.132318E-01
      0.350000E-01      0.127564E-01
      0.400000E-01      0.122283E-01
      0.450000E-01      0.116551E-01
      0.500000E-01      0.110449E-01
      0.550000E-01      0.104062E-01
      0.600000E-01      0.974732E-02
      0.650000E-01      0.907660E-02
      0.700000E-01      0.840206E-02
      0.750000E-01      0.773129E-02
      0.800000E-01      0.707133E-02
      0.850000E-01      0.642853E-02
      0.900000E-01      0.580851E-02
      0.950000E-01      0.521605E-02
      0.100000          0.465512E-02
      0.105000          0.412881E-02
      0.110000          0.363937E-02
      0.115000          0.318826E-02
      0.120000          0.277615E-02
      0.125000          0.240302E-02
      0.130000          0.206825E-02
      0.135000          0.177065E-02
      0.140000          0.150859E-02
      0.145000          0.128006E-02
      0.150000          0.108278E-02
      0.155000          0.914281E-03
      0.160000          0.771961E-03
      0.165000          0.653174E-03
      0.170000          0.555289E-03
      0.175000          0.475736E-03
      0.180000          0.412059E-03
      0.185000          0.361941E-03
      0.190000          0.323236E-03
      0.195000          0.293985E-03
      0.200000          0.272424E-03
      0.205000          0.256990E-03
      0.210000          0.246316E-03
      0.215000          0.239228E-03
      0.220000          0.234734E-03
      0.225000          0.232011E-03
      0.230000          0.230390E-03
      0.235000          0.229340E-03
      0.240000          0.228458E-03
      0.245000          0.227443E-03
      0.250000          0.226090E-03
      0.255000          0.224271E-03
      0.260000          0.221919E-03
      0.265000          0.219021E-03
      0.270000          0.215601E-03
      0.275000          0.211715E-03
      0.280000          0.207435E-03
      0.285000          0.202850E-03
      0.290000          0.198050E-03
      0.295000          0.193129E-03
      0.300000          0.188175E-03
      0.305000          0.183270E-03
      0.310000          0.178484E-03
      0.315000          0.173878E-03
      0.320000          0.169498E-03
      0.325000          0.165380E-03
      0.330000          0.161547E-03
      0.335000          0.158010E-03
      0.340000          0.154770E-03
      0.345000          0.151821E-03
      0.350000          0.149148E-03
      0.355000          0.146731E-03
      0.360000          0.144544E-03
      0.365000          0.142562E-03
      0.370000          0.140756E-03
      0.375000          0.139097E-03
      0.380000          0.137556E-03
      0.385000          0.136108E-03
      0.390000          0.134727E-03
      0.395000          0.133390E-03
      0.400000          0.132077E-03
      0.405000          0.130769E-03
      0.410000          0.129452E-03
      0.415000          0.128110E-03
      0.420000          0.126733E-03
      0.425000          0.125311E-03
      0.430000          0.123834E-03
      0.435000          0.122296E-03
      0.440000          0.120692E-03
      0.445000          0.119018E-03
      0.450000          0.117270E-03
      0.455000          0.115449E-03
      0.460000          0.113555E-03
      0.465000          0.111589E-03
      0.470000          0.109556E-03
      0.475000          0.107461E-03
      0.480000          0.105311E-03
      0.485000          0.103117E-03
      0.490000          0.100888E-03
      0.495000          0.986361E-04
      0.500000          0.963760E-04
