 I_abs(s)[cm^-1]/c[mg/ml]
       0.00000          0.149104E-01
      0.500000E-02      0.148667E-01
      0.100000E-01      0.147361E-01
      0.150000E-01      0.145208E-01
      0.200000E-01      0.142245E-01
      0.250000E-01      0.138518E-01
      0.300000E-01      0.134089E-01
      0.350000E-01      0.129027E-01
      0.400000E-01      0.123410E-01
      0.450000E-01      0.117324E-01
      0.500000E-01      0.110859E-01
      0.550000E-01      0.104107E-01
      0.600000E-01      0.971601E-02
      0.650000E-01      0.901096E-02
      0.700000E-01      0.830432E-02
      0.750000E-01      0.760436E-02
      0.800000E-01      0.691869E-02
      0.850000E-01      0.625415E-02
      0.900000E-01      0.561670E-02
      0.950000E-01      0.501138E-02
      0.100000          0.444228E-02
      0.105000          0.391247E-02
      0.110000          0.342409E-02
      0.115000          0.297834E-02
      0.120000          0.257557E-02
      0.125000          0.221535E-02
      0.130000          0.189653E-02
      0.135000          0.161741E-02
      0.140000          0.137575E-02
      0.145000          0.116898E-02
      0.150000          0.994229E-03
      0.155000          0.848448E-03
      0.160000          0.728516E-03
      0.165000          0.631311E-03
      0.170000          0.553781E-03
      0.175000          0.493012E-03
      0.180000          0.446269E-03
      0.185000          0.411039E-03
      0.190000          0.385049E-03
      0.195000          0.366284E-03
      0.200000          0.352990E-03
      0.205000          0.343670E-03
      0.210000          0.337074E-03
      0.215000          0.332181E-03
      0.220000          0.328180E-03
      0.225000          0.324450E-03
      0.230000          0.320531E-03
      0.235000          0.316105E-03
      0.240000          0.310971E-03
      0.245000          0.305024E-03
      0.250000          0.298232E-03
      0.255000          0.290624E-03
      0.260000          0.282268E-03
      0.265000          0.273264E-03
      0.270000          0.263730E-03
      0.275000          0.253794E-03
      0.280000          0.243586E-03
      0.285000          0.233236E-03
      0.290000          0.222869E-03
      0.295000          0.212600E-03
      0.300000          0.202535E-03
      0.305000          0.192769E-03
      0.310000          0.183385E-03
      0.315000          0.174452E-03
      0.320000          0.166030E-03
      0.325000          0.158164E-03
      0.330000          0.150887E-03
      0.335000          0.144221E-03
      0.340000          0.138177E-03
      0.345000          0.132752E-03
      0.350000          0.127936E-03
      0.355000          0.123708E-03
      0.360000          0.120040E-03
      0.365000          0.116894E-03
      0.370000          0.114228E-03
      0.375000          0.111995E-03
      0.380000          0.110144E-03
      0.385000          0.108623E-03
      0.390000          0.107378E-03
      0.395000          0.106357E-03
      0.400000          0.105509E-03
      0.405000          0.104787E-03
      0.410000          0.104148E-03
      0.415000          0.103552E-03
      0.420000          0.102967E-03
      0.425000          0.102364E-03
      0.430000          0.101720E-03
      0.435000          0.101020E-03
      0.440000          0.100251E-03
      0.445000          0.994069E-04
      0.450000          0.984860E-04
      0.455000          0.974900E-04
      0.460000          0.964238E-04
      0.465000          0.952950E-04
      0.470000          0.941131E-04
      0.475000          0.928887E-04
      0.480000          0.916332E-04
      0.485000          0.903581E-04
      0.490000          0.890746E-04
      0.495000          0.877932E-04
      0.500000          0.865236E-04
