 I_abs(s)[cm^-1]/c[mg/ml]
       0.00000          0.146223E-01
      0.500000E-02      0.145697E-01
      0.100000E-01      0.144129E-01
      0.150000E-01      0.141556E-01
      0.200000E-01      0.138032E-01
      0.250000E-01      0.133635E-01
      0.300000E-01      0.128456E-01
      0.350000E-01      0.122602E-01
      0.400000E-01      0.116189E-01
      0.450000E-01      0.109342E-01
      0.500000E-01      0.102184E-01
      0.550000E-01      0.948408E-02
      0.600000E-01      0.874300E-02
      0.650000E-01      0.800632E-02
      0.700000E-01      0.728409E-02
      0.750000E-01      0.658512E-02
      0.800000E-01      0.591682E-02
      0.850000E-01      0.528515E-02
      0.900000E-01      0.469459E-02
      0.950000E-01      0.414820E-02
      0.100000          0.364768E-02
      0.105000          0.319353E-02
      0.110000          0.278517E-02
      0.115000          0.242116E-02
      0.120000          0.209933E-02
      0.125000          0.181700E-02
      0.130000          0.157112E-02
      0.135000          0.135844E-02
      0.140000          0.117563E-02
      0.145000          0.101943E-02
      0.150000          0.886675E-03
      0.155000          0.774406E-03
      0.160000          0.679894E-03
      0.165000          0.600668E-03
      0.170000          0.534518E-03
      0.175000          0.479494E-03
      0.180000          0.433889E-03
      0.185000          0.396223E-03
      0.190000          0.365214E-03
      0.195000          0.339762E-03
      0.200000          0.318921E-03
      0.205000          0.301882E-03
      0.210000          0.287953E-03
      0.215000          0.276543E-03
      0.220000          0.267154E-03
      0.225000          0.259364E-03
      0.230000          0.252823E-03
      0.235000          0.247243E-03
      0.240000          0.242391E-03
      0.245000          0.238080E-03
      0.250000          0.234167E-03
      0.255000          0.230544E-03
      0.260000          0.227131E-03
      0.265000          0.223868E-03
      0.270000          0.220716E-03
      0.275000          0.217645E-03
      0.280000          0.214632E-03
      0.285000          0.211659E-03
      0.290000          0.208711E-03
      0.295000          0.205771E-03
      0.300000          0.202822E-03
      0.305000          0.199848E-03
      0.310000          0.196831E-03
      0.315000          0.193756E-03
      0.320000          0.190608E-03
      0.325000          0.187377E-03
      0.330000          0.184055E-03
      0.335000          0.180640E-03
      0.340000          0.177135E-03
      0.345000          0.173545E-03
      0.350000          0.169882E-03
      0.355000          0.166161E-03
      0.360000          0.162401E-03
      0.365000          0.158624E-03
      0.370000          0.154852E-03
      0.375000          0.151110E-03
      0.380000          0.147423E-03
      0.385000          0.143815E-03
      0.390000          0.140310E-03
      0.395000          0.136932E-03
      0.400000          0.133701E-03
      0.405000          0.130634E-03
      0.410000          0.127749E-03
      0.415000          0.125057E-03
      0.420000          0.122565E-03
      0.425000          0.120278E-03
      0.430000          0.118195E-03
      0.435000          0.116309E-03
      0.440000          0.114609E-03
      0.445000          0.113079E-03
      0.450000          0.111699E-03
      0.455000          0.110443E-03
      0.460000          0.109285E-03
      0.465000          0.108195E-03
      0.470000          0.107143E-03
      0.475000          0.106101E-03
      0.480000          0.105040E-03
      0.485000          0.103938E-03
      0.490000          0.102775E-03
      0.495000          0.101539E-03
      0.500000          0.100220E-03
