 I_abs(s)[cm^-1]/c[mg/ml]
       0.00000          0.145507E-01
      0.500000E-02      0.145016E-01
      0.100000E-01      0.143553E-01
      0.150000E-01      0.141150E-01
      0.200000E-01      0.137857E-01
      0.250000E-01      0.133744E-01
      0.300000E-01      0.128895E-01
      0.350000E-01      0.123406E-01
      0.400000E-01      0.117385E-01
      0.450000E-01      0.110943E-01
      0.500000E-01      0.104194E-01
      0.550000E-01      0.972526E-02
      0.600000E-01      0.902281E-02
      0.650000E-01      0.832228E-02
      0.700000E-01      0.763301E-02
      0.750000E-01      0.696320E-02
      0.800000E-01      0.631983E-02
      0.850000E-01      0.570856E-02
      0.900000E-01      0.513372E-02
      0.950000E-01      0.459833E-02
      0.100000          0.410419E-02
      0.105000          0.365198E-02
      0.110000          0.324140E-02
      0.115000          0.287131E-02
      0.120000          0.253989E-02
      0.125000          0.224484E-02
      0.130000          0.198347E-02
      0.135000          0.175292E-02
      0.140000          0.155022E-02
      0.145000          0.137242E-02
      0.150000          0.121668E-02
      0.155000          0.108033E-02
      0.160000          0.960936E-03
      0.165000          0.856280E-03
      0.170000          0.764409E-03
      0.175000          0.683620E-03
      0.180000          0.612448E-03
      0.185000          0.549647E-03
      0.190000          0.494169E-03
      0.195000          0.445133E-03
      0.200000          0.401802E-03
      0.205000          0.363558E-03
      0.210000          0.329875E-03
      0.215000          0.300304E-03
      0.220000          0.274451E-03
      0.225000          0.251964E-03
      0.230000          0.232522E-03
      0.235000          0.215830E-03
      0.240000          0.201606E-03
      0.245000          0.189586E-03
      0.250000          0.179517E-03
      0.255000          0.171156E-03
      0.260000          0.164277E-03
      0.265000          0.158665E-03
      0.270000          0.154123E-03
      0.275000          0.150470E-03
      0.280000          0.147547E-03
      0.285000          0.145214E-03
      0.290000          0.143352E-03
      0.295000          0.141866E-03
      0.300000          0.140679E-03
      0.305000          0.139733E-03
      0.310000          0.138987E-03
      0.315000          0.138414E-03
      0.320000          0.137996E-03
      0.325000          0.137724E-03
      0.330000          0.137589E-03
      0.335000          0.137584E-03
      0.340000          0.137698E-03
      0.345000          0.137916E-03
      0.350000          0.138213E-03
      0.355000          0.138560E-03
      0.360000          0.138920E-03
      0.365000          0.139249E-03
      0.370000          0.139498E-03
      0.375000          0.139617E-03
      0.380000          0.139555E-03
      0.385000          0.139267E-03
      0.390000          0.138712E-03
      0.395000          0.137857E-03
      0.400000          0.136682E-03
      0.405000          0.135176E-03
      0.410000          0.133343E-03
      0.415000          0.131199E-03
      0.420000          0.128772E-03
      0.425000          0.126102E-03
      0.430000          0.123234E-03
      0.435000          0.120222E-03
      0.440000          0.117124E-03
      0.445000          0.113996E-03
      0.450000          0.110894E-03
      0.455000          0.107867E-03
      0.460000          0.104958E-03
      0.465000          0.102202E-03
      0.470000          0.996224E-04
      0.475000          0.972343E-04
      0.480000          0.950408E-04
      0.485000          0.930360E-04
      0.490000          0.912052E-04
      0.495000          0.895271E-04
      0.500000          0.879753E-04
