 I_abs(s)[cm^-1]/c[mg/ml]
       0.00000          0.142503E-01
      0.500000E-02      0.141751E-01
      0.100000E-01      0.139521E-01
      0.150000E-01      0.135889E-01
      0.200000E-01      0.130977E-01
      0.250000E-01      0.124948E-01
      0.300000E-01      0.117994E-01
      0.350000E-01      0.110331E-01
      0.400000E-01      0.102183E-01
      0.450000E-01      0.937774E-02
      0.500000E-01      0.853281E-02
      0.550000E-01      0.770323E-02
      0.600000E-01      0.690602E-02
      0.650000E-01      0.615506E-02
      0.700000E-01      0.546079E-02
      0.750000E-01      0.483006E-02
      0.800000E-01      0.426635E-02
      0.850000E-01      0.376997E-02
      0.900000E-01      0.333858E-02
      0.950000E-01      0.296769E-02
      0.100000          0.265126E-02
      0.105000          0.238234E-02
      0.110000          0.215357E-02
      0.115000          0.195776E-02
      0.120000          0.178822E-02
      0.125000          0.163912E-02
      0.130000          0.150561E-02
      0.135000          0.138396E-02
      0.140000          0.127148E-02
      0.145000          0.116645E-02
      0.150000          0.106794E-02
      0.155000          0.975660E-03
      0.160000          0.889717E-03
      0.165000          0.810445E-03
      0.170000          0.738232E-03
      0.175000          0.673389E-03
      0.180000          0.616053E-03
      0.185000          0.566142E-03
      0.190000          0.523338E-03
      0.195000          0.487108E-03
      0.200000          0.456748E-03
      0.205000          0.431438E-03
      0.210000          0.410311E-03
      0.215000          0.392508E-03
      0.220000          0.377237E-03
      0.225000          0.363811E-03
      0.230000          0.351669E-03
      0.235000          0.340395E-03
      0.240000          0.329704E-03
      0.245000          0.319434E-03
      0.250000          0.309519E-03
      0.255000          0.299965E-03
      0.260000          0.290816E-03
      0.265000          0.282133E-03
      0.270000          0.273970E-03
      0.275000          0.266357E-03
      0.280000          0.259294E-03
      0.285000          0.252742E-03
      0.290000          0.246632E-03
      0.295000          0.240865E-03
      0.300000          0.235326E-03
      0.305000          0.229894E-03
      0.310000          0.224451E-03
      0.315000          0.218893E-03
      0.320000          0.213140E-03
      0.325000          0.207137E-03
      0.330000          0.200861E-03
      0.335000          0.194320E-03
      0.340000          0.187550E-03
      0.345000          0.180610E-03
      0.350000          0.173579E-03
      0.355000          0.166550E-03
      0.360000          0.159621E-03
      0.365000          0.152890E-03
      0.370000          0.146450E-03
      0.375000          0.140385E-03
      0.380000          0.134763E-03
      0.385000          0.129638E-03
      0.390000          0.125043E-03
      0.395000          0.120995E-03
      0.400000          0.117494E-03
      0.405000          0.114520E-03
      0.410000          0.112041E-03
      0.415000          0.110011E-03
      0.420000          0.108375E-03
      0.425000          0.107070E-03
      0.430000          0.106029E-03
      0.435000          0.105181E-03
      0.440000          0.104458E-03
      0.445000          0.103793E-03
      0.450000          0.103128E-03
      0.455000          0.102408E-03
      0.460000          0.101590E-03
      0.465000          0.100641E-03
      0.470000          0.995399E-04
      0.475000          0.982787E-04
      0.480000          0.968615E-04
      0.485000          0.953050E-04
      0.490000          0.936373E-04
      0.495000          0.918965E-04
      0.500000          0.901283E-04
