 I_abs(s)[cm^-1]/c[mg/ml]
       0.00000          0.146781E-01
      0.500000E-02      0.146319E-01
      0.100000E-01      0.144943E-01
      0.150000E-01      0.142678E-01
      0.200000E-01      0.139569E-01
      0.250000E-01      0.135674E-01
      0.300000E-01      0.131066E-01
      0.350000E-01      0.125828E-01
      0.400000E-01      0.120052E-01
      0.450000E-01      0.113839E-01
      0.500000E-01      0.107289E-01
      0.550000E-01      0.100507E-01
      0.600000E-01      0.935908E-02
      0.650000E-01      0.866384E-02
      0.700000E-01      0.797388E-02
      0.750000E-01      0.729731E-02
      0.800000E-01      0.664126E-02
      0.850000E-01      0.601180E-02
      0.900000E-01      0.541384E-02
      0.950000E-01      0.485119E-02
      0.100000          0.432654E-02
      0.105000          0.384153E-02
      0.110000          0.339684E-02
      0.115000          0.299231E-02
      0.120000          0.262705E-02
      0.125000          0.229955E-02
      0.130000          0.200788E-02
      0.135000          0.174974E-02
      0.140000          0.152263E-02
      0.145000          0.132393E-02
      0.150000          0.115100E-02
      0.155000          0.100127E-02
      0.160000          0.872259E-03
      0.165000          0.761644E-03
      0.170000          0.667278E-03
      0.175000          0.587196E-03
      0.180000          0.519621E-03
      0.185000          0.462957E-03
      0.190000          0.415770E-03
      0.195000          0.376778E-03
      0.200000          0.344829E-03
      0.205000          0.318887E-03
      0.210000          0.298015E-03
      0.215000          0.281365E-03
      0.220000          0.268166E-03
      0.225000          0.257719E-03
      0.230000          0.249397E-03
      0.235000          0.242639E-03
      0.240000          0.236953E-03
      0.245000          0.231917E-03
      0.250000          0.227180E-03
      0.255000          0.222460E-03
      0.260000          0.217548E-03
      0.265000          0.212299E-03
      0.270000          0.206631E-03
      0.275000          0.200520E-03
      0.280000          0.193990E-03
      0.285000          0.187103E-03
      0.290000          0.179952E-03
      0.295000          0.172652E-03
      0.300000          0.165326E-03
      0.305000          0.158100E-03
      0.310000          0.151094E-03
      0.315000          0.144414E-03
      0.320000          0.138152E-03
      0.325000          0.132377E-03
      0.330000          0.127138E-03
      0.335000          0.122461E-03
      0.340000          0.118354E-03
      0.345000          0.114804E-03
      0.350000          0.111787E-03
      0.355000          0.109265E-03
      0.360000          0.107194E-03
      0.365000          0.105527E-03
      0.370000          0.104212E-03
      0.375000          0.103203E-03
      0.380000          0.102455E-03
      0.385000          0.101928E-03
      0.390000          0.101588E-03
      0.395000          0.101405E-03
      0.400000          0.101355E-03
      0.405000          0.101417E-03
      0.410000          0.101574E-03
      0.415000          0.101808E-03
      0.420000          0.102104E-03
      0.425000          0.102446E-03
      0.430000          0.102816E-03
      0.435000          0.103194E-03
      0.440000          0.103561E-03
      0.445000          0.103892E-03
      0.450000          0.104165E-03
      0.455000          0.104354E-03
      0.460000          0.104436E-03
      0.465000          0.104390E-03
      0.470000          0.104194E-03
      0.475000          0.103832E-03
      0.480000          0.103293E-03
      0.485000          0.102568E-03
      0.490000          0.101657E-03
      0.495000          0.100564E-03
      0.500000          0.992975E-04
