 I_abs(s)[cm^-1]/c[mg/ml]
       0.00000          0.146781E-01
      0.500000E-02      0.146183E-01
      0.100000E-01      0.144403E-01
      0.150000E-01      0.141486E-01
      0.200000E-01      0.137504E-01
      0.250000E-01      0.132555E-01
      0.300000E-01      0.126755E-01
      0.350000E-01      0.120240E-01
      0.400000E-01      0.113154E-01
      0.450000E-01      0.105649E-01
      0.500000E-01      0.978750E-02
      0.550000E-01      0.899801E-02
      0.600000E-01      0.821022E-02
      0.650000E-01      0.743665E-02
      0.700000E-01      0.668828E-02
      0.750000E-01      0.597430E-02
      0.800000E-01      0.530205E-02
      0.850000E-01      0.467694E-02
      0.900000E-01      0.410253E-02
      0.950000E-01      0.358068E-02
      0.100000          0.311170E-02
      0.105000          0.269458E-02
      0.110000          0.232723E-02
      0.115000          0.200673E-02
      0.120000          0.172957E-02
      0.125000          0.149188E-02
      0.130000          0.128963E-02
      0.135000          0.111879E-02
      0.140000          0.975480E-03
      0.145000          0.856038E-03
      0.150000          0.757113E-03
      0.155000          0.675689E-03
      0.160000          0.609096E-03
      0.165000          0.555006E-03
      0.170000          0.511404E-03
      0.175000          0.476562E-03
      0.180000          0.448998E-03
      0.185000          0.427445E-03
      0.190000          0.410809E-03
      0.195000          0.398148E-03
      0.200000          0.388637E-03
      0.205000          0.381556E-03
      0.210000          0.376271E-03
      0.215000          0.372225E-03
      0.220000          0.368936E-03
      0.225000          0.365988E-03
      0.230000          0.363032E-03
      0.235000          0.359784E-03
      0.240000          0.356028E-03
      0.245000          0.351607E-03
      0.250000          0.346427E-03
      0.255000          0.340446E-03
      0.260000          0.333675E-03
      0.265000          0.326165E-03
      0.270000          0.318004E-03
      0.275000          0.309303E-03
      0.280000          0.300192E-03
      0.285000          0.290809E-03
      0.290000          0.281291E-03
      0.295000          0.271769E-03
      0.300000          0.262361E-03
      0.305000          0.253166E-03
      0.310000          0.244265E-03
      0.315000          0.235715E-03
      0.320000          0.227553E-03
      0.325000          0.219795E-03
      0.330000          0.212441E-03
      0.335000          0.205473E-03
      0.340000          0.198868E-03
      0.345000          0.192591E-03
      0.350000          0.186608E-03
      0.355000          0.180884E-03
      0.360000          0.175385E-03
      0.365000          0.170085E-03
      0.370000          0.164961E-03
      0.375000          0.159996E-03
      0.380000          0.155182E-03
      0.385000          0.150512E-03
      0.390000          0.145985E-03
      0.395000          0.141603E-03
      0.400000          0.137366E-03
      0.405000          0.133279E-03
      0.410000          0.129343E-03
      0.415000          0.125560E-03
      0.420000          0.121929E-03
      0.425000          0.118451E-03
      0.430000          0.115123E-03
      0.435000          0.111946E-03
      0.440000          0.108919E-03
      0.445000          0.106043E-03
      0.450000          0.103322E-03
      0.455000          0.100759E-03
      0.460000          0.983614E-04
      0.465000          0.961340E-04
      0.470000          0.940836E-04
      0.475000          0.922153E-04
      0.480000          0.905319E-04
      0.485000          0.890331E-04
      0.490000          0.877143E-04
      0.495000          0.865660E-04
      0.500000          0.855735E-04
