 I_abs(s)[cm^-1]/c[mg/ml]
       0.00000          0.148703E-01
      0.500000E-02      0.148248E-01
      0.100000E-01      0.146891E-01
      0.150000E-01      0.144655E-01
      0.200000E-01      0.141579E-01
      0.250000E-01      0.137714E-01
      0.300000E-01      0.133124E-01
      0.350000E-01      0.127886E-01
      0.400000E-01      0.122083E-01
      0.450000E-01      0.115806E-01
      0.500000E-01      0.109151E-01
      0.550000E-01      0.102217E-01
      0.600000E-01      0.951017E-02
      0.650000E-01      0.879015E-02
      0.700000E-01      0.807088E-02
      0.750000E-01      0.736102E-02
      0.800000E-01      0.666848E-02
      0.850000E-01      0.600032E-02
      0.900000E-01      0.536260E-02
      0.950000E-01      0.476037E-02
      0.100000          0.419761E-02
      0.105000          0.367720E-02
      0.110000          0.320099E-02
      0.115000          0.276983E-02
      0.120000          0.238364E-02
      0.125000          0.204152E-02
      0.130000          0.174183E-02
      0.135000          0.148234E-02
      0.140000          0.126031E-02
      0.145000          0.107267E-02
      0.150000          0.916092E-03
      0.155000          0.787121E-03
      0.160000          0.682284E-03
      0.165000          0.598176E-03
      0.170000          0.531542E-03
      0.175000          0.479338E-03
      0.180000          0.438782E-03
      0.185000          0.407389E-03
      0.190000          0.382987E-03
      0.195000          0.363731E-03
      0.200000          0.348091E-03
      0.205000          0.334841E-03
      0.210000          0.323038E-03
      0.215000          0.311993E-03
      0.220000          0.301236E-03
      0.225000          0.290487E-03
      0.230000          0.279615E-03
      0.235000          0.268611E-03
      0.240000          0.257548E-03
      0.245000          0.246557E-03
      0.250000          0.235801E-03
      0.255000          0.225452E-03
      0.260000          0.215675E-03
      0.265000          0.206613E-03
      0.270000          0.198380E-03
      0.275000          0.191056E-03
      0.280000          0.184682E-03
      0.285000          0.179263E-03
      0.290000          0.174767E-03
      0.295000          0.171136E-03
      0.300000          0.168285E-03
      0.305000          0.166109E-03
      0.310000          0.164493E-03
      0.315000          0.163315E-03
      0.320000          0.162451E-03
      0.325000          0.161783E-03
      0.330000          0.161200E-03
      0.335000          0.160604E-03
      0.340000          0.159912E-03
      0.345000          0.159055E-03
      0.350000          0.157982E-03
      0.355000          0.156660E-03
      0.360000          0.155069E-03
      0.365000          0.153206E-03
      0.370000          0.151082E-03
      0.375000          0.148716E-03
      0.380000          0.146139E-03
      0.385000          0.143386E-03
      0.390000          0.140500E-03
      0.395000          0.137523E-03
      0.400000          0.134500E-03
      0.405000          0.131471E-03
      0.410000          0.128478E-03
      0.415000          0.125554E-03
      0.420000          0.122730E-03
      0.425000          0.120031E-03
      0.430000          0.117475E-03
      0.435000          0.115074E-03
      0.440000          0.112836E-03
      0.445000          0.110762E-03
      0.450000          0.108848E-03
      0.455000          0.107087E-03
      0.460000          0.105470E-03
      0.465000          0.103982E-03
      0.470000          0.102610E-03
      0.475000          0.101338E-03
      0.480000          0.100152E-03
      0.485000          0.990377E-04
      0.490000          0.979806E-04
      0.495000          0.969691E-04
      0.500000          0.959927E-04
