 I_abs(s)[cm^-1]/c[mg/ml]
       0.00000          0.140544E-01
      0.500000E-02      0.139916E-01
      0.100000E-01      0.138050E-01
      0.150000E-01      0.135003E-01
      0.200000E-01      0.130866E-01
      0.250000E-01      0.125759E-01
      0.300000E-01      0.119827E-01
      0.350000E-01      0.113234E-01
      0.400000E-01      0.106152E-01
      0.450000E-01      0.987570E-02
      0.500000E-01      0.912209E-02
      0.550000E-01      0.837038E-02
      0.600000E-01      0.763498E-02
      0.650000E-01      0.692818E-02
      0.700000E-01      0.625990E-02
      0.750000E-01      0.563753E-02
      0.800000E-01      0.506592E-02
      0.850000E-01      0.454749E-02
      0.900000E-01      0.408252E-02
      0.950000E-01      0.366941E-02
      0.100000          0.330506E-02
      0.105000          0.298532E-02
      0.110000          0.270531E-02
      0.115000          0.245988E-02
      0.120000          0.224388E-02
      0.125000          0.205243E-02
      0.130000          0.188116E-02
      0.135000          0.172630E-02
      0.140000          0.158477E-02
      0.145000          0.145417E-02
      0.150000          0.133273E-02
      0.155000          0.121925E-02
      0.160000          0.111299E-02
      0.165000          0.101353E-02
      0.170000          0.920699E-03
      0.175000          0.834446E-03
      0.180000          0.754770E-03
      0.185000          0.681646E-03
      0.190000          0.614991E-03
      0.195000          0.554640E-03
      0.200000          0.500341E-03
      0.205000          0.451767E-03
      0.210000          0.408535E-03
      0.215000          0.370228E-03
      0.220000          0.336421E-03
      0.225000          0.306702E-03
      0.230000          0.280686E-03
      0.235000          0.258030E-03
      0.240000          0.238433E-03
      0.245000          0.221633E-03
      0.250000          0.207405E-03
      0.255000          0.195547E-03
      0.260000          0.185872E-03
      0.265000          0.178195E-03
      0.270000          0.172329E-03
      0.275000          0.168074E-03
      0.280000          0.165219E-03
      0.285000          0.163540E-03
      0.290000          0.162803E-03
      0.295000          0.162772E-03
      0.300000          0.163214E-03
      0.305000          0.163910E-03
      0.310000          0.164660E-03
      0.315000          0.165287E-03
      0.320000          0.165649E-03
      0.325000          0.165637E-03
      0.330000          0.165175E-03
      0.335000          0.164224E-03
      0.340000          0.162774E-03
      0.345000          0.160843E-03
      0.350000          0.158472E-03
      0.355000          0.155716E-03
      0.360000          0.152645E-03
      0.365000          0.149330E-03
      0.370000          0.145846E-03
      0.375000          0.142263E-03
      0.380000          0.138647E-03
      0.385000          0.135054E-03
      0.390000          0.131531E-03
      0.395000          0.128113E-03
      0.400000          0.124827E-03
      0.405000          0.121692E-03
      0.410000          0.118715E-03
      0.415000          0.115899E-03
      0.420000          0.113239E-03
      0.425000          0.110726E-03
      0.430000          0.108349E-03
      0.435000          0.106094E-03
      0.440000          0.103944E-03
      0.445000          0.101886E-03
      0.450000          0.999045E-04
      0.455000          0.979859E-04
      0.460000          0.961193E-04
      0.465000          0.942960E-04
      0.470000          0.925099E-04
      0.475000          0.907584E-04
      0.480000          0.890420E-04
      0.485000          0.873642E-04
      0.490000          0.857317E-04
      0.495000          0.841538E-04
      0.500000          0.826415E-04
