 I_abs(s)[cm^-1]/c[mg/ml]
       0.00000          0.149024E-01
      0.500000E-02      0.148518E-01
      0.100000E-01      0.147012E-01
      0.150000E-01      0.144535E-01
      0.200000E-01      0.141140E-01
      0.250000E-01      0.136894E-01
      0.300000E-01      0.131881E-01
      0.350000E-01      0.126199E-01
      0.400000E-01      0.119953E-01
      0.450000E-01      0.113258E-01
      0.500000E-01      0.106229E-01
      0.550000E-01      0.989819E-02
      0.600000E-01      0.916291E-02
      0.650000E-01      0.842770E-02
      0.700000E-01      0.770233E-02
      0.750000E-01      0.699551E-02
      0.800000E-01      0.631479E-02
      0.850000E-01      0.566641E-02
      0.900000E-01      0.505532E-02
      0.950000E-01      0.448516E-02
      0.100000          0.395831E-02
      0.105000          0.347603E-02
      0.110000          0.303850E-02
      0.115000          0.264505E-02
      0.120000          0.229422E-02
      0.125000          0.198397E-02
      0.130000          0.171184E-02
      0.135000          0.147503E-02
      0.140000          0.127058E-02
      0.145000          0.109546E-02
      0.150000          0.946648E-03
      0.155000          0.821225E-03
      0.160000          0.716407E-03
      0.165000          0.629586E-03
      0.170000          0.558353E-03
      0.175000          0.500502E-03
      0.180000          0.454032E-03
      0.185000          0.417139E-03
      0.190000          0.388204E-03
      0.195000          0.365784E-03
      0.200000          0.348593E-03
      0.205000          0.335498E-03
      0.210000          0.325502E-03
      0.215000          0.317740E-03
      0.220000          0.311469E-03
      0.225000          0.306065E-03
      0.230000          0.301017E-03
      0.235000          0.295920E-03
      0.240000          0.290472E-03
      0.245000          0.284464E-03
      0.250000          0.277776E-03
      0.255000          0.270361E-03
      0.260000          0.262242E-03
      0.265000          0.253491E-03
      0.270000          0.244224E-03
      0.275000          0.234582E-03
      0.280000          0.224723E-03
      0.285000          0.214809E-03
      0.290000          0.204995E-03
      0.295000          0.195423E-03
      0.300000          0.186213E-03
      0.305000          0.177464E-03
      0.310000          0.169249E-03
      0.315000          0.161614E-03
      0.320000          0.154585E-03
      0.325000          0.148166E-03
      0.330000          0.142346E-03
      0.335000          0.137104E-03
      0.340000          0.132411E-03
      0.345000          0.128237E-03
      0.350000          0.124551E-03
      0.355000          0.121326E-03
      0.360000          0.118539E-03
      0.365000          0.116173E-03
      0.370000          0.114212E-03
      0.375000          0.112648E-03
      0.380000          0.111469E-03
      0.385000          0.110666E-03
      0.390000          0.110225E-03
      0.395000          0.110127E-03
      0.400000          0.110347E-03
      0.405000          0.110854E-03
      0.410000          0.111607E-03
      0.415000          0.112559E-03
      0.420000          0.113658E-03
      0.425000          0.114845E-03
      0.430000          0.116060E-03
      0.435000          0.117242E-03
      0.440000          0.118332E-03
      0.445000          0.119275E-03
      0.450000          0.120023E-03
      0.455000          0.120533E-03
      0.460000          0.120773E-03
      0.465000          0.120722E-03
      0.470000          0.120366E-03
      0.475000          0.119702E-03
      0.480000          0.118735E-03
      0.485000          0.117480E-03
      0.490000          0.115958E-03
      0.495000          0.114194E-03
      0.500000          0.112221E-03
