 I_abs(s)[cm^-1]/c[mg/ml]
       0.00000          0.145904E-01
      0.500000E-02      0.145422E-01
      0.100000E-01      0.143985E-01
      0.150000E-01      0.141624E-01
      0.200000E-01      0.138387E-01
      0.250000E-01      0.134340E-01
      0.300000E-01      0.129564E-01
      0.350000E-01      0.124151E-01
      0.400000E-01      0.118203E-01
      0.450000E-01      0.111829E-01
      0.500000E-01      0.105140E-01
      0.550000E-01      0.982449E-02
      0.600000E-01      0.912515E-02
      0.650000E-01      0.842599E-02
      0.700000E-01      0.773622E-02
      0.750000E-01      0.706400E-02
      0.800000E-01      0.641632E-02
      0.850000E-01      0.579894E-02
      0.900000E-01      0.521633E-02
      0.950000E-01      0.467171E-02
      0.100000          0.416711E-02
      0.105000          0.370346E-02
      0.110000          0.328074E-02
      0.115000          0.289809E-02
      0.120000          0.255397E-02
      0.125000          0.224635E-02
      0.130000          0.197281E-02
      0.135000          0.173073E-02
      0.140000          0.151736E-02
      0.145000          0.132996E-02
      0.150000          0.116589E-02
      0.155000          0.102263E-02
      0.160000          0.897857E-03
      0.165000          0.789440E-03
      0.170000          0.695475E-03
      0.175000          0.614260E-03
      0.180000          0.544289E-03
      0.185000          0.484227E-03
      0.190000          0.432890E-03
      0.195000          0.389223E-03
      0.200000          0.352278E-03
      0.205000          0.321195E-03
      0.210000          0.295190E-03
      0.215000          0.273546E-03
      0.220000          0.255604E-03
      0.225000          0.240762E-03
      0.230000          0.228479E-03
      0.235000          0.218268E-03
      0.240000          0.209705E-03
      0.245000          0.202426E-03
      0.250000          0.196128E-03
      0.255000          0.190569E-03
      0.260000          0.185563E-03
      0.265000          0.180975E-03
      0.270000          0.176714E-03
      0.275000          0.172729E-03
      0.280000          0.168993E-03
      0.285000          0.165504E-03
      0.290000          0.162268E-03
      0.295000          0.159298E-03
      0.300000          0.156602E-03
      0.305000          0.154187E-03
      0.310000          0.152046E-03
      0.315000          0.150165E-03
      0.320000          0.148518E-03
      0.325000          0.147072E-03
      0.330000          0.145784E-03
      0.335000          0.144612E-03
      0.340000          0.143508E-03
      0.345000          0.142429E-03
      0.350000          0.141336E-03
      0.355000          0.140196E-03
      0.360000          0.138986E-03
      0.365000          0.137689E-03
      0.370000          0.136297E-03
      0.375000          0.134812E-03
      0.380000          0.133239E-03
      0.385000          0.131591E-03
      0.390000          0.129884E-03
      0.395000          0.128134E-03
      0.400000          0.126359E-03
      0.405000          0.124575E-03
      0.410000          0.122798E-03
      0.415000          0.121040E-03
      0.420000          0.119310E-03
      0.425000          0.117615E-03
      0.430000          0.115959E-03
      0.435000          0.114346E-03
      0.440000          0.112777E-03
      0.445000          0.111253E-03
      0.450000          0.109776E-03
      0.455000          0.108346E-03
      0.460000          0.106965E-03
      0.465000          0.105637E-03
      0.470000          0.104364E-03
      0.475000          0.103150E-03
      0.480000          0.101996E-03
      0.485000          0.100906E-03
      0.490000          0.998803E-04
      0.495000          0.989180E-04
      0.500000          0.980162E-04
