 I_abs(s)[cm^-1]/c[mg/ml]
       0.00000          0.144951E-01
      0.500000E-02      0.144506E-01
      0.100000E-01      0.143177E-01
      0.150000E-01      0.140990E-01
      0.200000E-01      0.137986E-01
      0.250000E-01      0.134217E-01
      0.300000E-01      0.129754E-01
      0.350000E-01      0.124672E-01
      0.400000E-01      0.119061E-01
      0.450000E-01      0.113013E-01
      0.500000E-01      0.106625E-01
      0.550000E-01      0.999960E-02
      0.600000E-01      0.932236E-02
      0.650000E-01      0.864015E-02
      0.700000E-01      0.796181E-02
      0.750000E-01      0.729543E-02
      0.800000E-01      0.664824E-02
      0.850000E-01      0.602648E-02
      0.900000E-01      0.543531E-02
      0.950000E-01      0.487881E-02
      0.100000          0.435996E-02
      0.105000          0.388066E-02
      0.110000          0.344185E-02
      0.115000          0.304353E-02
      0.120000          0.268490E-02
      0.125000          0.236451E-02
      0.130000          0.208033E-02
      0.135000          0.182991E-02
      0.140000          0.161053E-02
      0.145000          0.141928E-02
      0.150000          0.125320E-02
      0.155000          0.110937E-02
      0.160000          0.984959E-03
      0.165000          0.877348E-03
      0.170000          0.784124E-03
      0.175000          0.703134E-03
      0.180000          0.632492E-03
      0.185000          0.570585E-03
      0.190000          0.516062E-03
      0.195000          0.467812E-03
      0.200000          0.424941E-03
      0.205000          0.386744E-03
      0.210000          0.352669E-03
      0.215000          0.322291E-03
      0.220000          0.295277E-03
      0.225000          0.271362E-03
      0.230000          0.250325E-03
      0.235000          0.231967E-03
      0.240000          0.216101E-03
      0.245000          0.202540E-03
      0.250000          0.191087E-03
      0.255000          0.181537E-03
      0.260000          0.173676E-03
      0.265000          0.167281E-03
      0.270000          0.162129E-03
      0.275000          0.157995E-03
      0.280000          0.154665E-03
      0.285000          0.151936E-03
      0.290000          0.149621E-03
      0.295000          0.147556E-03
      0.300000          0.145600E-03
      0.305000          0.143637E-03
      0.310000          0.141577E-03
      0.315000          0.139356E-03
      0.320000          0.136935E-03
      0.325000          0.134298E-03
      0.330000          0.131446E-03
      0.335000          0.128400E-03
      0.340000          0.125193E-03
      0.345000          0.121870E-03
      0.350000          0.118481E-03
      0.355000          0.115083E-03
      0.360000          0.111732E-03
      0.365000          0.108483E-03
      0.370000          0.105388E-03
      0.375000          0.102494E-03
      0.380000          0.998386E-04
      0.385000          0.974542E-04
      0.390000          0.953623E-04
      0.395000          0.935756E-04
      0.400000          0.920967E-04
      0.405000          0.909192E-04
      0.410000          0.900276E-04
      0.415000          0.893986E-04
      0.420000          0.890015E-04
      0.425000          0.888002E-04
      0.430000          0.887540E-04
      0.435000          0.888195E-04
      0.440000          0.889523E-04
      0.445000          0.891083E-04
      0.450000          0.892454E-04
      0.455000          0.893252E-04
      0.460000          0.893141E-04
      0.465000          0.891842E-04
      0.470000          0.889149E-04
      0.475000          0.884925E-04
      0.480000          0.879112E-04
      0.485000          0.871729E-04
      0.490000          0.862867E-04
      0.495000          0.852686E-04
      0.500000          0.841403E-04
