 I_abs(s)[cm^-1]/c[mg/ml]
       0.00000          0.143448E-01
      0.500000E-02      0.142900E-01
      0.100000E-01      0.141268E-01
      0.150000E-01      0.138594E-01
      0.200000E-01      0.134942E-01
      0.250000E-01      0.130401E-01
      0.300000E-01      0.125078E-01
      0.350000E-01      0.119094E-01
      0.400000E-01      0.112582E-01
      0.450000E-01      0.105680E-01
      0.500000E-01      0.985240E-02
      0.550000E-01      0.912499E-02
      0.600000E-01      0.839832E-02
      0.650000E-01      0.768385E-02
      0.700000E-01      0.699158E-02
      0.750000E-01      0.632991E-02
      0.800000E-01      0.570547E-02
      0.850000E-01      0.512313E-02
      0.900000E-01      0.458605E-02
      0.950000E-01      0.409578E-02
      0.100000          0.365244E-02
      0.105000          0.325492E-02
      0.110000          0.290113E-02
      0.115000          0.258820E-02
      0.120000          0.231279E-02
      0.125000          0.207124E-02
      0.130000          0.185980E-02
      0.135000          0.167480E-02
      0.140000          0.151275E-02
      0.145000          0.137047E-02
      0.150000          0.124512E-02
      0.155000          0.113423E-02
      0.160000          0.103571E-02
      0.165000          0.947823E-03
      0.170000          0.869144E-03
      0.175000          0.798522E-03
      0.180000          0.735027E-03
      0.185000          0.677905E-03
      0.190000          0.626531E-03
      0.195000          0.580372E-03
      0.200000          0.538962E-03
      0.205000          0.501875E-03
      0.210000          0.468711E-03
      0.215000          0.439093E-03
      0.220000          0.412658E-03
      0.225000          0.389059E-03
      0.230000          0.367970E-03
      0.235000          0.349085E-03
      0.240000          0.332122E-03
      0.245000          0.316824E-03
      0.250000          0.302961E-03
      0.255000          0.290328E-03
      0.260000          0.278744E-03
      0.265000          0.268049E-03
      0.270000          0.258104E-03
      0.275000          0.248786E-03
      0.280000          0.239988E-03
      0.285000          0.231616E-03
      0.290000          0.223591E-03
      0.295000          0.215846E-03
      0.300000          0.208329E-03
      0.305000          0.201000E-03
      0.310000          0.193835E-03
      0.315000          0.186819E-03
      0.320000          0.179952E-03
      0.325000          0.173245E-03
      0.330000          0.166714E-03
      0.335000          0.160385E-03
      0.340000          0.154282E-03
      0.345000          0.148432E-03
      0.350000          0.142857E-03
      0.355000          0.137574E-03
      0.360000          0.132594E-03
      0.365000          0.127917E-03
      0.370000          0.123539E-03
      0.375000          0.119448E-03
      0.380000          0.115625E-03
      0.385000          0.112049E-03
      0.390000          0.108697E-03
      0.395000          0.105549E-03
      0.400000          0.102585E-03
      0.405000          0.997928E-04
      0.410000          0.971630E-04
      0.415000          0.946939E-04
      0.420000          0.923887E-04
      0.425000          0.902557E-04
      0.430000          0.883059E-04
      0.435000          0.865521E-04
      0.440000          0.850063E-04
      0.445000          0.836783E-04
      0.450000          0.825739E-04
      0.455000          0.816933E-04
      0.460000          0.810307E-04
      0.465000          0.805741E-04
      0.470000          0.803049E-04
      0.475000          0.801994E-04
      0.480000          0.802294E-04
      0.485000          0.803635E-04
      0.490000          0.805692E-04
      0.495000          0.808140E-04
      0.500000          0.810670E-04
