 I_abs(s)[cm^-1]/c[mg/ml]
       0.00000          0.147420E-01
      0.500000E-02      0.146869E-01
      0.100000E-01      0.145228E-01
      0.150000E-01      0.142532E-01
      0.200000E-01      0.138840E-01
      0.250000E-01      0.134228E-01
      0.300000E-01      0.128795E-01
      0.350000E-01      0.122650E-01
      0.400000E-01      0.115914E-01
      0.450000E-01      0.108718E-01
      0.500000E-01      0.101194E-01
      0.550000E-01      0.934734E-02
      0.600000E-01      0.856849E-02
      0.650000E-01      0.779489E-02
      0.700000E-01      0.703758E-02
      0.750000E-01      0.630634E-02
      0.800000E-01      0.560950E-02
      0.850000E-01      0.495387E-02
      0.900000E-01      0.434463E-02
      0.950000E-01      0.378539E-02
      0.100000          0.327821E-02
      0.105000          0.282376E-02
      0.110000          0.242140E-02
      0.115000          0.206940E-02
      0.120000          0.176513E-02
      0.125000          0.150525E-02
      0.130000          0.128588E-02
      0.135000          0.110287E-02
      0.140000          0.951910E-03
      0.145000          0.828706E-03
      0.150000          0.729120E-03
      0.155000          0.649270E-03
      0.160000          0.585605E-03
      0.165000          0.534966E-03
      0.170000          0.494608E-03
      0.175000          0.462207E-03
      0.180000          0.435852E-03
      0.185000          0.414016E-03
      0.190000          0.395521E-03
      0.195000          0.379491E-03
      0.200000          0.365307E-03
      0.205000          0.352557E-03
      0.210000          0.340991E-03
      0.215000          0.330474E-03
      0.220000          0.320950E-03
      0.225000          0.312407E-03
      0.230000          0.304854E-03
      0.235000          0.298298E-03
      0.240000          0.292729E-03
      0.245000          0.288113E-03
      0.250000          0.284386E-03
      0.255000          0.281454E-03
      0.260000          0.279197E-03
      0.265000          0.277470E-03
      0.270000          0.276115E-03
      0.275000          0.274965E-03
      0.280000          0.273852E-03
      0.285000          0.272616E-03
      0.290000          0.271110E-03
      0.295000          0.269210E-03
      0.300000          0.266812E-03
      0.305000          0.263845E-03
      0.310000          0.260263E-03
      0.315000          0.256055E-03
      0.320000          0.251237E-03
      0.325000          0.245850E-03
      0.330000          0.239962E-03
      0.335000          0.233656E-03
      0.340000          0.227030E-03
      0.345000          0.220193E-03
      0.350000          0.213251E-03
      0.355000          0.206311E-03
      0.360000          0.199470E-03
      0.365000          0.192816E-03
      0.370000          0.186418E-03
      0.375000          0.180329E-03
      0.380000          0.174584E-03
      0.385000          0.169196E-03
      0.390000          0.164163E-03
      0.395000          0.159467E-03
      0.400000          0.155073E-03
      0.405000          0.150940E-03
      0.410000          0.147017E-03
      0.415000          0.143253E-03
      0.420000          0.139595E-03
      0.425000          0.135998E-03
      0.430000          0.132420E-03
      0.435000          0.128830E-03
      0.440000          0.125210E-03
      0.445000          0.121549E-03
      0.450000          0.117852E-03
      0.455000          0.114133E-03
      0.460000          0.110415E-03
      0.465000          0.106732E-03
      0.470000          0.103120E-03
      0.475000          0.996212E-04
      0.480000          0.962762E-04
      0.485000          0.931254E-04
      0.490000          0.902047E-04
      0.495000          0.875442E-04
      0.500000          0.851667E-04
