 I_abs(s)[cm^-1]/c[mg/ml]
       0.00000          0.149587E-01
      0.500000E-02      0.149086E-01
      0.100000E-01      0.147590E-01
      0.150000E-01      0.145129E-01
      0.200000E-01      0.141749E-01
      0.250000E-01      0.137515E-01
      0.300000E-01      0.132505E-01
      0.350000E-01      0.126810E-01
      0.400000E-01      0.120531E-01
      0.450000E-01      0.113777E-01
      0.500000E-01      0.106662E-01
      0.550000E-01      0.992992E-02
      0.600000E-01      0.918014E-02
      0.650000E-01      0.842773E-02
      0.700000E-01      0.768287E-02
      0.750000E-01      0.695486E-02
      0.800000E-01      0.625195E-02
      0.850000E-01      0.558121E-02
      0.900000E-01      0.494843E-02
      0.950000E-01      0.435811E-02
      0.100000          0.381343E-02
      0.105000          0.331631E-02
      0.110000          0.286749E-02
      0.115000          0.246663E-02
      0.120000          0.211245E-02
      0.125000          0.180285E-02
      0.130000          0.153511E-02
      0.135000          0.130603E-02
      0.140000          0.111206E-02
      0.145000          0.949495E-03
      0.150000          0.814568E-03
      0.155000          0.703593E-03
      0.160000          0.613049E-03
      0.165000          0.539664E-03
      0.170000          0.480465E-03
      0.175000          0.432815E-03
      0.180000          0.394430E-03
      0.185000          0.363377E-03
      0.190000          0.338062E-03
      0.195000          0.317203E-03
      0.200000          0.299792E-03
      0.205000          0.285066E-03
      0.210000          0.272456E-03
      0.215000          0.261551E-03
      0.220000          0.252062E-03
      0.225000          0.243780E-03
      0.230000          0.236554E-03
      0.235000          0.230264E-03
      0.240000          0.224804E-03
      0.245000          0.220068E-03
      0.250000          0.215946E-03
      0.255000          0.212321E-03
      0.260000          0.209069E-03
      0.265000          0.206064E-03
      0.270000          0.203182E-03
      0.275000          0.200310E-03
      0.280000          0.197348E-03
      0.285000          0.194216E-03
      0.290000          0.190860E-03
      0.295000          0.187249E-03
      0.300000          0.183380E-03
      0.305000          0.179274E-03
      0.310000          0.174973E-03
      0.315000          0.170540E-03
      0.320000          0.166049E-03
      0.325000          0.161579E-03
      0.330000          0.157216E-03
      0.335000          0.153040E-03
      0.340000          0.149121E-03
      0.345000          0.145519E-03
      0.350000          0.142281E-03
      0.355000          0.139433E-03
      0.360000          0.136987E-03
      0.365000          0.134938E-03
      0.370000          0.133262E-03
      0.375000          0.131927E-03
      0.380000          0.130886E-03
      0.385000          0.130085E-03
      0.390000          0.129468E-03
      0.395000          0.128974E-03
      0.400000          0.128546E-03
      0.405000          0.128132E-03
      0.410000          0.127683E-03
      0.415000          0.127159E-03
      0.420000          0.126530E-03
      0.425000          0.125774E-03
      0.430000          0.124877E-03
      0.435000          0.123834E-03
      0.440000          0.122648E-03
      0.445000          0.121327E-03
      0.450000          0.119884E-03
      0.455000          0.118337E-03
      0.460000          0.116704E-03
      0.465000          0.115005E-03
      0.470000          0.113260E-03
      0.475000          0.111487E-03
      0.480000          0.109704E-03
      0.485000          0.107923E-03
      0.490000          0.106159E-03
      0.495000          0.104421E-03
      0.500000          0.102717E-03
