 I_abs(s)[cm^-1]/c[mg/ml]
       0.00000          0.140544E-01
      0.500000E-02      0.139750E-01
      0.100000E-01      0.137396E-01
      0.150000E-01      0.133567E-01
      0.200000E-01      0.128400E-01
      0.250000E-01      0.122074E-01
      0.300000E-01      0.114803E-01
      0.350000E-01      0.106823E-01
      0.400000E-01      0.983796E-02
      0.450000E-01      0.897167E-02
      0.500000E-01      0.810648E-02
      0.550000E-01      0.726309E-02
      0.600000E-01      0.645910E-02
      0.650000E-01      0.570843E-02
      0.700000E-01      0.502109E-02
      0.750000E-01      0.440313E-02
      0.800000E-01      0.385687E-02
      0.850000E-01      0.338128E-02
      0.900000E-01      0.297261E-02
      0.950000E-01      0.262497E-02
      0.100000          0.233110E-02
      0.105000          0.208300E-02
      0.110000          0.187259E-02
      0.115000          0.169220E-02
      0.120000          0.153503E-02
      0.125000          0.139535E-02
      0.130000          0.126871E-02
      0.135000          0.115190E-02
      0.140000          0.104290E-02
      0.145000          0.940708E-03
      0.150000          0.845097E-03
      0.155000          0.756404E-03
      0.160000          0.675278E-03
      0.165000          0.602461E-03
      0.170000          0.538605E-03
      0.175000          0.484140E-03
      0.180000          0.439183E-03
      0.185000          0.403506E-03
      0.190000          0.376540E-03
      0.195000          0.357418E-03
      0.200000          0.345042E-03
      0.205000          0.338162E-03
      0.210000          0.335469E-03
      0.215000          0.335669E-03
      0.220000          0.337561E-03
      0.225000          0.340092E-03
      0.230000          0.342395E-03
      0.235000          0.343814E-03
      0.240000          0.343903E-03
      0.245000          0.342419E-03
      0.250000          0.339298E-03
      0.255000          0.334626E-03
      0.260000          0.328597E-03
      0.265000          0.321482E-03
      0.270000          0.313590E-03
      0.275000          0.305233E-03
      0.280000          0.296701E-03
      0.285000          0.288239E-03
      0.290000          0.280032E-03
      0.295000          0.272203E-03
      0.300000          0.264804E-03
      0.305000          0.257829E-03
      0.310000          0.251221E-03
      0.315000          0.244887E-03
      0.320000          0.238708E-03
      0.325000          0.232563E-03
      0.330000          0.226339E-03
      0.335000          0.219940E-03
      0.340000          0.213305E-03
      0.345000          0.206406E-03
      0.350000          0.199252E-03
      0.355000          0.191889E-03
      0.360000          0.184392E-03
      0.365000          0.176858E-03
      0.370000          0.169397E-03
      0.375000          0.162123E-03
      0.380000          0.155144E-03
      0.385000          0.148552E-03
      0.390000          0.142422E-03
      0.395000          0.136803E-03
      0.400000          0.131721E-03
      0.405000          0.127178E-03
      0.410000          0.123155E-03
      0.415000          0.119620E-03
      0.420000          0.116528E-03
      0.425000          0.113830E-03
      0.430000          0.111479E-03
      0.435000          0.109430E-03
      0.440000          0.107644E-03
      0.445000          0.106093E-03
      0.450000          0.104753E-03
      0.455000          0.103609E-03
      0.460000          0.102648E-03
      0.465000          0.101861E-03
      0.470000          0.101236E-03
      0.475000          0.100758E-03
      0.480000          0.100409E-03
      0.485000          0.100164E-03
      0.490000          0.999938E-04
      0.495000          0.998637E-04
      0.500000          0.997379E-04
