 I_abs(s)[cm^-1]/c[mg/ml]
       0.00000          0.145507E-01
      0.500000E-02      0.145020E-01
      0.100000E-01      0.143571E-01
      0.150000E-01      0.141190E-01
      0.200000E-01      0.137928E-01
      0.250000E-01      0.133853E-01
      0.300000E-01      0.129048E-01
      0.350000E-01      0.123609E-01
      0.400000E-01      0.117640E-01
      0.450000E-01      0.111254E-01
      0.500000E-01      0.104561E-01
      0.550000E-01      0.976757E-02
      0.600000E-01      0.907047E-02
      0.650000E-01      0.837494E-02
      0.700000E-01      0.769017E-02
      0.750000E-01      0.702425E-02
      0.800000E-01      0.638407E-02
      0.850000E-01      0.577519E-02
      0.900000E-01      0.520190E-02
      0.950000E-01      0.466718E-02
      0.100000          0.417283E-02
      0.105000          0.371955E-02
      0.110000          0.330707E-02
      0.115000          0.293432E-02
      0.120000          0.259957E-02
      0.125000          0.230061E-02
      0.130000          0.203487E-02
      0.135000          0.179960E-02
      0.140000          0.159195E-02
      0.145000          0.140910E-02
      0.150000          0.124835E-02
      0.155000          0.110714E-02
      0.160000          0.983135E-03
      0.165000          0.874233E-03
      0.170000          0.778563E-03
      0.175000          0.694495E-03
      0.180000          0.620620E-03
      0.185000          0.555729E-03
      0.190000          0.498795E-03
      0.195000          0.448937E-03
      0.200000          0.405404E-03
      0.205000          0.367542E-03
      0.210000          0.334778E-03
      0.215000          0.306599E-03
      0.220000          0.282538E-03
      0.225000          0.262161E-03
      0.230000          0.245058E-03
      0.235000          0.230844E-03
      0.240000          0.219148E-03
      0.245000          0.209618E-03
      0.250000          0.201922E-03
      0.255000          0.195745E-03
      0.260000          0.190797E-03
      0.265000          0.186813E-03
      0.270000          0.183557E-03
      0.275000          0.180820E-03
      0.280000          0.178427E-03
      0.285000          0.176232E-03
      0.290000          0.174121E-03
      0.295000          0.172008E-03
      0.300000          0.169837E-03
      0.305000          0.167572E-03
      0.310000          0.165203E-03
      0.315000          0.162732E-03
      0.320000          0.160176E-03
      0.325000          0.157562E-03
      0.330000          0.154920E-03
      0.335000          0.152282E-03
      0.340000          0.149676E-03
      0.345000          0.147129E-03
      0.350000          0.144659E-03
      0.355000          0.142278E-03
      0.360000          0.139989E-03
      0.365000          0.137787E-03
      0.370000          0.135660E-03
      0.375000          0.133592E-03
      0.380000          0.131559E-03
      0.385000          0.129538E-03
      0.390000          0.127503E-03
      0.395000          0.125430E-03
      0.400000          0.123296E-03
      0.405000          0.121085E-03
      0.410000          0.118783E-03
      0.415000          0.116386E-03
      0.420000          0.113893E-03
      0.425000          0.111313E-03
      0.430000          0.108657E-03
      0.435000          0.105947E-03
      0.440000          0.103205E-03
      0.445000          0.100460E-03
      0.450000          0.977431E-04
      0.455000          0.950850E-04
      0.460000          0.925176E-04
      0.465000          0.900710E-04
      0.470000          0.877729E-04
      0.475000          0.856469E-04
      0.480000          0.837126E-04
      0.485000          0.819840E-04
      0.490000          0.804698E-04
      0.495000          0.791731E-04
      0.500000          0.780913E-04
