 I_abs(s)[cm^-1]/c[mg/ml]
       0.00000          0.144396E-01
      0.500000E-02      0.143884E-01
      0.100000E-01      0.142357E-01
      0.150000E-01      0.139847E-01
      0.200000E-01      0.136406E-01
      0.250000E-01      0.132104E-01
      0.300000E-01      0.127028E-01
      0.350000E-01      0.121277E-01
      0.400000E-01      0.114961E-01
      0.450000E-01      0.108199E-01
      0.500000E-01      0.101111E-01
      0.550000E-01      0.938194E-02
      0.600000E-01      0.864424E-02
      0.650000E-01      0.790931E-02
      0.700000E-01      0.718758E-02
      0.750000E-01      0.648838E-02
      0.800000E-01      0.581980E-02
      0.850000E-01      0.518855E-02
      0.900000E-01      0.459987E-02
      0.950000E-01      0.405754E-02
      0.100000          0.356391E-02
      0.105000          0.311994E-02
      0.110000          0.272536E-02
      0.115000          0.237880E-02
      0.120000          0.207793E-02
      0.125000          0.181969E-02
      0.130000          0.160043E-02
      0.135000          0.141612E-02
      0.140000          0.126253E-02
      0.145000          0.113539E-02
      0.150000          0.103051E-02
      0.155000          0.943943E-03
      0.160000          0.872027E-03
      0.165000          0.811503E-03
      0.170000          0.759539E-03
      0.175000          0.713753E-03
      0.180000          0.672219E-03
      0.185000          0.633448E-03
      0.190000          0.596357E-03
      0.195000          0.560227E-03
      0.200000          0.524655E-03
      0.205000          0.489494E-03
      0.210000          0.454804E-03
      0.215000          0.420792E-03
      0.220000          0.387764E-03
      0.225000          0.356076E-03
      0.230000          0.326099E-03
      0.235000          0.298182E-03
      0.240000          0.272627E-03
      0.245000          0.249672E-03
      0.250000          0.229480E-03
      0.255000          0.212129E-03
      0.260000          0.197616E-03
      0.265000          0.185860E-03
      0.270000          0.176710E-03
      0.275000          0.169951E-03
      0.280000          0.165323E-03
      0.285000          0.162527E-03
      0.290000          0.161244E-03
      0.295000          0.161143E-03
      0.300000          0.161898E-03
      0.305000          0.163193E-03
      0.310000          0.164738E-03
      0.315000          0.166270E-03
      0.320000          0.167566E-03
      0.325000          0.168442E-03
      0.330000          0.168757E-03
      0.335000          0.168415E-03
      0.340000          0.167363E-03
      0.345000          0.165587E-03
      0.350000          0.163110E-03
      0.355000          0.159988E-03
      0.360000          0.156302E-03
      0.365000          0.152152E-03
      0.370000          0.147655E-03
      0.375000          0.142931E-03
      0.380000          0.138104E-03
      0.385000          0.133292E-03
      0.390000          0.128602E-03
      0.395000          0.124128E-03
      0.400000          0.119947E-03
      0.405000          0.116116E-03
      0.410000          0.112670E-03
      0.415000          0.109626E-03
      0.420000          0.106981E-03
      0.425000          0.104712E-03
      0.430000          0.102784E-03
      0.435000          0.101148E-03
      0.440000          0.997474E-04
      0.445000          0.985223E-04
      0.450000          0.974103E-04
      0.455000          0.963526E-04
      0.460000          0.952959E-04
      0.465000          0.941951E-04
      0.470000          0.930158E-04
      0.475000          0.917349E-04
      0.480000          0.903415E-04
      0.485000          0.888370E-04
      0.490000          0.872337E-04
      0.495000          0.855543E-04
      0.500000          0.838292E-04
