 I_abs(s)[cm^-1]/c[mg/ml]
       0.00000          0.146143E-01
      0.500000E-02      0.145566E-01
      0.100000E-01      0.143848E-01
      0.150000E-01      0.141034E-01
      0.200000E-01      0.137198E-01
      0.250000E-01      0.132435E-01
      0.300000E-01      0.126863E-01
      0.350000E-01      0.120615E-01
      0.400000E-01      0.113835E-01
      0.450000E-01      0.106673E-01
      0.500000E-01      0.992755E-02
      0.550000E-01      0.917870E-02
      0.600000E-01      0.843399E-02
      0.650000E-01      0.770531E-02
      0.700000E-01      0.700287E-02
      0.750000E-01      0.633500E-02
      0.800000E-01      0.570803E-02
      0.850000E-01      0.512632E-02
      0.900000E-01      0.459234E-02
      0.950000E-01      0.410683E-02
      0.100000          0.366904E-02
      0.105000          0.327697E-02
      0.110000          0.292768E-02
      0.115000          0.261759E-02
      0.120000          0.234273E-02
      0.125000          0.209901E-02
      0.130000          0.188244E-02
      0.135000          0.168929E-02
      0.140000          0.151621E-02
      0.145000          0.136033E-02
      0.150000          0.121928E-02
      0.155000          0.109114E-02
      0.160000          0.974461E-03
      0.165000          0.868176E-03
      0.170000          0.771514E-03
      0.175000          0.683932E-03
      0.180000          0.605030E-03
      0.185000          0.534480E-03
      0.190000          0.471967E-03
      0.195000          0.417146E-03
      0.200000          0.369612E-03
      0.205000          0.328891E-03
      0.210000          0.294437E-03
      0.215000          0.265649E-03
      0.220000          0.241885E-03
      0.225000          0.222492E-03
      0.230000          0.206826E-03
      0.235000          0.194275E-03
      0.240000          0.184282E-03
      0.245000          0.176355E-03
      0.250000          0.170075E-03
      0.255000          0.165097E-03
      0.260000          0.161151E-03
      0.265000          0.158028E-03
      0.270000          0.155575E-03
      0.275000          0.153677E-03
      0.280000          0.152252E-03
      0.285000          0.151233E-03
      0.290000          0.150564E-03
      0.295000          0.150190E-03
      0.300000          0.150056E-03
      0.305000          0.150102E-03
      0.310000          0.150265E-03
      0.315000          0.150481E-03
      0.320000          0.150691E-03
      0.325000          0.150838E-03
      0.330000          0.150875E-03
      0.335000          0.150768E-03
      0.340000          0.150493E-03
      0.345000          0.150040E-03
      0.350000          0.149409E-03
      0.355000          0.148613E-03
      0.360000          0.147668E-03
      0.365000          0.146597E-03
      0.370000          0.145423E-03
      0.375000          0.144166E-03
      0.380000          0.142843E-03
      0.385000          0.141465E-03
      0.390000          0.140038E-03
      0.395000          0.138560E-03
      0.400000          0.137025E-03
      0.405000          0.135424E-03
      0.410000          0.133746E-03
      0.415000          0.131979E-03
      0.420000          0.130116E-03
      0.425000          0.128151E-03
      0.430000          0.126086E-03
      0.435000          0.123925E-03
      0.440000          0.121682E-03
      0.445000          0.119374E-03
      0.450000          0.117022E-03
      0.455000          0.114650E-03
      0.460000          0.112287E-03
      0.465000          0.109956E-03
      0.470000          0.107685E-03
      0.475000          0.105494E-03
      0.480000          0.103401E-03
      0.485000          0.101420E-03
      0.490000          0.995594E-04
      0.495000          0.978224E-04
      0.500000          0.962080E-04
