 I_abs(s)[cm^-1]/c[mg/ml]
       0.00000          0.145745E-01
      0.500000E-02      0.145276E-01
      0.100000E-01      0.143877E-01
      0.150000E-01      0.141577E-01
      0.200000E-01      0.138424E-01
      0.250000E-01      0.134479E-01
      0.300000E-01      0.129820E-01
      0.350000E-01      0.124538E-01
      0.400000E-01      0.118728E-01
      0.450000E-01      0.112497E-01
      0.500000E-01      0.105951E-01
      0.550000E-01      0.991967E-02
      0.600000E-01      0.923374E-02
      0.650000E-01      0.854711E-02
      0.700000E-01      0.786876E-02
      0.750000E-01      0.720668E-02
      0.800000E-01      0.656775E-02
      0.850000E-01      0.595765E-02
      0.900000E-01      0.538082E-02
      0.950000E-01      0.484047E-02
      0.100000          0.433867E-02
      0.105000          0.387638E-02
      0.110000          0.345363E-02
      0.115000          0.306961E-02
      0.120000          0.272284E-02
      0.125000          0.241135E-02
      0.130000          0.213277E-02
      0.135000          0.188453E-02
      0.140000          0.166396E-02
      0.145000          0.146840E-02
      0.150000          0.129528E-02
      0.155000          0.114220E-02
      0.160000          0.100697E-02
      0.165000          0.887606E-03
      0.170000          0.782377E-03
      0.175000          0.689771E-03
      0.180000          0.608484E-03
      0.185000          0.537389E-03
      0.190000          0.475510E-03
      0.195000          0.421989E-03
      0.200000          0.376057E-03
      0.205000          0.337004E-03
      0.210000          0.304166E-03
      0.215000          0.276902E-03
      0.220000          0.254590E-03
      0.225000          0.236620E-03
      0.230000          0.222396E-03
      0.235000          0.211341E-03
      0.240000          0.202904E-03
      0.245000          0.196565E-03
      0.250000          0.191849E-03
      0.255000          0.188328E-03
      0.260000          0.185628E-03
      0.265000          0.183434E-03
      0.270000          0.181492E-03
      0.275000          0.179602E-03
      0.280000          0.177621E-03
      0.285000          0.175452E-03
      0.290000          0.173042E-03
      0.295000          0.170369E-03
      0.300000          0.167441E-03
      0.305000          0.164280E-03
      0.310000          0.160924E-03
      0.315000          0.157411E-03
      0.320000          0.153785E-03
      0.325000          0.150085E-03
      0.330000          0.146345E-03
      0.335000          0.142595E-03
      0.340000          0.138858E-03
      0.345000          0.135154E-03
      0.350000          0.131496E-03
      0.355000          0.127900E-03
      0.360000          0.124377E-03
      0.365000          0.120939E-03
      0.370000          0.117601E-03
      0.375000          0.114378E-03
      0.380000          0.111286E-03
      0.385000          0.108342E-03
      0.390000          0.105566E-03
      0.395000          0.102973E-03
      0.400000          0.100577E-03
      0.405000          0.983915E-04
      0.410000          0.964230E-04
      0.415000          0.946745E-04
      0.420000          0.931435E-04
      0.425000          0.918223E-04
      0.430000          0.906980E-04
      0.435000          0.897535E-04
      0.440000          0.889676E-04
      0.445000          0.883166E-04
      0.450000          0.877755E-04
      0.455000          0.873186E-04
      0.460000          0.869213E-04
      0.465000          0.865610E-04
      0.470000          0.862175E-04
      0.475000          0.858745E-04
      0.480000          0.855193E-04
      0.485000          0.851436E-04
      0.490000          0.847427E-04
      0.495000          0.843162E-04
      0.500000          0.838666E-04
