 I_abs(s)[cm^-1]/c[mg/ml]
       0.00000          0.143527E-01
      0.500000E-02      0.142984E-01
      0.100000E-01      0.141366E-01
      0.150000E-01      0.138715E-01
      0.200000E-01      0.135095E-01
      0.250000E-01      0.130593E-01
      0.300000E-01      0.125314E-01
      0.350000E-01      0.119378E-01
      0.400000E-01      0.112916E-01
      0.450000E-01      0.106064E-01
      0.500000E-01      0.989560E-02
      0.550000E-01      0.917256E-02
      0.600000E-01      0.844964E-02
      0.650000E-01      0.773810E-02
      0.700000E-01      0.704775E-02
      0.750000E-01      0.638683E-02
      0.800000E-01      0.576184E-02
      0.850000E-01      0.517754E-02
      0.900000E-01      0.463702E-02
      0.950000E-01      0.414182E-02
      0.100000          0.369206E-02
      0.105000          0.328671E-02
      0.110000          0.292377E-02
      0.115000          0.260056E-02
      0.120000          0.231392E-02
      0.125000          0.206044E-02
      0.130000          0.183664E-02
      0.135000          0.163915E-02
      0.140000          0.146479E-02
      0.145000          0.131070E-02
      0.150000          0.117433E-02
      0.155000          0.105350E-02
      0.160000          0.946354E-03
      0.165000          0.851345E-03
      0.170000          0.767189E-03
      0.175000          0.692807E-03
      0.180000          0.627277E-03
      0.185000          0.569786E-03
      0.190000          0.519588E-03
      0.195000          0.475978E-03
      0.200000          0.438266E-03
      0.205000          0.405775E-03
      0.210000          0.377839E-03
      0.215000          0.353806E-03
      0.220000          0.333056E-03
      0.225000          0.315011E-03
      0.230000          0.299150E-03
      0.235000          0.285021E-03
      0.240000          0.272247E-03
      0.245000          0.260533E-03
      0.250000          0.249662E-03
      0.255000          0.239490E-03
      0.260000          0.229938E-03
      0.265000          0.220976E-03
      0.270000          0.212613E-03
      0.275000          0.204878E-03
      0.280000          0.197811E-03
      0.285000          0.191449E-03
      0.290000          0.185813E-03
      0.295000          0.180909E-03
      0.300000          0.176717E-03
      0.305000          0.173195E-03
      0.310000          0.170280E-03
      0.315000          0.167890E-03
      0.320000          0.165934E-03
      0.325000          0.164311E-03
      0.330000          0.162923E-03
      0.335000          0.161675E-03
      0.340000          0.160483E-03
      0.345000          0.159277E-03
      0.350000          0.157999E-03
      0.355000          0.156608E-03
      0.360000          0.155077E-03
      0.365000          0.153392E-03
      0.370000          0.151548E-03
      0.375000          0.149549E-03
      0.380000          0.147403E-03
      0.385000          0.145118E-03
      0.390000          0.142706E-03
      0.395000          0.140172E-03
      0.400000          0.137522E-03
      0.405000          0.134758E-03
      0.410000          0.131880E-03
      0.415000          0.128885E-03
      0.420000          0.125772E-03
      0.425000          0.122539E-03
      0.430000          0.119189E-03
      0.435000          0.115727E-03
      0.440000          0.112164E-03
      0.445000          0.108519E-03
      0.450000          0.104814E-03
      0.455000          0.101079E-03
      0.460000          0.973486E-04
      0.465000          0.936620E-04
      0.470000          0.900608E-04
      0.475000          0.865877E-04
      0.480000          0.832845E-04
      0.485000          0.801904E-04
      0.490000          0.773404E-04
      0.495000          0.747635E-04
      0.500000          0.724814E-04
