 I_abs(s)[cm^-1]/c[mg/ml]
       0.00000          0.142267E-01
      0.500000E-02      0.141723E-01
      0.100000E-01      0.140102E-01
      0.150000E-01      0.137441E-01
      0.200000E-01      0.133797E-01
      0.250000E-01      0.129251E-01
      0.300000E-01      0.123898E-01
      0.350000E-01      0.117851E-01
      0.400000E-01      0.111232E-01
      0.450000E-01      0.104170E-01
      0.500000E-01      0.967990E-02
      0.550000E-01      0.892500E-02
      0.600000E-01      0.816507E-02
      0.650000E-01      0.741205E-02
      0.700000E-01      0.667682E-02
      0.750000E-01      0.596893E-02
      0.800000E-01      0.529647E-02
      0.850000E-01      0.466593E-02
      0.900000E-01      0.408220E-02
      0.950000E-01      0.354854E-02
      0.100000          0.306669E-02
      0.105000          0.263696E-02
      0.110000          0.225844E-02
      0.115000          0.192913E-02
      0.120000          0.164617E-02
      0.125000          0.140603E-02
      0.130000          0.120475E-02
      0.135000          0.103810E-02
      0.140000          0.901764E-03
      0.145000          0.791495E-03
      0.150000          0.703242E-03
      0.155000          0.633240E-03
      0.160000          0.578083E-03
      0.165000          0.534763E-03
      0.170000          0.500687E-03
      0.175000          0.473673E-03
      0.180000          0.451930E-03
      0.185000          0.434024E-03
      0.190000          0.418839E-03
      0.195000          0.405527E-03
      0.200000          0.393466E-03
      0.205000          0.382211E-03
      0.210000          0.371457E-03
      0.215000          0.361000E-03
      0.220000          0.350712E-03
      0.225000          0.340513E-03
      0.230000          0.330358E-03
      0.235000          0.320226E-03
      0.240000          0.310111E-03
      0.245000          0.300016E-03
      0.250000          0.289960E-03
      0.255000          0.279967E-03
      0.260000          0.270075E-03
      0.265000          0.260330E-03
      0.270000          0.250790E-03
      0.275000          0.241519E-03
      0.280000          0.232585E-03
      0.285000          0.224061E-03
      0.290000          0.216014E-03
      0.295000          0.208506E-03
      0.300000          0.201588E-03
      0.305000          0.195295E-03
      0.310000          0.189648E-03
      0.315000          0.184647E-03
      0.320000          0.180274E-03
      0.325000          0.176492E-03
      0.330000          0.173249E-03
      0.335000          0.170479E-03
      0.340000          0.168106E-03
      0.345000          0.166050E-03
      0.350000          0.164230E-03
      0.355000          0.162565E-03
      0.360000          0.160984E-03
      0.365000          0.159425E-03
      0.370000          0.157837E-03
      0.375000          0.156183E-03
      0.380000          0.154440E-03
      0.385000          0.152597E-03
      0.390000          0.150658E-03
      0.395000          0.148633E-03
      0.400000          0.146543E-03
      0.405000          0.144411E-03
      0.410000          0.142263E-03
      0.415000          0.140126E-03
      0.420000          0.138022E-03
      0.425000          0.135969E-03
      0.430000          0.133980E-03
      0.435000          0.132060E-03
      0.440000          0.130207E-03
      0.445000          0.128414E-03
      0.450000          0.126668E-03
      0.455000          0.124951E-03
      0.460000          0.123242E-03
      0.465000          0.121522E-03
      0.470000          0.119771E-03
      0.475000          0.117969E-03
      0.480000          0.116104E-03
      0.485000          0.114165E-03
      0.490000          0.112150E-03
      0.495000          0.110059E-03
      0.500000          0.107900E-03
