 I_abs(s)[cm^-1]/c[mg/ml]
       0.00000          0.144476E-01
      0.500000E-02      0.143997E-01
      0.100000E-01      0.142573E-01
      0.150000E-01      0.140232E-01
      0.200000E-01      0.137025E-01
      0.250000E-01      0.133019E-01
      0.300000E-01      0.128295E-01
      0.350000E-01      0.122948E-01
      0.400000E-01      0.117080E-01
      0.450000E-01      0.110803E-01
      0.500000E-01      0.104225E-01
      0.550000E-01      0.974601E-02
      0.600000E-01      0.906131E-02
      0.650000E-01      0.837844E-02
      0.700000E-01      0.770649E-02
      0.750000E-01      0.705345E-02
      0.800000E-01      0.642609E-02
      0.850000E-01      0.582986E-02
      0.900000E-01      0.526892E-02
      0.950000E-01      0.474609E-02
      0.100000          0.426303E-02
      0.105000          0.382024E-02
      0.110000          0.341729E-02
      0.115000          0.305290E-02
      0.120000          0.272519E-02
      0.125000          0.243179E-02
      0.130000          0.217000E-02
      0.135000          0.193698E-02
      0.140000          0.172985E-02
      0.145000          0.154581E-02
      0.150000          0.138220E-02
      0.155000          0.123661E-02
      0.160000          0.110685E-02
      0.165000          0.991017E-03
      0.170000          0.887478E-03
      0.175000          0.794843E-03
      0.180000          0.711953E-03
      0.185000          0.637836E-03
      0.190000          0.571681E-03
      0.195000          0.512793E-03
      0.200000          0.460568E-03
      0.205000          0.414461E-03
      0.210000          0.373963E-03
      0.215000          0.338590E-03
      0.220000          0.307867E-03
      0.225000          0.281328E-03
      0.230000          0.258513E-03
      0.235000          0.238976E-03
      0.240000          0.222285E-03
      0.245000          0.208035E-03
      0.250000          0.195851E-03
      0.255000          0.185395E-03
      0.260000          0.176370E-03
      0.265000          0.168524E-03
      0.270000          0.161649E-03
      0.275000          0.155578E-03
      0.280000          0.150183E-03
      0.285000          0.145372E-03
      0.290000          0.141076E-03
      0.295000          0.137253E-03
      0.300000          0.133871E-03
      0.305000          0.130909E-03
      0.310000          0.128350E-03
      0.315000          0.126176E-03
      0.320000          0.124366E-03
      0.325000          0.122893E-03
      0.330000          0.121723E-03
      0.335000          0.120818E-03
      0.340000          0.120134E-03
      0.345000          0.119622E-03
      0.350000          0.119235E-03
      0.355000          0.118922E-03
      0.360000          0.118638E-03
      0.365000          0.118340E-03
      0.370000          0.117991E-03
      0.375000          0.117562E-03
      0.380000          0.117030E-03
      0.385000          0.116379E-03
      0.390000          0.115601E-03
      0.395000          0.114694E-03
      0.400000          0.113662E-03
      0.405000          0.112512E-03
      0.410000          0.111257E-03
      0.415000          0.109910E-03
      0.420000          0.108484E-03
      0.425000          0.106995E-03
      0.430000          0.105455E-03
      0.435000          0.103874E-03
      0.440000          0.102264E-03
      0.445000          0.100629E-03
      0.450000          0.989755E-04
      0.455000          0.973050E-04
      0.460000          0.956189E-04
      0.465000          0.939171E-04
      0.470000          0.921995E-04
      0.475000          0.904661E-04
      0.480000          0.887180E-04
      0.485000          0.869580E-04
      0.490000          0.851906E-04
      0.495000          0.834228E-04
      0.500000          0.816640E-04
