 I_abs(s)[cm^-1]/c[mg/ml]
       0.00000          0.144159E-01
      0.500000E-02      0.143650E-01
      0.100000E-01      0.142132E-01
      0.150000E-01      0.139638E-01
      0.200000E-01      0.136220E-01
      0.250000E-01      0.131948E-01
      0.300000E-01      0.126908E-01
      0.350000E-01      0.121201E-01
      0.400000E-01      0.114936E-01
      0.450000E-01      0.108230E-01
      0.500000E-01      0.101205E-01
      0.550000E-01      0.939801E-02
      0.600000E-01      0.866731E-02
      0.650000E-01      0.793951E-02
      0.700000E-01      0.722484E-02
      0.750000E-01      0.653241E-02
      0.800000E-01      0.587010E-02
      0.850000E-01      0.524436E-02
      0.900000E-01      0.466025E-02
      0.950000E-01      0.412135E-02
      0.100000          0.362985E-02
      0.105000          0.318663E-02
      0.110000          0.279137E-02
      0.115000          0.244271E-02
      0.120000          0.213839E-02
      0.125000          0.187550E-02
      0.130000          0.165057E-02
      0.135000          0.145982E-02
      0.140000          0.129929E-02
      0.145000          0.116500E-02
      0.150000          0.105307E-02
      0.155000          0.959829E-03
      0.160000          0.881906E-03
      0.165000          0.816274E-03
      0.170000          0.760291E-03
      0.175000          0.711709E-03
      0.180000          0.668677E-03
      0.185000          0.629713E-03
      0.190000          0.593682E-03
      0.195000          0.559752E-03
      0.200000          0.527353E-03
      0.205000          0.496132E-03
      0.210000          0.465906E-03
      0.215000          0.436624E-03
      0.220000          0.408325E-03
      0.225000          0.381107E-03
      0.230000          0.355097E-03
      0.235000          0.330432E-03
      0.240000          0.307238E-03
      0.245000          0.285624E-03
      0.250000          0.265669E-03
      0.255000          0.247420E-03
      0.260000          0.230892E-03
      0.265000          0.216072E-03
      0.270000          0.202915E-03
      0.275000          0.191356E-03
      0.280000          0.181308E-03
      0.285000          0.172672E-03
      0.290000          0.165337E-03
      0.295000          0.159186E-03
      0.300000          0.154100E-03
      0.305000          0.149960E-03
      0.310000          0.146652E-03
      0.315000          0.144062E-03
      0.320000          0.142086E-03
      0.325000          0.140624E-03
      0.330000          0.139585E-03
      0.335000          0.138884E-03
      0.340000          0.138442E-03
      0.345000          0.138189E-03
      0.350000          0.138059E-03
      0.355000          0.137993E-03
      0.360000          0.137937E-03
      0.365000          0.137843E-03
      0.370000          0.137666E-03
      0.375000          0.137370E-03
      0.380000          0.136919E-03
      0.385000          0.136286E-03
      0.390000          0.135449E-03
      0.395000          0.134391E-03
      0.400000          0.133103E-03
      0.405000          0.131581E-03
      0.410000          0.129831E-03
      0.415000          0.127862E-03
      0.420000          0.125693E-03
      0.425000          0.123349E-03
      0.430000          0.120859E-03
      0.435000          0.118258E-03
      0.440000          0.115584E-03
      0.445000          0.112878E-03
      0.450000          0.110180E-03
      0.455000          0.107531E-03
      0.460000          0.104967E-03
      0.465000          0.102523E-03
      0.470000          0.100226E-03
      0.475000          0.981002E-04
      0.480000          0.961599E-04
      0.485000          0.944141E-04
      0.490000          0.928646E-04
      0.495000          0.915064E-04
      0.500000          0.903285E-04
