 I_abs(s)[cm^-1]/c[mg/ml]
       0.00000          0.147820E-01
      0.500000E-02      0.147206E-01
      0.100000E-01      0.145380E-01
      0.150000E-01      0.142386E-01
      0.200000E-01      0.138295E-01
      0.250000E-01      0.133205E-01
      0.300000E-01      0.127235E-01
      0.350000E-01      0.120519E-01
      0.400000E-01      0.113204E-01
      0.450000E-01      0.105445E-01
      0.500000E-01      0.973973E-02
      0.550000E-01      0.892135E-02
      0.600000E-01      0.810381E-02
      0.650000E-01      0.730038E-02
      0.700000E-01      0.652285E-02
      0.750000E-01      0.578123E-02
      0.800000E-01      0.508367E-02
      0.850000E-01      0.443634E-02
      0.900000E-01      0.384347E-02
      0.950000E-01      0.330743E-02
      0.100000          0.282890E-02
      0.105000          0.240708E-02
      0.110000          0.203988E-02
      0.115000          0.172423E-02
      0.120000          0.145628E-02
      0.125000          0.123170E-02
      0.130000          0.104587E-02
      0.135000          0.894109E-03
      0.140000          0.771824E-03
      0.145000          0.674646E-03
      0.150000          0.598534E-03
      0.155000          0.539827E-03
      0.160000          0.495287E-03
      0.165000          0.462099E-03
      0.170000          0.437860E-03
      0.175000          0.420551E-03
      0.180000          0.408503E-03
      0.185000          0.400350E-03
      0.190000          0.394993E-03
      0.195000          0.391554E-03
      0.200000          0.389345E-03
      0.205000          0.387833E-03
      0.210000          0.386612E-03
      0.215000          0.385388E-03
      0.220000          0.383951E-03
      0.225000          0.382167E-03
      0.230000          0.379961E-03
      0.235000          0.377307E-03
      0.240000          0.374211E-03
      0.245000          0.370705E-03
      0.250000          0.366835E-03
      0.255000          0.362648E-03
      0.260000          0.358185E-03
      0.265000          0.353472E-03
      0.270000          0.348518E-03
      0.275000          0.343309E-03
      0.280000          0.337812E-03
      0.285000          0.331972E-03
      0.290000          0.325726E-03
      0.295000          0.319002E-03
      0.300000          0.311732E-03
      0.305000          0.303860E-03
      0.310000          0.295350E-03
      0.315000          0.286193E-03
      0.320000          0.276413E-03
      0.325000          0.266065E-03
      0.330000          0.255243E-03
      0.335000          0.244069E-03
      0.340000          0.232692E-03
      0.345000          0.221276E-03
      0.350000          0.209998E-03
      0.355000          0.199031E-03
      0.360000          0.188538E-03
      0.365000          0.178662E-03
      0.370000          0.169520E-03
      0.375000          0.161196E-03
      0.380000          0.153738E-03
      0.385000          0.147159E-03
      0.390000          0.141437E-03
      0.395000          0.136520E-03
      0.400000          0.132332E-03
      0.405000          0.128779E-03
      0.410000          0.125756E-03
      0.415000          0.123156E-03
      0.420000          0.120873E-03
      0.425000          0.118814E-03
      0.430000          0.116898E-03
      0.435000          0.115061E-03
      0.440000          0.113256E-03
      0.445000          0.111456E-03
      0.450000          0.109648E-03
      0.455000          0.107833E-03
      0.460000          0.106021E-03
      0.465000          0.104230E-03
      0.470000          0.102480E-03
      0.475000          0.100788E-03
      0.480000          0.991707E-04
      0.485000          0.976373E-04
      0.490000          0.961913E-04
      0.495000          0.948292E-04
      0.500000          0.935415E-04
