 I_abs(s)[cm^-1]/c[mg/ml]
       0.00000          0.145666E-01
      0.500000E-02      0.145225E-01
      0.100000E-01      0.143912E-01
      0.150000E-01      0.141751E-01
      0.200000E-01      0.138779E-01
      0.250000E-01      0.135052E-01
      0.300000E-01      0.130633E-01
      0.350000E-01      0.125599E-01
      0.400000E-01      0.120035E-01
      0.450000E-01      0.114031E-01
      0.500000E-01      0.107681E-01
      0.550000E-01      0.101080E-01
      0.600000E-01      0.943226E-02
      0.650000E-01      0.874995E-02
      0.700000E-01      0.806963E-02
      0.750000E-01      0.739917E-02
      0.800000E-01      0.674562E-02
      0.850000E-01      0.611511E-02
      0.900000E-01      0.551279E-02
      0.950000E-01      0.494281E-02
      0.100000          0.440831E-02
      0.105000          0.391147E-02
      0.110000          0.345354E-02
      0.115000          0.303495E-02
      0.120000          0.265540E-02
      0.125000          0.231394E-02
      0.130000          0.200911E-02
      0.135000          0.173904E-02
      0.140000          0.150151E-02
      0.145000          0.129414E-02
      0.150000          0.111440E-02
      0.155000          0.959726E-03
      0.160000          0.827568E-03
      0.165000          0.715461E-03
      0.170000          0.621057E-03
      0.175000          0.542156E-03
      0.180000          0.476725E-03
      0.185000          0.422909E-03
      0.190000          0.379035E-03
      0.195000          0.343607E-03
      0.200000          0.315300E-03
      0.205000          0.292946E-03
      0.210000          0.275525E-03
      0.215000          0.262147E-03
      0.220000          0.252041E-03
      0.225000          0.244539E-03
      0.230000          0.239067E-03
      0.235000          0.235128E-03
      0.240000          0.232297E-03
      0.245000          0.230211E-03
      0.250000          0.228562E-03
      0.255000          0.227089E-03
      0.260000          0.225577E-03
      0.265000          0.223851E-03
      0.270000          0.221771E-03
      0.275000          0.219236E-03
      0.280000          0.216172E-03
      0.285000          0.212540E-03
      0.290000          0.208326E-03
      0.295000          0.203542E-03
      0.300000          0.198226E-03
      0.305000          0.192432E-03
      0.310000          0.186235E-03
      0.315000          0.179724E-03
      0.320000          0.172997E-03
      0.325000          0.166161E-03
      0.330000          0.159325E-03
      0.335000          0.152597E-03
      0.340000          0.146083E-03
      0.345000          0.139878E-03
      0.350000          0.134070E-03
      0.355000          0.128732E-03
      0.360000          0.123922E-03
      0.365000          0.119681E-03
      0.370000          0.116034E-03
      0.375000          0.112989E-03
      0.380000          0.110536E-03
      0.385000          0.108650E-03
      0.390000          0.107294E-03
      0.395000          0.106417E-03
      0.400000          0.105961E-03
      0.405000          0.105862E-03
      0.410000          0.106051E-03
      0.415000          0.106459E-03
      0.420000          0.107018E-03
      0.425000          0.107666E-03
      0.430000          0.108344E-03
      0.435000          0.109002E-03
      0.440000          0.109596E-03
      0.445000          0.110093E-03
      0.450000          0.110468E-03
      0.455000          0.110702E-03
      0.460000          0.110788E-03
      0.465000          0.110721E-03
      0.470000          0.110506E-03
      0.475000          0.110148E-03
      0.480000          0.109659E-03
      0.485000          0.109050E-03
      0.490000          0.108333E-03
      0.495000          0.107520E-03
      0.500000          0.106623E-03
