 I_abs(s)[cm^-1]/c[mg/ml]
       0.00000          0.148221E-01
      0.500000E-02      0.147642E-01
      0.100000E-01      0.145921E-01
      0.150000E-01      0.143102E-01
      0.200000E-01      0.139257E-01
      0.250000E-01      0.134484E-01
      0.300000E-01      0.128899E-01
      0.350000E-01      0.122636E-01
      0.400000E-01      0.115838E-01
      0.450000E-01      0.108655E-01
      0.500000E-01      0.101233E-01
      0.550000E-01      0.937145E-02
      0.600000E-01      0.862322E-02
      0.650000E-01      0.789036E-02
      0.700000E-01      0.718296E-02
      0.750000E-01      0.650922E-02
      0.800000E-01      0.587537E-02
      0.850000E-01      0.528567E-02
      0.900000E-01      0.474251E-02
      0.950000E-01      0.424660E-02
      0.100000          0.379719E-02
      0.105000          0.339233E-02
      0.110000          0.302919E-02
      0.115000          0.270432E-02
      0.120000          0.241398E-02
      0.125000          0.215432E-02
      0.130000          0.192164E-02
      0.135000          0.171253E-02
      0.140000          0.152399E-02
      0.145000          0.135347E-02
      0.150000          0.119891E-02
      0.155000          0.105870E-02
      0.160000          0.931641E-03
      0.165000          0.816847E-03
      0.170000          0.713680E-03
      0.175000          0.621653E-03
      0.180000          0.540349E-03
      0.185000          0.469354E-03
      0.190000          0.408195E-03
      0.195000          0.356317E-03
      0.200000          0.313055E-03
      0.205000          0.277646E-03
      0.210000          0.249240E-03
      0.215000          0.226929E-03
      0.220000          0.209782E-03
      0.225000          0.196883E-03
      0.230000          0.187367E-03
      0.235000          0.180452E-03
      0.240000          0.175459E-03
      0.245000          0.171834E-03
      0.250000          0.169144E-03
      0.255000          0.167083E-03
      0.260000          0.165452E-03
      0.265000          0.164147E-03
      0.270000          0.163132E-03
      0.275000          0.162420E-03
      0.280000          0.162047E-03
      0.285000          0.162051E-03
      0.290000          0.162456E-03
      0.295000          0.163259E-03
      0.300000          0.164422E-03
      0.305000          0.165874E-03
      0.310000          0.167510E-03
      0.315000          0.169202E-03
      0.320000          0.170804E-03
      0.325000          0.172169E-03
      0.330000          0.173155E-03
      0.335000          0.173641E-03
      0.340000          0.173531E-03
      0.345000          0.172764E-03
      0.350000          0.171313E-03
      0.355000          0.169193E-03
      0.360000          0.166448E-03
      0.365000          0.163158E-03
      0.370000          0.159422E-03
      0.375000          0.155355E-03
      0.380000          0.151081E-03
      0.385000          0.146722E-03
      0.390000          0.142390E-03
      0.395000          0.138185E-03
      0.400000          0.134185E-03
      0.405000          0.130448E-03
      0.410000          0.127009E-03
      0.415000          0.123880E-03
      0.420000          0.121054E-03
      0.425000          0.118506E-03
      0.430000          0.116200E-03
      0.435000          0.114089E-03
      0.440000          0.112126E-03
      0.445000          0.110260E-03
      0.450000          0.108449E-03
      0.455000          0.106653E-03
      0.460000          0.104844E-03
      0.465000          0.103003E-03
      0.470000          0.101124E-03
      0.475000          0.992065E-04
      0.480000          0.972631E-04
      0.485000          0.953115E-04
      0.490000          0.933750E-04
      0.495000          0.914803E-04
      0.500000          0.896550E-04
