 I_abs(s)[cm^-1]/c[mg/ml]
       0.00000          0.144555E-01
      0.500000E-02      0.143991E-01
      0.100000E-01      0.142315E-01
      0.150000E-01      0.139567E-01
      0.200000E-01      0.135815E-01
      0.250000E-01      0.131147E-01
      0.300000E-01      0.125674E-01
      0.350000E-01      0.119521E-01
      0.400000E-01      0.112821E-01
      0.450000E-01      0.105717E-01
      0.500000E-01      0.983503E-02
      0.550000E-01      0.908580E-02
      0.600000E-01      0.833703E-02
      0.650000E-01      0.760056E-02
      0.700000E-01      0.688679E-02
      0.750000E-01      0.620447E-02
      0.800000E-01      0.556062E-02
      0.850000E-01      0.496047E-02
      0.900000E-01      0.440749E-02
      0.950000E-01      0.390353E-02
      0.100000          0.344894E-02
      0.105000          0.304282E-02
      0.110000          0.268319E-02
      0.115000          0.236727E-02
      0.120000          0.209167E-02
      0.125000          0.185264E-02
      0.130000          0.164625E-02
      0.135000          0.146857E-02
      0.140000          0.131579E-02
      0.145000          0.118435E-02
      0.150000          0.107099E-02
      0.155000          0.972808E-03
      0.160000          0.887268E-03
      0.165000          0.812215E-03
      0.170000          0.745844E-03
      0.175000          0.686679E-03
      0.180000          0.633533E-03
      0.185000          0.585474E-03
      0.190000          0.541779E-03
      0.195000          0.501903E-03
      0.200000          0.465436E-03
      0.205000          0.432077E-03
      0.210000          0.401605E-03
      0.215000          0.373854E-03
      0.220000          0.348693E-03
      0.225000          0.326011E-03
      0.230000          0.305704E-03
      0.235000          0.287663E-03
      0.240000          0.271768E-03
      0.245000          0.257881E-03
      0.250000          0.245849E-03
      0.255000          0.235495E-03
      0.260000          0.226627E-03
      0.265000          0.219039E-03
      0.270000          0.212517E-03
      0.275000          0.206845E-03
      0.280000          0.201812E-03
      0.285000          0.197220E-03
      0.290000          0.192891E-03
      0.295000          0.188672E-03
      0.300000          0.184442E-03
      0.305000          0.180115E-03
      0.310000          0.175640E-03
      0.315000          0.171001E-03
      0.320000          0.166215E-03
      0.325000          0.161329E-03
      0.330000          0.156412E-03
      0.335000          0.151549E-03
      0.340000          0.146837E-03
      0.345000          0.142374E-03
      0.350000          0.138251E-03
      0.355000          0.134553E-03
      0.360000          0.131345E-03
      0.365000          0.128674E-03
      0.370000          0.126564E-03
      0.375000          0.125015E-03
      0.380000          0.124005E-03
      0.385000          0.123491E-03
      0.390000          0.123412E-03
      0.395000          0.123689E-03
      0.400000          0.124237E-03
      0.405000          0.124960E-03
      0.410000          0.125764E-03
      0.415000          0.126556E-03
      0.420000          0.127248E-03
      0.425000          0.127765E-03
      0.430000          0.128041E-03
      0.435000          0.128027E-03
      0.440000          0.127687E-03
      0.445000          0.127002E-03
      0.450000          0.125971E-03
      0.455000          0.124603E-03
      0.460000          0.122924E-03
      0.465000          0.120971E-03
      0.470000          0.118788E-03
      0.475000          0.116429E-03
      0.480000          0.113949E-03
      0.485000          0.111407E-03
      0.490000          0.108859E-03
      0.495000          0.106358E-03
      0.500000          0.103951E-03
