 I_abs(s)[cm^-1]/c[mg/ml]
       0.00000          0.148221E-01
      0.500000E-02      0.147594E-01
      0.100000E-01      0.145730E-01
      0.150000E-01      0.142686E-01
      0.200000E-01      0.138547E-01
      0.250000E-01      0.133432E-01
      0.300000E-01      0.127481E-01
      0.350000E-01      0.120850E-01
      0.400000E-01      0.113706E-01
      0.450000E-01      0.106218E-01
      0.500000E-01      0.985487E-02
      0.550000E-01      0.908521E-02
      0.600000E-01      0.832650E-02
      0.650000E-01      0.759043E-02
      0.700000E-01      0.688646E-02
      0.750000E-01      0.622173E-02
      0.800000E-01      0.560105E-02
      0.850000E-01      0.502709E-02
      0.900000E-01      0.450061E-02
      0.950000E-01      0.402080E-02
      0.100000          0.358561E-02
      0.105000          0.319214E-02
      0.110000          0.283699E-02
      0.115000          0.251656E-02
      0.120000          0.222734E-02
      0.125000          0.196606E-02
      0.130000          0.172987E-02
      0.135000          0.151634E-02
      0.140000          0.132353E-02
      0.145000          0.114991E-02
      0.150000          0.994299E-03
      0.155000          0.855749E-03
      0.160000          0.733470E-03
      0.165000          0.626725E-03
      0.170000          0.534748E-03
      0.175000          0.456690E-03
      0.180000          0.391584E-03
      0.185000          0.338337E-03
      0.190000          0.295742E-03
      0.195000          0.262507E-03
      0.200000          0.237301E-03
      0.205000          0.218801E-03
      0.210000          0.205740E-03
      0.215000          0.196948E-03
      0.220000          0.191391E-03
      0.225000          0.188191E-03
      0.230000          0.186636E-03
      0.235000          0.186178E-03
      0.240000          0.186422E-03
      0.245000          0.187103E-03
      0.250000          0.188060E-03
      0.255000          0.189205E-03
      0.260000          0.190499E-03
      0.265000          0.191921E-03
      0.270000          0.193451E-03
      0.275000          0.195051E-03
      0.280000          0.196660E-03
      0.285000          0.198191E-03
      0.290000          0.199531E-03
      0.295000          0.200554E-03
      0.300000          0.201127E-03
      0.305000          0.201125E-03
      0.310000          0.200440E-03
      0.315000          0.198992E-03
      0.320000          0.196741E-03
      0.325000          0.193687E-03
      0.330000          0.189870E-03
      0.335000          0.185376E-03
      0.340000          0.180323E-03
      0.345000          0.174856E-03
      0.350000          0.169141E-03
      0.355000          0.163348E-03
      0.360000          0.157644E-03
      0.365000          0.152181E-03
      0.370000          0.147090E-03
      0.375000          0.142470E-03
      0.380000          0.138388E-03
      0.385000          0.134874E-03
      0.390000          0.131926E-03
      0.395000          0.129509E-03
      0.400000          0.127563E-03
      0.405000          0.126007E-03
      0.410000          0.124752E-03
      0.415000          0.123701E-03
      0.420000          0.122763E-03
      0.425000          0.121854E-03
      0.430000          0.120905E-03
      0.435000          0.119866E-03
      0.440000          0.118704E-03
      0.445000          0.117404E-03
      0.450000          0.115969E-03
      0.455000          0.114415E-03
      0.460000          0.112768E-03
      0.465000          0.111058E-03
      0.470000          0.109318E-03
      0.475000          0.107575E-03
      0.480000          0.105853E-03
      0.485000          0.104167E-03
      0.490000          0.102522E-03
      0.495000          0.100919E-03
      0.500000          0.993473E-04
