 I_abs(s)[cm^-1]/c[mg/ml]
       0.00000          0.147420E-01
      0.500000E-02      0.147022E-01
      0.100000E-01      0.145836E-01
      0.150000E-01      0.143878E-01
      0.200000E-01      0.141180E-01
      0.250000E-01      0.137781E-01
      0.300000E-01      0.133734E-01
      0.350000E-01      0.129098E-01
      0.400000E-01      0.123939E-01
      0.450000E-01      0.118332E-01
      0.500000E-01      0.112352E-01
      0.550000E-01      0.106080E-01
      0.600000E-01      0.995958E-02
      0.650000E-01      0.929785E-02
      0.700000E-01      0.863056E-02
      0.750000E-01      0.796503E-02
      0.800000E-01      0.730810E-02
      0.850000E-01      0.666599E-02
      0.900000E-01      0.604427E-02
      0.950000E-01      0.544772E-02
      0.100000          0.488039E-02
      0.105000          0.434548E-02
      0.110000          0.384545E-02
      0.115000          0.338197E-02
      0.120000          0.295597E-02
      0.125000          0.256774E-02
      0.130000          0.221694E-02
      0.135000          0.190270E-02
      0.140000          0.162369E-02
      0.145000          0.137822E-02
      0.150000          0.116430E-02
      0.155000          0.979691E-03
      0.160000          0.822048E-03
      0.165000          0.688923E-03
      0.170000          0.577854E-03
      0.175000          0.486407E-03
      0.180000          0.412223E-03
      0.185000          0.353052E-03
      0.190000          0.306778E-03
      0.195000          0.271441E-03
      0.200000          0.245247E-03
      0.205000          0.226574E-03
      0.210000          0.213974E-03
      0.215000          0.206173E-03
      0.220000          0.202057E-03
      0.225000          0.200670E-03
      0.230000          0.201199E-03
      0.235000          0.202964E-03
      0.240000          0.205405E-03
      0.245000          0.208070E-03
      0.250000          0.210601E-03
      0.255000          0.212726E-03
      0.260000          0.214245E-03
      0.265000          0.215021E-03
      0.270000          0.214973E-03
      0.275000          0.214062E-03
      0.280000          0.212290E-03
      0.285000          0.209690E-03
      0.290000          0.206319E-03
      0.295000          0.202255E-03
      0.300000          0.197590E-03
      0.305000          0.192428E-03
      0.310000          0.186877E-03
      0.315000          0.181049E-03
      0.320000          0.175053E-03
      0.325000          0.168998E-03
      0.330000          0.162984E-03
      0.335000          0.157103E-03
      0.340000          0.151438E-03
      0.345000          0.146059E-03
      0.350000          0.141024E-03
      0.355000          0.136378E-03
      0.360000          0.132153E-03
      0.365000          0.128367E-03
      0.370000          0.125025E-03
      0.375000          0.122121E-03
      0.380000          0.119638E-03
      0.385000          0.117549E-03
      0.390000          0.115818E-03
      0.395000          0.114403E-03
      0.400000          0.113259E-03
      0.405000          0.112335E-03
      0.410000          0.111579E-03
      0.415000          0.110942E-03
      0.420000          0.110373E-03
      0.425000          0.109826E-03
      0.430000          0.109258E-03
      0.435000          0.108634E-03
      0.440000          0.107921E-03
      0.445000          0.107095E-03
      0.450000          0.106138E-03
      0.455000          0.105040E-03
      0.460000          0.103796E-03
      0.465000          0.102408E-03
      0.470000          0.100883E-03
      0.475000          0.992357E-04
      0.480000          0.974819E-04
      0.485000          0.956425E-04
      0.490000          0.937404E-04
      0.495000          0.917999E-04
      0.500000          0.898459E-04
