 I_abs(s)[cm^-1]/c[mg/ml]
       0.00000          0.144793E-01
      0.500000E-02      0.144183E-01
      0.100000E-01      0.142369E-01
      0.150000E-01      0.139400E-01
      0.200000E-01      0.135352E-01
      0.250000E-01      0.130330E-01
      0.300000E-01      0.124458E-01
      0.350000E-01      0.117879E-01
      0.400000E-01      0.110748E-01
      0.450000E-01      0.103223E-01
      0.500000E-01      0.954645E-02
      0.550000E-01      0.876244E-02
      0.600000E-01      0.798456E-02
      0.650000E-01      0.722555E-02
      0.700000E-01      0.649634E-02
      0.750000E-01      0.580583E-02
      0.800000E-01      0.516083E-02
      0.850000E-01      0.456597E-02
      0.900000E-01      0.402387E-02
      0.950000E-01      0.353528E-02
      0.100000          0.309933E-02
      0.105000          0.271378E-02
      0.110000          0.237539E-02
      0.115000          0.208016E-02
      0.120000          0.182369E-02
      0.125000          0.160142E-02
      0.130000          0.140887E-02
      0.135000          0.124185E-02
      0.140000          0.109654E-02
      0.145000          0.969635E-03
      0.150000          0.858350E-03
      0.155000          0.760423E-03
      0.160000          0.674071E-03
      0.165000          0.597934E-03
      0.170000          0.530991E-03
      0.175000          0.472472E-03
      0.180000          0.421782E-03
      0.185000          0.378416E-03
      0.190000          0.341904E-03
      0.195000          0.311759E-03
      0.200000          0.287453E-03
      0.205000          0.268398E-03
      0.210000          0.253953E-03
      0.215000          0.243438E-03
      0.220000          0.236152E-03
      0.225000          0.231402E-03
      0.230000          0.228533E-03
      0.235000          0.226948E-03
      0.240000          0.226132E-03
      0.245000          0.225663E-03
      0.250000          0.225224E-03
      0.255000          0.224596E-03
      0.260000          0.223655E-03
      0.265000          0.222357E-03
      0.270000          0.220721E-03
      0.275000          0.218816E-03
      0.280000          0.216734E-03
      0.285000          0.214577E-03
      0.290000          0.212442E-03
      0.295000          0.210407E-03
      0.300000          0.208527E-03
      0.305000          0.206825E-03
      0.310000          0.205297E-03
      0.315000          0.203912E-03
      0.320000          0.202621E-03
      0.325000          0.201359E-03
      0.330000          0.200057E-03
      0.335000          0.198648E-03
      0.340000          0.197072E-03
      0.345000          0.195283E-03
      0.350000          0.193254E-03
      0.355000          0.190971E-03
      0.360000          0.188440E-03
      0.365000          0.185684E-03
      0.370000          0.182735E-03
      0.375000          0.179635E-03
      0.380000          0.176431E-03
      0.385000          0.173168E-03
      0.390000          0.169888E-03
      0.395000          0.166629E-03
      0.400000          0.163418E-03
      0.405000          0.160274E-03
      0.410000          0.157208E-03
      0.415000          0.154222E-03
      0.420000          0.151311E-03
      0.425000          0.148465E-03
      0.430000          0.145673E-03
      0.435000          0.142921E-03
      0.440000          0.140198E-03
      0.445000          0.137492E-03
      0.450000          0.134798E-03
      0.455000          0.132113E-03
      0.460000          0.129438E-03
      0.465000          0.126778E-03
      0.470000          0.124140E-03
      0.475000          0.121533E-03
      0.480000          0.118967E-03
      0.485000          0.116454E-03
      0.490000          0.114002E-03
      0.495000          0.111621E-03
      0.500000          0.109318E-03
