 I_abs(s)[cm^-1]/c[mg/ml]
       0.00000          0.139530E-01
      0.500000E-02      0.138941E-01
      0.100000E-01      0.137187E-01
      0.150000E-01      0.134314E-01
      0.200000E-01      0.130394E-01
      0.250000E-01      0.125524E-01
      0.300000E-01      0.119825E-01
      0.350000E-01      0.113430E-01
      0.400000E-01      0.106488E-01
      0.450000E-01      0.991516E-02
      0.500000E-01      0.915757E-02
      0.550000E-01      0.839105E-02
      0.600000E-01      0.762976E-02
      0.650000E-01      0.688657E-02
      0.700000E-01      0.617274E-02
      0.750000E-01      0.549765E-02
      0.800000E-01      0.486870E-02
      0.850000E-01      0.429123E-02
      0.900000E-01      0.376854E-02
      0.950000E-01      0.330204E-02
      0.100000          0.289138E-02
      0.105000          0.253472E-02
      0.110000          0.222898E-02
      0.115000          0.197010E-02
      0.120000          0.175338E-02
      0.125000          0.157370E-02
      0.130000          0.142582E-02
      0.135000          0.130456E-02
      0.140000          0.120503E-02
      0.145000          0.112273E-02
      0.150000          0.105365E-02
      0.155000          0.994386E-03
      0.160000          0.942084E-03
      0.165000          0.894483E-03
      0.170000          0.849860E-03
      0.175000          0.806977E-03
      0.180000          0.765022E-03
      0.185000          0.723528E-03
      0.190000          0.682309E-03
      0.195000          0.641384E-03
      0.200000          0.600917E-03
      0.205000          0.561163E-03
      0.210000          0.522425E-03
      0.215000          0.485016E-03
      0.220000          0.449235E-03
      0.225000          0.415351E-03
      0.230000          0.383588E-03
      0.235000          0.354125E-03
      0.240000          0.327086E-03
      0.245000          0.302550E-03
      0.250000          0.280545E-03
      0.255000          0.261057E-03
      0.260000          0.244027E-03
      0.265000          0.229362E-03
      0.270000          0.216934E-03
      0.275000          0.206584E-03
      0.280000          0.198129E-03
      0.285000          0.191366E-03
      0.290000          0.186076E-03
      0.295000          0.182031E-03
      0.300000          0.179002E-03
      0.305000          0.176762E-03
      0.310000          0.175097E-03
      0.315000          0.173807E-03
      0.320000          0.172715E-03
      0.325000          0.171668E-03
      0.330000          0.170545E-03
      0.335000          0.169250E-03
      0.340000          0.167720E-03
      0.345000          0.165919E-03
      0.350000          0.163835E-03
      0.355000          0.161479E-03
      0.360000          0.158876E-03
      0.365000          0.156066E-03
      0.370000          0.153093E-03
      0.375000          0.150003E-03
      0.380000          0.146840E-03
      0.385000          0.143645E-03
      0.390000          0.140450E-03
      0.395000          0.137277E-03
      0.400000          0.134142E-03
      0.405000          0.131052E-03
      0.410000          0.128009E-03
      0.415000          0.125010E-03
      0.420000          0.122049E-03
      0.425000          0.119122E-03
      0.430000          0.116227E-03
      0.435000          0.113367E-03
      0.440000          0.110549E-03
      0.445000          0.107788E-03
      0.450000          0.105105E-03
      0.455000          0.102524E-03
      0.460000          0.100076E-03
      0.465000          0.977934E-04
      0.470000          0.957075E-04
      0.475000          0.938492E-04
      0.480000          0.922449E-04
      0.485000          0.909151E-04
      0.490000          0.898728E-04
      0.495000          0.891223E-04
      0.500000          0.886587E-04
