 I_abs(s)[cm^-1]/c[mg/ml]
       0.00000          0.142739E-01
      0.500000E-02      0.142058E-01
      0.100000E-01      0.140037E-01
      0.150000E-01      0.136737E-01
      0.200000E-01      0.132262E-01
      0.250000E-01      0.126744E-01
      0.300000E-01      0.120345E-01
      0.350000E-01      0.113246E-01
      0.400000E-01      0.105639E-01
      0.450000E-01      0.977175E-02
      0.500000E-01      0.896702E-02
      0.550000E-01      0.816729E-02
      0.600000E-01      0.738819E-02
      0.650000E-01      0.664301E-02
      0.700000E-01      0.594232E-02
      0.750000E-01      0.529386E-02
      0.800000E-01      0.470255E-02
      0.850000E-01      0.417064E-02
      0.900000E-01      0.369797E-02
      0.950000E-01      0.328238E-02
      0.100000          0.292011E-02
      0.105000          0.260625E-02
      0.110000          0.233520E-02
      0.115000          0.210106E-02
      0.120000          0.189803E-02
      0.125000          0.172067E-02
      0.130000          0.156412E-02
      0.135000          0.142422E-02
      0.140000          0.129764E-02
      0.145000          0.118177E-02
      0.150000          0.107478E-02
      0.155000          0.975417E-03
      0.160000          0.882985E-03
      0.165000          0.797146E-03
      0.170000          0.717827E-03
      0.175000          0.645094E-03
      0.180000          0.579056E-03
      0.185000          0.519786E-03
      0.190000          0.467272E-03
      0.195000          0.421385E-03
      0.200000          0.381865E-03
      0.205000          0.348335E-03
      0.210000          0.320311E-03
      0.215000          0.297233E-03
      0.220000          0.278493E-03
      0.225000          0.263468E-03
      0.230000          0.251544E-03
      0.235000          0.242143E-03
      0.240000          0.234741E-03
      0.245000          0.228878E-03
      0.250000          0.224168E-03
      0.255000          0.220300E-03
      0.260000          0.217031E-03
      0.265000          0.214187E-03
      0.270000          0.211646E-03
      0.275000          0.209331E-03
      0.280000          0.207201E-03
      0.285000          0.205233E-03
      0.290000          0.203416E-03
      0.295000          0.201742E-03
      0.300000          0.200196E-03
      0.305000          0.198752E-03
      0.310000          0.197371E-03
      0.315000          0.196000E-03
      0.320000          0.194571E-03
      0.325000          0.193011E-03
      0.330000          0.191240E-03
      0.335000          0.189181E-03
      0.340000          0.186767E-03
      0.345000          0.183945E-03
      0.350000          0.180681E-03
      0.355000          0.176966E-03
      0.360000          0.172816E-03
      0.365000          0.168272E-03
      0.370000          0.163398E-03
      0.375000          0.158279E-03
      0.380000          0.153012E-03
      0.385000          0.147703E-03
      0.390000          0.142457E-03
      0.395000          0.137374E-03
      0.400000          0.132542E-03
      0.405000          0.128030E-03
      0.410000          0.123887E-03
      0.415000          0.120141E-03
      0.420000          0.116795E-03
      0.425000          0.113833E-03
      0.430000          0.111219E-03
      0.435000          0.108906E-03
      0.440000          0.106836E-03
      0.445000          0.104949E-03
      0.450000          0.103185E-03
      0.455000          0.101490E-03
      0.460000          0.998178E-04
      0.465000          0.981353E-04
      0.470000          0.964205E-04
      0.475000          0.946651E-04
      0.480000          0.928723E-04
      0.485000          0.910561E-04
      0.490000          0.892383E-04
      0.495000          0.874465E-04
      0.500000          0.857112E-04
