 I_abs(s)[cm^-1]/c[mg/ml]
       0.00000          0.144476E-01
      0.500000E-02      0.144039E-01
      0.100000E-01      0.142735E-01
      0.150000E-01      0.140590E-01
      0.200000E-01      0.137640E-01
      0.250000E-01      0.133937E-01
      0.300000E-01      0.129548E-01
      0.350000E-01      0.124546E-01
      0.400000E-01      0.119016E-01
      0.450000E-01      0.113047E-01
      0.500000E-01      0.106734E-01
      0.550000E-01      0.100173E-01
      0.600000E-01      0.934581E-02
      0.650000E-01      0.866819E-02
      0.700000E-01      0.799318E-02
      0.750000E-01      0.732883E-02
      0.800000E-01      0.668240E-02
      0.850000E-01      0.606023E-02
      0.900000E-01      0.546765E-02
      0.950000E-01      0.490893E-02
      0.100000          0.438728E-02
      0.105000          0.390489E-02
      0.110000          0.346294E-02
      0.115000          0.306169E-02
      0.120000          0.270057E-02
      0.125000          0.237833E-02
      0.130000          0.209308E-02
      0.135000          0.184248E-02
      0.140000          0.162385E-02
      0.145000          0.143427E-02
      0.150000          0.127070E-02
      0.155000          0.113012E-02
      0.160000          0.100955E-02
      0.165000          0.906161E-03
      0.170000          0.817352E-03
      0.175000          0.740749E-03
      0.180000          0.674256E-03
      0.185000          0.616061E-03
      0.190000          0.564638E-03
      0.195000          0.518732E-03
      0.200000          0.477345E-03
      0.205000          0.439705E-03
      0.210000          0.405240E-03
      0.215000          0.373546E-03
      0.220000          0.344349E-03
      0.225000          0.317481E-03
      0.230000          0.292843E-03
      0.235000          0.270385E-03
      0.240000          0.250080E-03
      0.245000          0.231907E-03
      0.250000          0.215837E-03
      0.255000          0.201821E-03
      0.260000          0.189788E-03
      0.265000          0.179641E-03
      0.270000          0.171253E-03
      0.275000          0.164475E-03
      0.280000          0.159138E-03
      0.285000          0.155058E-03
      0.290000          0.152041E-03
      0.295000          0.149891E-03
      0.300000          0.148416E-03
      0.305000          0.147431E-03
      0.310000          0.146764E-03
      0.315000          0.146259E-03
      0.320000          0.145782E-03
      0.325000          0.145218E-03
      0.330000          0.144474E-03
      0.335000          0.143483E-03
      0.340000          0.142196E-03
      0.345000          0.140586E-03
      0.350000          0.138646E-03
      0.355000          0.136383E-03
      0.360000          0.133822E-03
      0.365000          0.130995E-03
      0.370000          0.127946E-03
      0.375000          0.124725E-03
      0.380000          0.121384E-03
      0.385000          0.117979E-03
      0.390000          0.114562E-03
      0.395000          0.111186E-03
      0.400000          0.107897E-03
      0.405000          0.104736E-03
      0.410000          0.101741E-03
      0.415000          0.989380E-04
      0.420000          0.963499E-04
      0.425000          0.939908E-04
      0.430000          0.918684E-04
      0.435000          0.899837E-04
      0.440000          0.883323E-04
      0.445000          0.869045E-04
      0.450000          0.856866E-04
      0.455000          0.846618E-04
      0.460000          0.838109E-04
      0.465000          0.831133E-04
      0.470000          0.825479E-04
      0.475000          0.820938E-04
      0.480000          0.817309E-04
      0.485000          0.814404E-04
      0.490000          0.812056E-04
      0.495000          0.810115E-04
      0.500000          0.808456E-04
