 I_abs(s)[cm^-1]/c[mg/ml]
       0.00000          0.148381E-01
      0.500000E-02      0.147877E-01
      0.100000E-01      0.146375E-01
      0.150000E-01      0.143905E-01
      0.200000E-01      0.140516E-01
      0.250000E-01      0.136275E-01
      0.300000E-01      0.131262E-01
      0.350000E-01      0.125572E-01
      0.400000E-01      0.119310E-01
      0.450000E-01      0.112586E-01
      0.500000E-01      0.105516E-01
      0.550000E-01      0.982152E-02
      0.600000E-01      0.907961E-02
      0.650000E-01      0.833664E-02
      0.700000E-01      0.760260E-02
      0.750000E-01      0.688648E-02
      0.800000E-01      0.619615E-02
      0.850000E-01      0.553821E-02
      0.900000E-01      0.491797E-02
      0.950000E-01      0.433939E-02
      0.100000          0.380516E-02
      0.105000          0.331676E-02
      0.110000          0.287453E-02
      0.115000          0.247784E-02
      0.120000          0.212524E-02
      0.125000          0.181459E-02
      0.130000          0.154325E-02
      0.135000          0.130822E-02
      0.140000          0.110630E-02
      0.145000          0.934218E-03
      0.150000          0.788715E-03
      0.155000          0.666676E-03
      0.160000          0.565176E-03
      0.165000          0.481526E-03
      0.170000          0.413305E-03
      0.175000          0.358364E-03
      0.180000          0.314821E-03
      0.185000          0.281040E-03
      0.190000          0.255606E-03
      0.195000          0.237292E-03
      0.200000          0.225030E-03
      0.205000          0.217873E-03
      0.210000          0.214970E-03
      0.215000          0.215547E-03
      0.220000          0.218880E-03
      0.225000          0.224295E-03
      0.230000          0.231153E-03
      0.235000          0.238857E-03
      0.240000          0.246854E-03
      0.245000          0.254642E-03
      0.250000          0.261777E-03
      0.255000          0.267886E-03
      0.260000          0.272671E-03
      0.265000          0.275917E-03
      0.270000          0.277492E-03
      0.275000          0.277349E-03
      0.280000          0.275521E-03
      0.285000          0.272112E-03
      0.290000          0.267288E-03
      0.295000          0.261263E-03
      0.300000          0.254285E-03
      0.305000          0.246621E-03
      0.310000          0.238541E-03
      0.315000          0.230304E-03
      0.320000          0.222147E-03
      0.325000          0.214273E-03
      0.330000          0.206843E-03
      0.335000          0.199976E-03
      0.340000          0.193740E-03
      0.345000          0.188159E-03
      0.350000          0.183216E-03
      0.355000          0.178855E-03
      0.360000          0.174994E-03
      0.365000          0.171527E-03
      0.370000          0.168340E-03
      0.375000          0.165311E-03
      0.380000          0.162326E-03
      0.385000          0.159283E-03
      0.390000          0.156095E-03
      0.395000          0.152698E-03
      0.400000          0.149052E-03
      0.405000          0.145141E-03
      0.410000          0.140974E-03
      0.415000          0.136579E-03
      0.420000          0.132005E-03
      0.425000          0.127316E-03
      0.430000          0.122584E-03
      0.435000          0.117888E-03
      0.440000          0.113306E-03
      0.445000          0.108912E-03
      0.450000          0.104775E-03
      0.455000          0.100951E-03
      0.460000          0.974853E-04
      0.465000          0.944069E-04
      0.470000          0.917319E-04
      0.475000          0.894621E-04
      0.480000          0.875858E-04
      0.485000          0.860805E-04
      0.490000          0.849140E-04
      0.495000          0.840473E-04
      0.500000          0.834372E-04
