 I_abs(s)[cm^-1]/c[mg/ml]
       0.00000          0.147660E-01
      0.500000E-02      0.147225E-01
      0.100000E-01      0.145927E-01
      0.150000E-01      0.143789E-01
      0.200000E-01      0.140847E-01
      0.250000E-01      0.137154E-01
      0.300000E-01      0.132770E-01
      0.350000E-01      0.127770E-01
      0.400000E-01      0.122232E-01
      0.450000E-01      0.116246E-01
      0.500000E-01      0.109901E-01
      0.550000E-01      0.103290E-01
      0.600000E-01      0.965049E-02
      0.650000E-01      0.896348E-02
      0.700000E-01      0.827643E-02
      0.750000E-01      0.759723E-02
      0.800000E-01      0.693300E-02
      0.850000E-01      0.629003E-02
      0.900000E-01      0.567369E-02
      0.950000E-01      0.508842E-02
      0.100000          0.453770E-02
      0.105000          0.402406E-02
      0.110000          0.354916E-02
      0.115000          0.311383E-02
      0.120000          0.271814E-02
      0.125000          0.236151E-02
      0.130000          0.204277E-02
      0.135000          0.176032E-02
      0.140000          0.151217E-02
      0.145000          0.129606E-02
      0.150000          0.110954E-02
      0.155000          0.950032E-03
      0.160000          0.814943E-03
      0.165000          0.701679E-03
      0.170000          0.607710E-03
      0.175000          0.530610E-03
      0.180000          0.468085E-03
      0.185000          0.417993E-03
      0.190000          0.378359E-03
      0.195000          0.347385E-03
      0.200000          0.323453E-03
      0.205000          0.305122E-03
      0.210000          0.291129E-03
      0.215000          0.280381E-03
      0.220000          0.271947E-03
      0.225000          0.265051E-03
      0.230000          0.259060E-03
      0.235000          0.253473E-03
      0.240000          0.247912E-03
      0.245000          0.242107E-03
      0.250000          0.235886E-03
      0.255000          0.229159E-03
      0.260000          0.221908E-03
      0.265000          0.214171E-03
      0.270000          0.206034E-03
      0.275000          0.197612E-03
      0.280000          0.189044E-03
      0.285000          0.180478E-03
      0.290000          0.172063E-03
      0.295000          0.163943E-03
      0.300000          0.156245E-03
      0.305000          0.149080E-03
      0.310000          0.142533E-03
      0.315000          0.136667E-03
      0.320000          0.131519E-03
      0.325000          0.127100E-03
      0.330000          0.123398E-03
      0.335000          0.120381E-03
      0.340000          0.118000E-03
      0.345000          0.116190E-03
      0.350000          0.114877E-03
      0.355000          0.113983E-03
      0.360000          0.113424E-03
      0.365000          0.113120E-03
      0.370000          0.112994E-03
      0.375000          0.112975E-03
      0.380000          0.113001E-03
      0.385000          0.113019E-03
      0.390000          0.112986E-03
      0.395000          0.112871E-03
      0.400000          0.112652E-03
      0.405000          0.112315E-03
      0.410000          0.111858E-03
      0.415000          0.111283E-03
      0.420000          0.110599E-03
      0.425000          0.109819E-03
      0.430000          0.108959E-03
      0.435000          0.108035E-03
      0.440000          0.107066E-03
      0.445000          0.106068E-03
      0.450000          0.105056E-03
      0.455000          0.104042E-03
      0.460000          0.103036E-03
      0.465000          0.102043E-03
      0.470000          0.101069E-03
      0.475000          0.100112E-03
      0.480000          0.991714E-04
      0.485000          0.982429E-04
      0.490000          0.973209E-04
      0.495000          0.963988E-04
      0.500000          0.954698E-04
