 I_abs(s)[cm^-1]/c[mg/ml]
       0.00000          0.147260E-01
      0.500000E-02      0.146547E-01
      0.100000E-01      0.144432E-01
      0.150000E-01      0.140988E-01
      0.200000E-01      0.136332E-01
      0.250000E-01      0.130615E-01
      0.300000E-01      0.124019E-01
      0.350000E-01      0.116745E-01
      0.400000E-01      0.108998E-01
      0.450000E-01      0.100983E-01
      0.500000E-01      0.928928E-02
      0.550000E-01      0.848995E-02
      0.600000E-01      0.771494E-02
      0.650000E-01      0.697590E-02
      0.700000E-01      0.628135E-02
      0.750000E-01      0.563678E-02
      0.800000E-01      0.504485E-02
      0.850000E-01      0.450579E-02
      0.900000E-01      0.401794E-02
      0.950000E-01      0.357827E-02
      0.100000          0.318286E-02
      0.105000          0.282748E-02
      0.110000          0.250790E-02
      0.115000          0.222025E-02
      0.120000          0.196121E-02
      0.125000          0.172805E-02
      0.130000          0.151867E-02
      0.135000          0.133147E-02
      0.140000          0.116526E-02
      0.145000          0.101907E-02
      0.150000          0.892000E-03
      0.155000          0.783104E-03
      0.160000          0.691276E-03
      0.165000          0.615200E-03
      0.170000          0.553346E-03
      0.175000          0.503994E-03
      0.180000          0.465302E-03
      0.185000          0.435382E-03
      0.190000          0.412398E-03
      0.195000          0.394640E-03
      0.200000          0.380602E-03
      0.205000          0.369028E-03
      0.210000          0.358935E-03
      0.215000          0.349618E-03
      0.220000          0.340625E-03
      0.225000          0.331720E-03
      0.230000          0.322835E-03
      0.235000          0.314023E-03
      0.240000          0.305400E-03
      0.245000          0.297109E-03
      0.250000          0.289286E-03
      0.255000          0.282034E-03
      0.260000          0.275419E-03
      0.265000          0.269462E-03
      0.270000          0.264147E-03
      0.275000          0.259430E-03
      0.280000          0.255247E-03
      0.285000          0.251525E-03
      0.290000          0.248186E-03
      0.295000          0.245152E-03
      0.300000          0.242348E-03
      0.305000          0.239693E-03
      0.310000          0.237105E-03
      0.315000          0.234491E-03
      0.320000          0.231755E-03
      0.325000          0.228792E-03
      0.330000          0.225494E-03
      0.335000          0.221759E-03
      0.340000          0.217497E-03
      0.345000          0.212640E-03
      0.350000          0.207148E-03
      0.355000          0.201018E-03
      0.360000          0.194286E-03
      0.365000          0.187029E-03
      0.370000          0.179358E-03
      0.375000          0.171414E-03
      0.380000          0.163357E-03
      0.385000          0.155354E-03
      0.390000          0.147566E-03
      0.395000          0.140141E-03
      0.400000          0.133199E-03
      0.405000          0.126829E-03
      0.410000          0.121083E-03
      0.415000          0.115978E-03
      0.420000          0.111501E-03
      0.425000          0.107610E-03
      0.430000          0.104248E-03
      0.435000          0.101344E-03
      0.440000          0.988291E-04
      0.445000          0.966376E-04
      0.450000          0.947155E-04
      0.455000          0.930226E-04
      0.460000          0.915331E-04
      0.465000          0.902348E-04
      0.470000          0.891251E-04
      0.475000          0.882074E-04
      0.480000          0.874856E-04
      0.485000          0.869600E-04
      0.490000          0.866233E-04
      0.495000          0.864582E-04
      0.500000          0.864360E-04
