 I_abs(s)[cm^-1]/c[mg/ml]
       0.00000          0.149507E-01
      0.500000E-02      0.148999E-01
      0.100000E-01      0.147484E-01
      0.150000E-01      0.144994E-01
      0.200000E-01      0.141578E-01
      0.250000E-01      0.137302E-01
      0.300000E-01      0.132249E-01
      0.350000E-01      0.126515E-01
      0.400000E-01      0.120205E-01
      0.450000E-01      0.113432E-01
      0.500000E-01      0.106312E-01
      0.550000E-01      0.989616E-02
      0.600000E-01      0.914947E-02
      0.650000E-01      0.840204E-02
      0.700000E-01      0.766396E-02
      0.750000E-01      0.694432E-02
      0.800000E-01      0.625108E-02
      0.850000E-01      0.559092E-02
      0.900000E-01      0.496918E-02
      0.950000E-01      0.438988E-02
      0.100000          0.385571E-02
      0.105000          0.336815E-02
      0.110000          0.292751E-02
      0.115000          0.253311E-02
      0.120000          0.218342E-02
      0.125000          0.187621E-02
      0.130000          0.160873E-02
      0.135000          0.137782E-02
      0.140000          0.118013E-02
      0.145000          0.101221E-02
      0.150000          0.870631E-03
      0.155000          0.752083E-03
      0.160000          0.653454E-03
      0.165000          0.571879E-03
      0.170000          0.504771E-03
      0.175000          0.449842E-03
      0.180000          0.405096E-03
      0.185000          0.368820E-03
      0.190000          0.339565E-03
      0.195000          0.316111E-03
      0.200000          0.297442E-03
      0.205000          0.282715E-03
      0.210000          0.271223E-03
      0.215000          0.262375E-03
      0.220000          0.255669E-03
      0.225000          0.250673E-03
      0.230000          0.247010E-03
      0.235000          0.244350E-03
      0.240000          0.242401E-03
      0.245000          0.240905E-03
      0.250000          0.239638E-03
      0.255000          0.238410E-03
      0.260000          0.237062E-03
      0.265000          0.235470E-03
      0.270000          0.233541E-03
      0.275000          0.231214E-03
      0.280000          0.228456E-03
      0.285000          0.225261E-03
      0.290000          0.221644E-03
      0.295000          0.217635E-03
      0.300000          0.213277E-03
      0.305000          0.208622E-03
      0.310000          0.203720E-03
      0.315000          0.198625E-03
      0.320000          0.193383E-03
      0.325000          0.188037E-03
      0.330000          0.182620E-03
      0.335000          0.177160E-03
      0.340000          0.171679E-03
      0.345000          0.166194E-03
      0.350000          0.160718E-03
      0.355000          0.155264E-03
      0.360000          0.149846E-03
      0.365000          0.144480E-03
      0.370000          0.139185E-03
      0.375000          0.133988E-03
      0.380000          0.128918E-03
      0.385000          0.124008E-03
      0.390000          0.119297E-03
      0.395000          0.114824E-03
      0.400000          0.110629E-03
      0.405000          0.106750E-03
      0.410000          0.103221E-03
      0.415000          0.100073E-03
      0.420000          0.973262E-04
      0.425000          0.949947E-04
      0.430000          0.930820E-04
      0.435000          0.915822E-04
      0.440000          0.904794E-04
      0.445000          0.897486E-04
      0.450000          0.893563E-04
      0.455000          0.892622E-04
      0.460000          0.894207E-04
      0.465000          0.897827E-04
      0.470000          0.902973E-04
      0.475000          0.909142E-04
      0.480000          0.915850E-04
      0.485000          0.922650E-04
      0.490000          0.929142E-04
      0.495000          0.934989E-04
      0.500000          0.939920E-04
