 I_abs(s)[cm^-1]/c[mg/ml]
       0.00000          0.145984E-01
      0.500000E-02      0.145289E-01
      0.100000E-01      0.143223E-01
      0.150000E-01      0.139845E-01
      0.200000E-01      0.135249E-01
      0.250000E-01      0.129559E-01
      0.300000E-01      0.122930E-01
      0.350000E-01      0.115533E-01
      0.400000E-01      0.107557E-01
      0.450000E-01      0.991947E-02
      0.500000E-01      0.906384E-02
      0.550000E-01      0.820729E-02
      0.600000E-01      0.736694E-02
      0.650000E-01      0.655792E-02
      0.700000E-01      0.579307E-02
      0.750000E-01      0.508259E-02
      0.800000E-01      0.443389E-02
      0.850000E-01      0.385159E-02
      0.900000E-01      0.333763E-02
      0.950000E-01      0.289148E-02
      0.100000          0.251042E-02
      0.105000          0.218999E-02
      0.110000          0.192435E-02
      0.115000          0.170672E-02
      0.120000          0.152987E-02
      0.125000          0.138645E-02
      0.130000          0.126941E-02
      0.135000          0.117226E-02
      0.140000          0.108930E-02
      0.145000          0.101579E-02
      0.150000          0.948011E-03
      0.155000          0.883256E-03
      0.160000          0.819807E-03
      0.165000          0.756813E-03
      0.170000          0.694149E-03
      0.175000          0.632255E-03
      0.180000          0.571960E-03
      0.185000          0.514309E-03
      0.190000          0.460410E-03
      0.195000          0.411294E-03
      0.200000          0.367809E-03
      0.205000          0.330547E-03
      0.210000          0.299798E-03
      0.215000          0.275539E-03
      0.220000          0.257452E-03
      0.225000          0.244957E-03
      0.230000          0.237271E-03
      0.235000          0.233469E-03
      0.240000          0.232556E-03
      0.245000          0.233533E-03
      0.250000          0.235459E-03
      0.255000          0.237501E-03
      0.260000          0.238970E-03
      0.265000          0.239351E-03
      0.270000          0.238307E-03
      0.275000          0.235679E-03
      0.280000          0.231471E-03
      0.285000          0.225826E-03
      0.290000          0.218996E-03
      0.295000          0.211308E-03
      0.300000          0.203130E-03
      0.305000          0.194842E-03
      0.310000          0.186800E-03
      0.315000          0.179318E-03
      0.320000          0.172650E-03
      0.325000          0.166974E-03
      0.330000          0.162394E-03
      0.335000          0.158937E-03
      0.340000          0.156559E-03
      0.345000          0.155157E-03
      0.350000          0.154582E-03
      0.355000          0.154652E-03
      0.360000          0.155165E-03
      0.365000          0.155917E-03
      0.370000          0.156712E-03
      0.375000          0.157373E-03
      0.380000          0.157751E-03
      0.385000          0.157728E-03
      0.390000          0.157222E-03
      0.395000          0.156188E-03
      0.400000          0.154615E-03
      0.405000          0.152522E-03
      0.410000          0.149954E-03
      0.415000          0.146979E-03
      0.420000          0.143680E-03
      0.425000          0.140146E-03
      0.430000          0.136474E-03
      0.435000          0.132758E-03
      0.440000          0.129085E-03
      0.445000          0.125534E-03
      0.450000          0.122172E-03
      0.455000          0.119053E-03
      0.460000          0.116215E-03
      0.465000          0.113681E-03
      0.470000          0.111462E-03
      0.475000          0.109554E-03
      0.480000          0.107940E-03
      0.485000          0.106595E-03
      0.490000          0.105485E-03
      0.495000          0.104570E-03
      0.500000          0.103808E-03
