 I_abs(s)[cm^-1]/c[mg/ml]
       0.00000          0.140856E-01
      0.500000E-02      0.140190E-01
      0.100000E-01      0.138211E-01
      0.150000E-01      0.134983E-01
      0.200000E-01      0.130609E-01
      0.250000E-01      0.125224E-01
      0.300000E-01      0.118988E-01
      0.350000E-01      0.112080E-01
      0.400000E-01      0.104689E-01
      0.450000E-01      0.970024E-02
      0.500000E-01      0.892018E-02
      0.550000E-01      0.814532E-02
      0.600000E-01      0.739028E-02
      0.650000E-01      0.666728E-02
      0.700000E-01      0.598591E-02
      0.750000E-01      0.535307E-02
      0.800000E-01      0.477310E-02
      0.850000E-01      0.424796E-02
      0.900000E-01      0.377757E-02
      0.950000E-01      0.336015E-02
      0.100000          0.299264E-02
      0.105000          0.267108E-02
      0.110000          0.239095E-02
      0.115000          0.214751E-02
      0.120000          0.193605E-02
      0.125000          0.175206E-02
      0.130000          0.159141E-02
      0.135000          0.145038E-02
      0.140000          0.132576E-02
      0.145000          0.121482E-02
      0.150000          0.111527E-02
      0.155000          0.102528E-02
      0.160000          0.943375E-03
      0.165000          0.868423E-03
      0.170000          0.799559E-03
      0.175000          0.736149E-03
      0.180000          0.677731E-03
      0.185000          0.623980E-03
      0.190000          0.574661E-03
      0.195000          0.529598E-03
      0.200000          0.488640E-03
      0.205000          0.451640E-03
      0.210000          0.418435E-03
      0.215000          0.388835E-03
      0.220000          0.362618E-03
      0.225000          0.339528E-03
      0.230000          0.319285E-03
      0.235000          0.301590E-03
      0.240000          0.286137E-03
      0.245000          0.272626E-03
      0.250000          0.260772E-03
      0.255000          0.250313E-03
      0.260000          0.241018E-03
      0.265000          0.232685E-03
      0.270000          0.225144E-03
      0.275000          0.218254E-03
      0.280000          0.211897E-03
      0.285000          0.205974E-03
      0.290000          0.200402E-03
      0.295000          0.195107E-03
      0.300000          0.190026E-03
      0.305000          0.185105E-03
      0.310000          0.180299E-03
      0.315000          0.175572E-03
      0.320000          0.170903E-03
      0.325000          0.166282E-03
      0.330000          0.161715E-03
      0.335000          0.157220E-03
      0.340000          0.152827E-03
      0.345000          0.148572E-03
      0.350000          0.144499E-03
      0.355000          0.140650E-03
      0.360000          0.137063E-03
      0.365000          0.133769E-03
      0.370000          0.130790E-03
      0.375000          0.128134E-03
      0.380000          0.125798E-03
      0.385000          0.123766E-03
      0.390000          0.122014E-03
      0.395000          0.120507E-03
      0.400000          0.119207E-03
      0.405000          0.118070E-03
      0.410000          0.117054E-03
      0.415000          0.116118E-03
      0.420000          0.115223E-03
      0.425000          0.114336E-03
      0.430000          0.113428E-03
      0.435000          0.112479E-03
      0.440000          0.111472E-03
      0.445000          0.110402E-03
      0.450000          0.109267E-03
      0.455000          0.108074E-03
      0.460000          0.106834E-03
      0.465000          0.105566E-03
      0.470000          0.104289E-03
      0.475000          0.103026E-03
      0.480000          0.101801E-03
      0.485000          0.100632E-03
      0.490000          0.995388E-04
      0.495000          0.985314E-04
      0.500000          0.976153E-04
