 I_abs(s)[cm^-1]/c[mg/ml]
       0.00000          0.144713E-01
      0.500000E-02      0.144249E-01
      0.100000E-01      0.142866E-01
      0.150000E-01      0.140591E-01
      0.200000E-01      0.137464E-01
      0.250000E-01      0.133546E-01
      0.300000E-01      0.128906E-01
      0.350000E-01      0.123628E-01
      0.400000E-01      0.117804E-01
      0.450000E-01      0.111533E-01
      0.500000E-01      0.104916E-01
      0.550000E-01      0.980574E-02
      0.600000E-01      0.910597E-02
      0.650000E-01      0.840210E-02
      0.700000E-01      0.770338E-02
      0.750000E-01      0.701826E-02
      0.800000E-01      0.635423E-02
      0.850000E-01      0.571778E-02
      0.900000E-01      0.511421E-02
      0.950000E-01      0.454773E-02
      0.100000          0.402135E-02
      0.105000          0.353699E-02
      0.110000          0.309554E-02
      0.115000          0.269694E-02
      0.120000          0.234032E-02
      0.125000          0.202411E-02
      0.130000          0.174615E-02
      0.135000          0.150391E-02
      0.140000          0.129454E-02
      0.145000          0.111500E-02
      0.150000          0.962239E-03
      0.155000          0.833204E-03
      0.160000          0.724972E-03
      0.165000          0.634789E-03
      0.170000          0.560120E-03
      0.175000          0.498672E-03
      0.180000          0.448403E-03
      0.185000          0.407529E-03
      0.190000          0.374505E-03
      0.195000          0.348008E-03
      0.200000          0.326917E-03
      0.205000          0.310282E-03
      0.210000          0.297300E-03
      0.215000          0.287288E-03
      0.220000          0.279661E-03
      0.225000          0.273909E-03
      0.230000          0.269588E-03
      0.235000          0.266302E-03
      0.240000          0.263699E-03
      0.245000          0.261463E-03
      0.250000          0.259319E-03
      0.255000          0.257026E-03
      0.260000          0.254383E-03
      0.265000          0.251229E-03
      0.270000          0.247446E-03
      0.275000          0.242959E-03
      0.280000          0.237735E-03
      0.285000          0.231779E-03
      0.290000          0.225138E-03
      0.295000          0.217887E-03
      0.300000          0.210130E-03
      0.305000          0.201989E-03
      0.310000          0.193600E-03
      0.315000          0.185105E-03
      0.320000          0.176642E-03
      0.325000          0.168344E-03
      0.330000          0.160330E-03
      0.335000          0.152704E-03
      0.340000          0.145546E-03
      0.345000          0.138921E-03
      0.350000          0.132868E-03
      0.355000          0.127407E-03
      0.360000          0.122541E-03
      0.365000          0.118253E-03
      0.370000          0.114516E-03
      0.375000          0.111292E-03
      0.380000          0.108534E-03
      0.385000          0.106195E-03
      0.390000          0.104222E-03
      0.395000          0.102566E-03
      0.400000          0.101179E-03
      0.405000          0.100017E-03
      0.410000          0.990411E-04
      0.415000          0.982152E-04
      0.420000          0.975091E-04
      0.425000          0.968962E-04
      0.430000          0.963536E-04
      0.435000          0.958613E-04
      0.440000          0.954017E-04
      0.445000          0.949593E-04
      0.450000          0.945197E-04
      0.455000          0.940703E-04
      0.460000          0.935996E-04
      0.465000          0.930973E-04
      0.470000          0.925550E-04
      0.475000          0.919658E-04
      0.480000          0.913252E-04
      0.485000          0.906311E-04
      0.490000          0.898839E-04
      0.495000          0.890868E-04
      0.500000          0.882458E-04
