 I_abs(s)[cm^-1]/c[mg/ml]
       0.00000          0.145427E-01
      0.500000E-02      0.144747E-01
      0.100000E-01      0.142730E-01
      0.150000E-01      0.139438E-01
      0.200000E-01      0.134977E-01
      0.250000E-01      0.129482E-01
      0.300000E-01      0.123118E-01
      0.350000E-01      0.116065E-01
      0.400000E-01      0.108515E-01
      0.450000E-01      0.100658E-01
      0.500000E-01      0.926768E-02
      0.550000E-01      0.847408E-02
      0.600000E-01      0.769970E-02
      0.650000E-01      0.695686E-02
      0.700000E-01      0.625520E-02
      0.750000E-01      0.560164E-02
      0.800000E-01      0.500052E-02
      0.850000E-01      0.445383E-02
      0.900000E-01      0.396153E-02
      0.950000E-01      0.352201E-02
      0.100000          0.313243E-02
      0.105000          0.278917E-02
      0.110000          0.248818E-02
      0.115000          0.222525E-02
      0.120000          0.199629E-02
      0.125000          0.179742E-02
      0.130000          0.162508E-02
      0.135000          0.147604E-02
      0.140000          0.134743E-02
      0.145000          0.123662E-02
      0.150000          0.114123E-02
      0.155000          0.105905E-02
      0.160000          0.987995E-03
      0.165000          0.926127E-03
      0.170000          0.871613E-03
      0.175000          0.822770E-03
      0.180000          0.778091E-03
      0.185000          0.736282E-03
      0.190000          0.696297E-03
      0.195000          0.657362E-03
      0.200000          0.618983E-03
      0.205000          0.580937E-03
      0.210000          0.543247E-03
      0.215000          0.506132E-03
      0.220000          0.469956E-03
      0.225000          0.435160E-03
      0.230000          0.402202E-03
      0.235000          0.371496E-03
      0.240000          0.343367E-03
      0.245000          0.318019E-03
      0.250000          0.295518E-03
      0.255000          0.275794E-03
      0.260000          0.258657E-03
      0.265000          0.243825E-03
      0.270000          0.230956E-03
      0.275000          0.219686E-03
      0.280000          0.209665E-03
      0.285000          0.200587E-03
      0.290000          0.192208E-03
      0.295000          0.184360E-03
      0.300000          0.176950E-03
      0.305000          0.169950E-03
      0.310000          0.163389E-03
      0.315000          0.157324E-03
      0.320000          0.151825E-03
      0.325000          0.146954E-03
      0.330000          0.142745E-03
      0.335000          0.139200E-03
      0.340000          0.136276E-03
      0.345000          0.133892E-03
      0.350000          0.131934E-03
      0.355000          0.130265E-03
      0.360000          0.128741E-03
      0.365000          0.127221E-03
      0.370000          0.125587E-03
      0.375000          0.123746E-03
      0.380000          0.121644E-03
      0.385000          0.119265E-03
      0.390000          0.116629E-03
      0.395000          0.113789E-03
      0.400000          0.110823E-03
      0.405000          0.107821E-03
      0.410000          0.104876E-03
      0.415000          0.102076E-03
      0.420000          0.994941E-04
      0.425000          0.971810E-04
      0.430000          0.951651E-04
      0.435000          0.934507E-04
      0.440000          0.920205E-04
      0.445000          0.908399E-04
      0.450000          0.898633E-04
      0.455000          0.890400E-04
      0.460000          0.883205E-04
      0.465000          0.876620E-04
      0.470000          0.870320E-04
      0.475000          0.864105E-04
      0.480000          0.857906E-04
      0.485000          0.851768E-04
      0.490000          0.845825E-04
      0.495000          0.840261E-04
      0.500000          0.835273E-04
