 I_abs(s)[cm^-1]/c[mg/ml]
       0.00000          0.147820E-01
      0.500000E-02      0.147130E-01
      0.100000E-01      0.145079E-01
      0.150000E-01      0.141726E-01
      0.200000E-01      0.137165E-01
      0.250000E-01      0.131523E-01
      0.300000E-01      0.124951E-01
      0.350000E-01      0.117623E-01
      0.400000E-01      0.109724E-01
      0.450000E-01      0.101443E-01
      0.500000E-01      0.929674E-02
      0.550000E-01      0.844765E-02
      0.600000E-01      0.761333E-02
      0.650000E-01      0.680814E-02
      0.700000E-01      0.604407E-02
      0.750000E-01      0.533052E-02
      0.800000E-01      0.467426E-02
      0.850000E-01      0.407942E-02
      0.900000E-01      0.354771E-02
      0.950000E-01      0.307867E-02
      0.100000          0.266995E-02
      0.105000          0.231780E-02
      0.110000          0.201735E-02
      0.115000          0.176310E-02
      0.120000          0.154922E-02
      0.125000          0.136993E-02
      0.130000          0.121970E-02
      0.135000          0.109349E-02
      0.140000          0.986873E-03
      0.145000          0.896092E-03
      0.150000          0.818086E-03
      0.155000          0.750445E-03
      0.160000          0.691344E-03
      0.165000          0.639447E-03
      0.170000          0.593800E-03
      0.175000          0.553733E-03
      0.180000          0.518755E-03
      0.185000          0.488476E-03
      0.190000          0.462539E-03
      0.195000          0.440582E-03
      0.200000          0.422208E-03
      0.205000          0.406981E-03
      0.210000          0.394430E-03
      0.215000          0.384066E-03
      0.220000          0.375405E-03
      0.225000          0.367985E-03
      0.230000          0.361393E-03
      0.235000          0.355277E-03
      0.240000          0.349353E-03
      0.245000          0.343413E-03
      0.250000          0.337321E-03
      0.255000          0.331003E-03
      0.260000          0.324435E-03
      0.265000          0.317633E-03
      0.270000          0.310638E-03
      0.275000          0.303499E-03
      0.280000          0.296272E-03
      0.285000          0.289004E-03
      0.290000          0.281736E-03
      0.295000          0.274496E-03
      0.300000          0.267306E-03
      0.305000          0.260182E-03
      0.310000          0.253138E-03
      0.315000          0.246190E-03
      0.320000          0.239358E-03
      0.325000          0.232668E-03
      0.330000          0.226152E-03
      0.335000          0.219845E-03
      0.340000          0.213785E-03
      0.345000          0.208005E-03
      0.350000          0.202530E-03
      0.355000          0.197375E-03
      0.360000          0.192541E-03
      0.365000          0.188010E-03
      0.370000          0.183751E-03
      0.375000          0.179716E-03
      0.380000          0.175848E-03
      0.385000          0.172080E-03
      0.390000          0.168345E-03
      0.395000          0.164579E-03
      0.400000          0.160728E-03
      0.405000          0.156752E-03
      0.410000          0.152629E-03
      0.415000          0.148357E-03
      0.420000          0.143953E-03
      0.425000          0.139454E-03
      0.430000          0.134913E-03
      0.435000          0.130394E-03
      0.440000          0.125968E-03
      0.445000          0.121706E-03
      0.450000          0.117676E-03
      0.455000          0.113934E-03
      0.460000          0.110525E-03
      0.465000          0.107476E-03
      0.470000          0.104795E-03
      0.475000          0.102474E-03
      0.480000          0.100487E-03
      0.485000          0.987932E-04
      0.490000          0.973426E-04
      0.495000          0.960780E-04
      0.500000          0.949401E-04
