 I_abs(s)[cm^-1]/c[mg/ml]
       0.00000          0.141091E-01
      0.500000E-02      0.140442E-01
      0.100000E-01      0.138513E-01
      0.150000E-01      0.135362E-01
      0.200000E-01      0.131081E-01
      0.250000E-01      0.125792E-01
      0.300000E-01      0.119642E-01
      0.350000E-01      0.112797E-01
      0.400000E-01      0.105435E-01
      0.450000E-01      0.977349E-02
      0.500000E-01      0.898740E-02
      0.550000E-01      0.820189E-02
      0.600000E-01      0.743203E-02
      0.650000E-01      0.669087E-02
      0.700000E-01      0.598917E-02
      0.750000E-01      0.533515E-02
      0.800000E-01      0.473454E-02
      0.850000E-01      0.419062E-02
      0.900000E-01      0.370444E-02
      0.950000E-01      0.327509E-02
      0.100000          0.290005E-02
      0.105000          0.257554E-02
      0.110000          0.229692E-02
      0.115000          0.205899E-02
      0.120000          0.185639E-02
      0.125000          0.168380E-02
      0.130000          0.153619E-02
      0.135000          0.140901E-02
      0.140000          0.129823E-02
      0.145000          0.120046E-02
      0.150000          0.111290E-02
      0.155000          0.103337E-02
      0.160000          0.960187E-03
      0.165000          0.892171E-03
      0.170000          0.828509E-03
      0.175000          0.768694E-03
      0.180000          0.712449E-03
      0.185000          0.659647E-03
      0.190000          0.610259E-03
      0.195000          0.564300E-03
      0.200000          0.521792E-03
      0.205000          0.482739E-03
      0.210000          0.447108E-03
      0.215000          0.414822E-03
      0.220000          0.385758E-03
      0.225000          0.359753E-03
      0.230000          0.336610E-03
      0.235000          0.316109E-03
      0.240000          0.298020E-03
      0.245000          0.282112E-03
      0.250000          0.268163E-03
      0.255000          0.255968E-03
      0.260000          0.245342E-03
      0.265000          0.236126E-03
      0.270000          0.228179E-03
      0.275000          0.221384E-03
      0.280000          0.215632E-03
      0.285000          0.210823E-03
      0.290000          0.206858E-03
      0.295000          0.203632E-03
      0.300000          0.201028E-03
      0.305000          0.198921E-03
      0.310000          0.197174E-03
      0.315000          0.195642E-03
      0.320000          0.194179E-03
      0.325000          0.192645E-03
      0.330000          0.190914E-03
      0.335000          0.188880E-03
      0.340000          0.186468E-03
      0.345000          0.183636E-03
      0.350000          0.180379E-03
      0.355000          0.176726E-03
      0.360000          0.172742E-03
      0.365000          0.168513E-03
      0.370000          0.164147E-03
      0.375000          0.159758E-03
      0.380000          0.155457E-03
      0.385000          0.151344E-03
      0.390000          0.147498E-03
      0.395000          0.143974E-03
      0.400000          0.140793E-03
      0.405000          0.137950E-03
      0.410000          0.135411E-03
      0.415000          0.133119E-03
      0.420000          0.131001E-03
      0.425000          0.128976E-03
      0.430000          0.126964E-03
      0.435000          0.124891E-03
      0.440000          0.122699E-03
      0.445000          0.120347E-03
      0.450000          0.117819E-03
      0.455000          0.115121E-03
      0.460000          0.112279E-03
      0.465000          0.109340E-03
      0.470000          0.106361E-03
      0.475000          0.103411E-03
      0.480000          0.100559E-03
      0.485000          0.978709E-04
      0.490000          0.954042E-04
      0.495000          0.932036E-04
      0.500000          0.912983E-04
