 I_abs(s)[cm^-1]/c[mg/ml]
       0.00000          0.148622E-01
      0.500000E-02      0.148011E-01
      0.100000E-01      0.146193E-01
      0.150000E-01      0.143212E-01
      0.200000E-01      0.139139E-01
      0.250000E-01      0.134070E-01
      0.300000E-01      0.128123E-01
      0.350000E-01      0.121432E-01
      0.400000E-01      0.114144E-01
      0.450000E-01      0.106412E-01
      0.500000E-01      0.983923E-02
      0.550000E-01      0.902374E-02
      0.600000E-01      0.820927E-02
      0.650000E-01      0.740917E-02
      0.700000E-01      0.663533E-02
      0.750000E-01      0.589788E-02
      0.800000E-01      0.520503E-02
      0.850000E-01      0.456301E-02
      0.900000E-01      0.397604E-02
      0.950000E-01      0.344645E-02
      0.100000          0.297477E-02
      0.105000          0.256001E-02
      0.110000          0.219979E-02
      0.115000          0.189073E-02
      0.120000          0.162860E-02
      0.125000          0.140868E-02
      0.130000          0.122597E-02
      0.135000          0.107541E-02
      0.140000          0.952104E-03
      0.145000          0.851444E-03
      0.150000          0.769237E-03
      0.155000          0.701780E-03
      0.160000          0.645895E-03
      0.165000          0.598937E-03
      0.170000          0.558771E-03
      0.175000          0.523732E-03
      0.180000          0.492566E-03
      0.185000          0.464367E-03
      0.190000          0.438511E-03
      0.195000          0.414590E-03
      0.200000          0.392353E-03
      0.205000          0.371656E-03
      0.210000          0.352420E-03
      0.215000          0.334600E-03
      0.220000          0.318165E-03
      0.225000          0.303082E-03
      0.230000          0.289313E-03
      0.235000          0.276814E-03
      0.240000          0.265533E-03
      0.245000          0.255418E-03
      0.250000          0.246422E-03
      0.255000          0.238499E-03
      0.260000          0.231614E-03
      0.265000          0.225738E-03
      0.270000          0.220845E-03
      0.275000          0.216911E-03
      0.280000          0.213908E-03
      0.285000          0.211799E-03
      0.290000          0.210535E-03
      0.295000          0.210048E-03
      0.300000          0.210250E-03
      0.305000          0.211034E-03
      0.310000          0.212273E-03
      0.315000          0.213823E-03
      0.320000          0.215529E-03
      0.325000          0.217230E-03
      0.330000          0.218764E-03
      0.335000          0.219978E-03
      0.340000          0.220730E-03
      0.345000          0.220899E-03
      0.350000          0.220390E-03
      0.355000          0.219132E-03
      0.360000          0.217090E-03
      0.365000          0.214254E-03
      0.370000          0.210649E-03
      0.375000          0.206322E-03
      0.380000          0.201350E-03
      0.385000          0.195824E-03
      0.390000          0.189853E-03
      0.395000          0.183554E-03
      0.400000          0.177049E-03
      0.405000          0.170457E-03
      0.410000          0.163894E-03
      0.415000          0.157465E-03
      0.420000          0.151262E-03
      0.425000          0.145366E-03
      0.430000          0.139838E-03
      0.435000          0.134724E-03
      0.440000          0.130056E-03
      0.445000          0.125848E-03
      0.450000          0.122100E-03
      0.455000          0.118801E-03
      0.460000          0.115929E-03
      0.465000          0.113454E-03
      0.470000          0.111339E-03
      0.475000          0.109544E-03
      0.480000          0.108026E-03
      0.485000          0.106742E-03
      0.490000          0.105648E-03
      0.495000          0.104704E-03
      0.500000          0.103872E-03
