 I_abs(s)[cm^-1]/c[mg/ml]
       0.00000          0.148863E-01
      0.500000E-02      0.148196E-01
      0.100000E-01      0.146214E-01
      0.150000E-01      0.142980E-01
      0.200000E-01      0.138593E-01
      0.250000E-01      0.133183E-01
      0.300000E-01      0.126907E-01
      0.350000E-01      0.119939E-01
      0.400000E-01      0.112464E-01
      0.450000E-01      0.104666E-01
      0.500000E-01      0.967219E-02
      0.550000E-01      0.887966E-02
      0.600000E-01      0.810342E-02
      0.650000E-01      0.735553E-02
      0.700000E-01      0.664546E-02
      0.750000E-01      0.598006E-02
      0.800000E-01      0.536357E-02
      0.850000E-01      0.479794E-02
      0.900000E-01      0.428310E-02
      0.950000E-01      0.381739E-02
      0.100000          0.339798E-02
      0.105000          0.302130E-02
      0.110000          0.268343E-02
      0.115000          0.238044E-02
      0.120000          0.210864E-02
      0.125000          0.186474E-02
      0.130000          0.164598E-02
      0.135000          0.145008E-02
      0.140000          0.127528E-02
      0.145000          0.112016E-02
      0.150000          0.983600E-03
      0.155000          0.864593E-03
      0.160000          0.762167E-03
      0.165000          0.675274E-03
      0.170000          0.602729E-03
      0.175000          0.543180E-03
      0.180000          0.495108E-03
      0.185000          0.456870E-03
      0.190000          0.426749E-03
      0.195000          0.403030E-03
      0.200000          0.384076E-03
      0.205000          0.368403E-03
      0.210000          0.354743E-03
      0.215000          0.342082E-03
      0.220000          0.329690E-03
      0.225000          0.317116E-03
      0.230000          0.304169E-03
      0.235000          0.290882E-03
      0.240000          0.277461E-03
      0.245000          0.264227E-03
      0.250000          0.251556E-03
      0.255000          0.239826E-03
      0.260000          0.229367E-03
      0.265000          0.220429E-03
      0.270000          0.213157E-03
      0.275000          0.207580E-03
      0.280000          0.203618E-03
      0.285000          0.201096E-03
      0.290000          0.199759E-03
      0.295000          0.199307E-03
      0.300000          0.199419E-03
      0.305000          0.199779E-03
      0.310000          0.200103E-03
      0.315000          0.200152E-03
      0.320000          0.199750E-03
      0.325000          0.198784E-03
      0.330000          0.197204E-03
      0.335000          0.195019E-03
      0.340000          0.192283E-03
      0.345000          0.189085E-03
      0.350000          0.185531E-03
      0.355000          0.181737E-03
      0.360000          0.177808E-03
      0.365000          0.173836E-03
      0.370000          0.169891E-03
      0.375000          0.166019E-03
      0.380000          0.162239E-03
      0.385000          0.158549E-03
      0.390000          0.154932E-03
      0.395000          0.151359E-03
      0.400000          0.147796E-03
      0.405000          0.144213E-03
      0.410000          0.140589E-03
      0.415000          0.136913E-03
      0.420000          0.133191E-03
      0.425000          0.129444E-03
      0.430000          0.125707E-03
      0.435000          0.122029E-03
      0.440000          0.118464E-03
      0.445000          0.115074E-03
      0.450000          0.111915E-03
      0.455000          0.109041E-03
      0.460000          0.106495E-03
      0.465000          0.104307E-03
      0.470000          0.102489E-03
      0.475000          0.101041E-03
      0.480000          0.999414E-04
      0.485000          0.991573E-04
      0.490000          0.986408E-04
      0.495000          0.983347E-04
      0.500000          0.981752E-04
