 I_abs(s)[cm^-1]/c[mg/ml]
       0.00000          0.146701E-01
      0.500000E-02      0.146080E-01
      0.100000E-01      0.144231E-01
      0.150000E-01      0.141199E-01
      0.200000E-01      0.137053E-01
      0.250000E-01      0.131890E-01
      0.300000E-01      0.125828E-01
      0.350000E-01      0.119001E-01
      0.400000E-01      0.111556E-01
      0.450000E-01      0.103650E-01
      0.500000E-01      0.954420E-02
      0.550000E-01      0.870881E-02
      0.600000E-01      0.787393E-02
      0.650000E-01      0.705355E-02
      0.700000E-01      0.626028E-02
      0.750000E-01      0.550500E-02
      0.800000E-01      0.479672E-02
      0.850000E-01      0.414244E-02
      0.900000E-01      0.354709E-02
      0.950000E-01      0.301360E-02
      0.100000          0.254299E-02
      0.105000          0.213454E-02
      0.110000          0.178603E-02
      0.115000          0.149398E-02
      0.120000          0.125388E-02
      0.125000          0.106055E-02
      0.130000          0.908335E-03
      0.135000          0.791411E-03
      0.140000          0.703987E-03
      0.145000          0.640515E-03
      0.150000          0.595843E-03
      0.155000          0.565335E-03
      0.160000          0.544952E-03
      0.165000          0.531292E-03
      0.170000          0.521596E-03
      0.175000          0.513730E-03
      0.180000          0.506132E-03
      0.185000          0.497758E-03
      0.190000          0.487999E-03
      0.195000          0.476604E-03
      0.200000          0.463598E-03
      0.205000          0.449206E-03
      0.210000          0.433777E-03
      0.215000          0.417731E-03
      0.220000          0.401500E-03
      0.225000          0.385496E-03
      0.230000          0.370080E-03
      0.235000          0.355546E-03
      0.240000          0.342111E-03
      0.245000          0.329914E-03
      0.250000          0.319023E-03
      0.255000          0.309441E-03
      0.260000          0.301117E-03
      0.265000          0.293958E-03
      0.270000          0.287841E-03
      0.275000          0.282623E-03
      0.280000          0.278149E-03
      0.285000          0.274262E-03
      0.290000          0.270806E-03
      0.295000          0.267631E-03
      0.300000          0.264597E-03
      0.305000          0.261575E-03
      0.310000          0.258446E-03
      0.315000          0.255107E-03
      0.320000          0.251465E-03
      0.325000          0.247444E-03
      0.330000          0.242981E-03
      0.335000          0.238030E-03
      0.340000          0.232562E-03
      0.345000          0.226566E-03
      0.350000          0.220050E-03
      0.355000          0.213038E-03
      0.360000          0.205577E-03
      0.365000          0.197730E-03
      0.370000          0.189577E-03
      0.375000          0.181212E-03
      0.380000          0.172740E-03
      0.385000          0.164277E-03
      0.390000          0.155942E-03
      0.395000          0.147853E-03
      0.400000          0.140126E-03
      0.405000          0.132870E-03
      0.410000          0.126181E-03
      0.415000          0.120140E-03
      0.420000          0.114811E-03
      0.425000          0.110239E-03
      0.430000          0.106448E-03
      0.435000          0.103440E-03
      0.440000          0.101197E-03
      0.445000          0.996812E-04
      0.450000          0.988385E-04
      0.455000          0.985986E-04
      0.460000          0.988792E-04
      0.465000          0.995894E-04
      0.470000          0.100633E-03
      0.475000          0.101910E-03
      0.480000          0.103325E-03
      0.485000          0.104783E-03
      0.490000          0.106198E-03
      0.495000          0.107492E-03
      0.500000          0.108597E-03
