 I_abs(s)[cm^-1]/c[mg/ml]
       0.00000          0.142896E-01
      0.500000E-02      0.142337E-01
      0.100000E-01      0.140672E-01
      0.150000E-01      0.137944E-01
      0.200000E-01      0.134220E-01
      0.250000E-01      0.129591E-01
      0.300000E-01      0.124168E-01
      0.350000E-01      0.118075E-01
      0.400000E-01      0.111450E-01
      0.450000E-01      0.104432E-01
      0.500000E-01      0.971648E-02
      0.550000E-01      0.897846E-02
      0.600000E-01      0.824204E-02
      0.650000E-01      0.751889E-02
      0.700000E-01      0.681920E-02
      0.750000E-01      0.615145E-02
      0.800000E-01      0.552233E-02
      0.850000E-01      0.493673E-02
      0.900000E-01      0.439778E-02
      0.950000E-01      0.390698E-02
      0.100000          0.346437E-02
      0.105000          0.306875E-02
      0.110000          0.271793E-02
      0.115000          0.240897E-02
      0.120000          0.213842E-02
      0.125000          0.190255E-02
      0.130000          0.169752E-02
      0.135000          0.151957E-02
      0.140000          0.136517E-02
      0.145000          0.123104E-02
      0.150000          0.111429E-02
      0.155000          0.101237E-02
      0.160000          0.923129E-03
      0.165000          0.844756E-03
      0.170000          0.775757E-03
      0.175000          0.714908E-03
      0.180000          0.661205E-03
      0.185000          0.613815E-03
      0.190000          0.572033E-03
      0.195000          0.535243E-03
      0.200000          0.502886E-03
      0.205000          0.474443E-03
      0.210000          0.449417E-03
      0.215000          0.427326E-03
      0.220000          0.407707E-03
      0.225000          0.390113E-03
      0.230000          0.374124E-03
      0.235000          0.359354E-03
      0.240000          0.345458E-03
      0.245000          0.332141E-03
      0.250000          0.319163E-03
      0.255000          0.306342E-03
      0.260000          0.293556E-03
      0.265000          0.280741E-03
      0.270000          0.267886E-03
      0.275000          0.255030E-03
      0.280000          0.242252E-03
      0.285000          0.229661E-03
      0.290000          0.217387E-03
      0.295000          0.205573E-03
      0.300000          0.194361E-03
      0.305000          0.183885E-03
      0.310000          0.174262E-03
      0.315000          0.165587E-03
      0.320000          0.157925E-03
      0.325000          0.151309E-03
      0.330000          0.145741E-03
      0.335000          0.141189E-03
      0.340000          0.137592E-03
      0.345000          0.134861E-03
      0.350000          0.132889E-03
      0.355000          0.131551E-03
      0.360000          0.130712E-03
      0.365000          0.130236E-03
      0.370000          0.129989E-03
      0.375000          0.129844E-03
      0.380000          0.129688E-03
      0.385000          0.129424E-03
      0.390000          0.128972E-03
      0.395000          0.128274E-03
      0.400000          0.127292E-03
      0.405000          0.126006E-03
      0.410000          0.124415E-03
      0.415000          0.122535E-03
      0.420000          0.120393E-03
      0.425000          0.118030E-03
      0.430000          0.115493E-03
      0.435000          0.112833E-03
      0.440000          0.110104E-03
      0.445000          0.107361E-03
      0.450000          0.104656E-03
      0.455000          0.102035E-03
      0.460000          0.995416E-04
      0.465000          0.972114E-04
      0.470000          0.950733E-04
      0.475000          0.931490E-04
      0.480000          0.914528E-04
      0.485000          0.899918E-04
      0.490000          0.887667E-04
      0.495000          0.877717E-04
      0.500000          0.869957E-04
