 I_abs(s)[cm^-1]/c[mg/ml]
       0.00000          0.149024E-01
      0.500000E-02      0.148400E-01
      0.100000E-01      0.146543E-01
      0.150000E-01      0.143498E-01
      0.200000E-01      0.139342E-01
      0.250000E-01      0.134174E-01
      0.300000E-01      0.128116E-01
      0.350000E-01      0.121309E-01
      0.400000E-01      0.113903E-01
      0.450000E-01      0.106058E-01
      0.500000E-01      0.979337E-02
      0.550000E-01      0.896855E-02
      0.600000E-01      0.814610E-02
      0.650000E-01      0.733950E-02
      0.700000E-01      0.656062E-02
      0.750000E-01      0.581950E-02
      0.800000E-01      0.512418E-02
      0.850000E-01      0.448067E-02
      0.900000E-01      0.389296E-02
      0.950000E-01      0.336313E-02
      0.100000          0.289151E-02
      0.105000          0.247695E-02
      0.110000          0.211698E-02
      0.115000          0.180817E-02
      0.120000          0.154635E-02
      0.125000          0.132690E-02
      0.130000          0.114494E-02
      0.135000          0.995616E-03
      0.140000          0.874196E-03
      0.145000          0.776254E-03
      0.150000          0.697748E-03
      0.155000          0.635082E-03
      0.160000          0.585132E-03
      0.165000          0.545244E-03
      0.170000          0.513215E-03
      0.175000          0.487249E-03
      0.180000          0.465913E-03
      0.185000          0.448078E-03
      0.190000          0.432869E-03
      0.195000          0.419612E-03
      0.200000          0.407786E-03
      0.205000          0.396991E-03
      0.210000          0.386913E-03
      0.215000          0.377300E-03
      0.220000          0.367953E-03
      0.225000          0.358710E-03
      0.230000          0.349443E-03
      0.235000          0.340057E-03
      0.240000          0.330491E-03
      0.245000          0.320714E-03
      0.250000          0.310730E-03
      0.255000          0.300573E-03
      0.260000          0.290306E-03
      0.265000          0.280019E-03
      0.270000          0.269818E-03
      0.275000          0.259824E-03
      0.280000          0.250160E-03
      0.285000          0.240947E-03
      0.290000          0.232295E-03
      0.295000          0.224297E-03
      0.300000          0.217019E-03
      0.305000          0.210503E-03
      0.310000          0.204761E-03
      0.315000          0.199774E-03
      0.320000          0.195496E-03
      0.325000          0.191856E-03
      0.330000          0.188763E-03
      0.335000          0.186110E-03
      0.340000          0.183783E-03
      0.345000          0.181668E-03
      0.350000          0.179651E-03
      0.355000          0.177633E-03
      0.360000          0.175526E-03
      0.365000          0.173262E-03
      0.370000          0.170792E-03
      0.375000          0.168090E-03
      0.380000          0.165150E-03
      0.385000          0.161984E-03
      0.390000          0.158620E-03
      0.395000          0.155100E-03
      0.400000          0.151474E-03
      0.405000          0.147797E-03
      0.410000          0.144125E-03
      0.415000          0.140512E-03
      0.420000          0.137003E-03
      0.425000          0.133637E-03
      0.430000          0.130445E-03
      0.435000          0.127442E-03
      0.440000          0.124636E-03
      0.445000          0.122025E-03
      0.450000          0.119596E-03
      0.455000          0.117329E-03
      0.460000          0.115200E-03
      0.465000          0.113181E-03
      0.470000          0.111243E-03
      0.475000          0.109358E-03
      0.480000          0.107501E-03
      0.485000          0.105651E-03
      0.490000          0.103792E-03
      0.495000          0.101914E-03
      0.500000          0.100013E-03
