 I_abs(s)[cm^-1]/c[mg/ml]
       0.00000          0.146861E-01
      0.500000E-02      0.146389E-01
      0.100000E-01      0.144981E-01
      0.150000E-01      0.142663E-01
      0.200000E-01      0.139478E-01
      0.250000E-01      0.135484E-01
      0.300000E-01      0.130751E-01
      0.350000E-01      0.125364E-01
      0.400000E-01      0.119414E-01
      0.450000E-01      0.113002E-01
      0.500000E-01      0.106231E-01
      0.550000E-01      0.992063E-02
      0.600000E-01      0.920327E-02
      0.650000E-01      0.848116E-02
      0.700000E-01      0.776387E-02
      0.750000E-01      0.706020E-02
      0.800000E-01      0.637808E-02
      0.850000E-01      0.572435E-02
      0.900000E-01      0.510475E-02
      0.950000E-01      0.452384E-02
      0.100000          0.398497E-02
      0.105000          0.349035E-02
      0.110000          0.304106E-02
      0.115000          0.263717E-02
      0.120000          0.227783E-02
      0.125000          0.196140E-02
      0.130000          0.168560E-02
      0.135000          0.144761E-02
      0.140000          0.124427E-02
      0.145000          0.107216E-02
      0.150000          0.927772E-03
      0.155000          0.807594E-03
      0.160000          0.708228E-03
      0.165000          0.626462E-03
      0.170000          0.559335E-03
      0.175000          0.504184E-03
      0.180000          0.458670E-03
      0.185000          0.420790E-03
      0.190000          0.388873E-03
      0.195000          0.361566E-03
      0.200000          0.337811E-03
      0.205000          0.316808E-03
      0.210000          0.297982E-03
      0.215000          0.280946E-03
      0.220000          0.265457E-03
      0.225000          0.251383E-03
      0.230000          0.238665E-03
      0.235000          0.227291E-03
      0.240000          0.217266E-03
      0.245000          0.208597E-03
      0.250000          0.201272E-03
      0.255000          0.195258E-03
      0.260000          0.190489E-03
      0.265000          0.186869E-03
      0.270000          0.184273E-03
      0.275000          0.182550E-03
      0.280000          0.181533E-03
      0.285000          0.181044E-03
      0.290000          0.180902E-03
      0.295000          0.180930E-03
      0.300000          0.180963E-03
      0.305000          0.180855E-03
      0.310000          0.180479E-03
      0.315000          0.179734E-03
      0.320000          0.178545E-03
      0.325000          0.176866E-03
      0.330000          0.174674E-03
      0.335000          0.171972E-03
      0.340000          0.168784E-03
      0.345000          0.165153E-03
      0.350000          0.161135E-03
      0.355000          0.156799E-03
      0.360000          0.152220E-03
      0.365000          0.147475E-03
      0.370000          0.142645E-03
      0.375000          0.137806E-03
      0.380000          0.133029E-03
      0.385000          0.128378E-03
      0.390000          0.123911E-03
      0.395000          0.119675E-03
      0.400000          0.115707E-03
      0.405000          0.112036E-03
      0.410000          0.108680E-03
      0.415000          0.105649E-03
      0.420000          0.102944E-03
      0.425000          0.100560E-03
      0.430000          0.984828E-04
      0.435000          0.966966E-04
      0.440000          0.951789E-04
      0.445000          0.939047E-04
      0.450000          0.928465E-04
      0.455000          0.919756E-04
      0.460000          0.912627E-04
      0.465000          0.906785E-04
      0.470000          0.901948E-04
      0.475000          0.897849E-04
      0.480000          0.894238E-04
      0.485000          0.890889E-04
      0.490000          0.887606E-04
      0.495000          0.884221E-04
      0.500000          0.880598E-04
