 I_abs(s)[cm^-1]/c[mg/ml]
       0.00000          0.142503E-01
      0.500000E-02      0.141989E-01
      0.100000E-01      0.140458E-01
      0.150000E-01      0.137946E-01
      0.200000E-01      0.134510E-01
      0.250000E-01      0.130228E-01
      0.300000E-01      0.125195E-01
      0.350000E-01      0.119520E-01
      0.400000E-01      0.113320E-01
      0.450000E-01      0.106721E-01
      0.500000E-01      0.998481E-02
      0.550000E-01      0.928259E-02
      0.600000E-01      0.857725E-02
      0.650000E-01      0.787969E-02
      0.700000E-01      0.719965E-02
      0.750000E-01      0.654551E-02
      0.800000E-01      0.592412E-02
      0.850000E-01      0.534076E-02
      0.900000E-01      0.479915E-02
      0.950000E-01      0.430149E-02
      0.100000          0.384858E-02
      0.105000          0.344000E-02
      0.110000          0.307426E-02
      0.115000          0.274903E-02
      0.120000          0.246137E-02
      0.125000          0.220788E-02
      0.130000          0.198497E-02
      0.135000          0.178898E-02
      0.140000          0.161636E-02
      0.145000          0.146377E-02
      0.150000          0.132818E-02
      0.155000          0.120693E-02
      0.160000          0.109774E-02
      0.165000          0.998727E-03
      0.170000          0.908398E-03
      0.175000          0.825589E-03
      0.180000          0.749438E-03
      0.185000          0.679326E-03
      0.190000          0.614826E-03
      0.195000          0.555652E-03
      0.200000          0.501604E-03
      0.205000          0.452537E-03
      0.210000          0.408316E-03
      0.215000          0.368800E-03
      0.220000          0.333821E-03
      0.225000          0.303173E-03
      0.230000          0.276610E-03
      0.235000          0.253848E-03
      0.240000          0.234570E-03
      0.245000          0.218435E-03
      0.250000          0.205086E-03
      0.255000          0.194161E-03
      0.260000          0.185303E-03
      0.265000          0.178167E-03
      0.270000          0.172429E-03
      0.275000          0.167791E-03
      0.280000          0.163985E-03
      0.285000          0.160777E-03
      0.290000          0.157966E-03
      0.295000          0.155388E-03
      0.300000          0.152913E-03
      0.305000          0.150442E-03
      0.310000          0.147910E-03
      0.315000          0.145277E-03
      0.320000          0.142528E-03
      0.325000          0.139668E-03
      0.330000          0.136720E-03
      0.335000          0.133717E-03
      0.340000          0.130700E-03
      0.345000          0.127715E-03
      0.350000          0.124807E-03
      0.355000          0.122016E-03
      0.360000          0.119377E-03
      0.365000          0.116915E-03
      0.370000          0.114643E-03
      0.375000          0.112566E-03
      0.380000          0.110677E-03
      0.385000          0.108958E-03
      0.390000          0.107384E-03
      0.395000          0.105924E-03
      0.400000          0.104544E-03
      0.405000          0.103208E-03
      0.410000          0.101885E-03
      0.415000          0.100546E-03
      0.420000          0.991698E-04
      0.425000          0.977423E-04
      0.430000          0.962589E-04
      0.435000          0.947235E-04
      0.440000          0.931480E-04
      0.445000          0.915516E-04
      0.450000          0.899585E-04
      0.455000          0.883963E-04
      0.460000          0.868937E-04
      0.465000          0.854784E-04
      0.470000          0.841748E-04
      0.475000          0.830029E-04
      0.480000          0.819765E-04
      0.485000          0.811026E-04
      0.490000          0.803813E-04
      0.495000          0.798060E-04
      0.500000          0.793639E-04
