 I_abs(s)[cm^-1]/c[mg/ml]
       0.00000          0.148542E-01
      0.500000E-02      0.148036E-01
      0.100000E-01      0.146528E-01
      0.150000E-01      0.144047E-01
      0.200000E-01      0.140640E-01
      0.250000E-01      0.136370E-01
      0.300000E-01      0.131318E-01
      0.350000E-01      0.125575E-01
      0.400000E-01      0.119242E-01
      0.450000E-01      0.112431E-01
      0.500000E-01      0.105255E-01
      0.550000E-01      0.978300E-02
      0.600000E-01      0.902702E-02
      0.650000E-01      0.826861E-02
      0.700000E-01      0.751816E-02
      0.750000E-01      0.678518E-02
      0.800000E-01      0.607813E-02
      0.850000E-01      0.540429E-02
      0.900000E-01      0.476964E-02
      0.950000E-01      0.417887E-02
      0.100000          0.363530E-02
      0.105000          0.314096E-02
      0.110000          0.269668E-02
      0.115000          0.230212E-02
      0.120000          0.195598E-02
      0.125000          0.165609E-02
      0.130000          0.139960E-02
      0.135000          0.118312E-02
      0.140000          0.100288E-02
      0.145000          0.854925E-03
      0.150000          0.735199E-03
      0.155000          0.639714E-03
      0.160000          0.564639E-03
      0.165000          0.506397E-03
      0.170000          0.461726E-03
      0.175000          0.427729E-03
      0.180000          0.401895E-03
      0.185000          0.382109E-03
      0.190000          0.366643E-03
      0.195000          0.354134E-03
      0.200000          0.343549E-03
      0.205000          0.334149E-03
      0.210000          0.325439E-03
      0.215000          0.317129E-03
      0.220000          0.309082E-03
      0.225000          0.301271E-03
      0.230000          0.293746E-03
      0.235000          0.286593E-03
      0.240000          0.279912E-03
      0.245000          0.273791E-03
      0.250000          0.268296E-03
      0.255000          0.263456E-03
      0.260000          0.259265E-03
      0.265000          0.255678E-03
      0.270000          0.252617E-03
      0.275000          0.249976E-03
      0.280000          0.247631E-03
      0.285000          0.245448E-03
      0.290000          0.243292E-03
      0.295000          0.241034E-03
      0.300000          0.238561E-03
      0.305000          0.235777E-03
      0.310000          0.232612E-03
      0.315000          0.229021E-03
      0.320000          0.224985E-03
      0.325000          0.220509E-03
      0.330000          0.215622E-03
      0.335000          0.210374E-03
      0.340000          0.204827E-03
      0.345000          0.199055E-03
      0.350000          0.193141E-03
      0.355000          0.187165E-03
      0.360000          0.181208E-03
      0.365000          0.175344E-03
      0.370000          0.169638E-03
      0.375000          0.164144E-03
      0.380000          0.158906E-03
      0.385000          0.153952E-03
      0.390000          0.149299E-03
      0.395000          0.144954E-03
      0.400000          0.140910E-03
      0.405000          0.137155E-03
      0.410000          0.133667E-03
      0.415000          0.130421E-03
      0.420000          0.127389E-03
      0.425000          0.124543E-03
      0.430000          0.121856E-03
      0.435000          0.119301E-03
      0.440000          0.116859E-03
      0.445000          0.114511E-03
      0.450000          0.112245E-03
      0.455000          0.110055E-03
      0.460000          0.107937E-03
      0.465000          0.105893E-03
      0.470000          0.103926E-03
      0.475000          0.102044E-03
      0.480000          0.100255E-03
      0.485000          0.985651E-04
      0.490000          0.969832E-04
      0.495000          0.955144E-04
      0.500000          0.941618E-04
