 I_abs(s)[cm^-1]/c[mg/ml]
       0.00000          0.146382E-01
      0.500000E-02      0.145949E-01
      0.100000E-01      0.144658E-01
      0.150000E-01      0.142532E-01
      0.200000E-01      0.139607E-01
      0.250000E-01      0.135933E-01
      0.300000E-01      0.131573E-01
      0.350000E-01      0.126599E-01
      0.400000E-01      0.121091E-01
      0.450000E-01      0.115137E-01
      0.500000E-01      0.108828E-01
      0.550000E-01      0.102255E-01
      0.600000E-01      0.955122E-02
      0.650000E-01      0.886889E-02
      0.700000E-01      0.818708E-02
      0.750000E-01      0.751375E-02
      0.800000E-01      0.685611E-02
      0.850000E-01      0.622053E-02
      0.900000E-01      0.561245E-02
      0.950000E-01      0.503631E-02
      0.100000          0.449558E-02
      0.105000          0.399274E-02
      0.110000          0.352932E-02
      0.115000          0.310598E-02
      0.120000          0.272259E-02
      0.125000          0.237830E-02
      0.130000          0.207167E-02
      0.135000          0.180080E-02
      0.140000          0.156337E-02
      0.145000          0.135683E-02
      0.150000          0.117844E-02
      0.155000          0.102540E-02
      0.160000          0.894918E-03
      0.165000          0.784274E-03
      0.170000          0.690882E-03
      0.175000          0.612329E-03
      0.180000          0.546407E-03
      0.185000          0.491131E-03
      0.190000          0.444744E-03
      0.195000          0.405720E-03
      0.200000          0.372749E-03
      0.205000          0.344730E-03
      0.210000          0.320745E-03
      0.215000          0.300047E-03
      0.220000          0.282030E-03
      0.225000          0.266214E-03
      0.230000          0.252217E-03
      0.235000          0.239746E-03
      0.240000          0.228569E-03
      0.245000          0.218510E-03
      0.250000          0.209427E-03
      0.255000          0.201212E-03
      0.260000          0.193775E-03
      0.265000          0.187042E-03
      0.270000          0.180949E-03
      0.275000          0.175441E-03
      0.280000          0.170465E-03
      0.285000          0.165974E-03
      0.290000          0.161922E-03
      0.295000          0.158266E-03
      0.300000          0.154964E-03
      0.305000          0.151975E-03
      0.310000          0.149258E-03
      0.315000          0.146776E-03
      0.320000          0.144489E-03
      0.325000          0.142360E-03
      0.330000          0.140354E-03
      0.335000          0.138436E-03
      0.340000          0.136573E-03
      0.345000          0.134735E-03
      0.350000          0.132893E-03
      0.355000          0.131024E-03
      0.360000          0.129107E-03
      0.365000          0.127127E-03
      0.370000          0.125073E-03
      0.375000          0.122940E-03
      0.380000          0.120729E-03
      0.385000          0.118446E-03
      0.390000          0.116104E-03
      0.395000          0.113717E-03
      0.400000          0.111309E-03
      0.405000          0.108904E-03
      0.410000          0.106530E-03
      0.415000          0.104215E-03
      0.420000          0.101991E-03
      0.425000          0.998874E-04
      0.430000          0.979314E-04
      0.435000          0.961487E-04
      0.440000          0.945613E-04
      0.445000          0.931867E-04
      0.450000          0.920378E-04
      0.455000          0.911218E-04
      0.460000          0.904406E-04
      0.465000          0.899903E-04
      0.470000          0.897617E-04
      0.475000          0.897403E-04
      0.480000          0.899072E-04
      0.485000          0.902392E-04
      0.490000          0.907098E-04
      0.495000          0.912899E-04
      0.500000          0.919488E-04
