 I_abs(s)[cm^-1]/c[mg/ml]
       0.00000          0.145745E-01
      0.500000E-02      0.145298E-01
      0.100000E-01      0.143963E-01
      0.150000E-01      0.141765E-01
      0.200000E-01      0.138746E-01
      0.250000E-01      0.134960E-01
      0.300000E-01      0.130476E-01
      0.350000E-01      0.125372E-01
      0.400000E-01      0.119735E-01
      0.450000E-01      0.113661E-01
      0.500000E-01      0.107246E-01
      0.550000E-01      0.100589E-01
      0.600000E-01      0.937877E-02
      0.650000E-01      0.869366E-02
      0.700000E-01      0.801237E-02
      0.750000E-01      0.734301E-02
      0.800000E-01      0.669276E-02
      0.850000E-01      0.606786E-02
      0.900000E-01      0.547343E-02
      0.950000E-01      0.491355E-02
      0.100000          0.439118E-02
      0.105000          0.390823E-02
      0.110000          0.346562E-02
      0.115000          0.306340E-02
      0.120000          0.270081E-02
      0.125000          0.237644E-02
      0.130000          0.208832E-02
      0.135000          0.183411E-02
      0.140000          0.161115E-02
      0.145000          0.141663E-02
      0.150000          0.124768E-02
      0.155000          0.110146E-02
      0.160000          0.975225E-03
      0.165000          0.866406E-03
      0.170000          0.772634E-03
      0.175000          0.691777E-03
      0.180000          0.621949E-03
      0.185000          0.561508E-03
      0.190000          0.509054E-03
      0.195000          0.463403E-03
      0.200000          0.423571E-03
      0.205000          0.388745E-03
      0.210000          0.358256E-03
      0.215000          0.331551E-03
      0.220000          0.308172E-03
      0.225000          0.287730E-03
      0.230000          0.269888E-03
      0.235000          0.254346E-03
      0.240000          0.240830E-03
      0.245000          0.229083E-03
      0.250000          0.218864E-03
      0.255000          0.209941E-03
      0.260000          0.202095E-03
      0.265000          0.195123E-03
      0.270000          0.188833E-03
      0.275000          0.183056E-03
      0.280000          0.177640E-03
      0.285000          0.172459E-03
      0.290000          0.167407E-03
      0.295000          0.162406E-03
      0.300000          0.157399E-03
      0.305000          0.152351E-03
      0.310000          0.147251E-03
      0.315000          0.142102E-03
      0.320000          0.136923E-03
      0.325000          0.131746E-03
      0.330000          0.126610E-03
      0.335000          0.121561E-03
      0.340000          0.116648E-03
      0.345000          0.111918E-03
      0.350000          0.107419E-03
      0.355000          0.103194E-03
      0.360000          0.992806E-04
      0.365000          0.957103E-04
      0.370000          0.925080E-04
      0.375000          0.896911E-04
      0.380000          0.872694E-04
      0.385000          0.852451E-04
      0.390000          0.836132E-04
      0.395000          0.823617E-04
      0.400000          0.814724E-04
      0.405000          0.809212E-04
      0.410000          0.806792E-04
      0.415000          0.807130E-04
      0.420000          0.809862E-04
      0.425000          0.814600E-04
      0.430000          0.820941E-04
      0.435000          0.828478E-04
      0.440000          0.836811E-04
      0.445000          0.845552E-04
      0.450000          0.854339E-04
      0.455000          0.862839E-04
      0.460000          0.870758E-04
      0.465000          0.877843E-04
      0.470000          0.883889E-04
      0.475000          0.888739E-04
      0.480000          0.892287E-04
      0.485000          0.894472E-04
      0.490000          0.895283E-04
      0.495000          0.894749E-04
      0.500000          0.892937E-04
