 I_abs(s)[cm^-1]/c[mg/ml]
       0.00000          0.142267E-01
      0.500000E-02      0.141698E-01
      0.100000E-01      0.140007E-01
      0.150000E-01      0.137239E-01
      0.200000E-01      0.133464E-01
      0.250000E-01      0.128779E-01
      0.300000E-01      0.123302E-01
      0.350000E-01      0.117165E-01
      0.400000E-01      0.110511E-01
      0.450000E-01      0.103488E-01
      0.500000E-01      0.962431E-02
      0.550000E-01      0.889181E-02
      0.600000E-01      0.816447E-02
      0.650000E-01      0.745403E-02
      0.700000E-01      0.677053E-02
      0.750000E-01      0.612215E-02
      0.800000E-01      0.551506E-02
      0.850000E-01      0.495348E-02
      0.900000E-01      0.443973E-02
      0.950000E-01      0.397443E-02
      0.100000          0.355669E-02
      0.105000          0.318443E-02
      0.110000          0.285463E-02
      0.115000          0.256361E-02
      0.120000          0.230735E-02
      0.125000          0.208173E-02
      0.130000          0.188270E-02
      0.135000          0.170652E-02
      0.140000          0.154979E-02
      0.145000          0.140962E-02
      0.150000          0.128357E-02
      0.155000          0.116970E-02
      0.160000          0.106648E-02
      0.165000          0.972764E-03
      0.170000          0.887705E-03
      0.175000          0.810657E-03
      0.180000          0.741115E-03
      0.185000          0.678642E-03
      0.190000          0.622815E-03
      0.195000          0.573187E-03
      0.200000          0.529266E-03
      0.205000          0.490504E-03
      0.210000          0.456311E-03
      0.215000          0.426064E-03
      0.220000          0.399138E-03
      0.225000          0.374926E-03
      0.230000          0.352869E-03
      0.235000          0.332476E-03
      0.240000          0.313342E-03
      0.245000          0.295159E-03
      0.250000          0.277717E-03
      0.255000          0.260898E-03
      0.260000          0.244671E-03
      0.265000          0.229069E-03
      0.270000          0.214177E-03
      0.275000          0.200107E-03
      0.280000          0.186983E-03
      0.285000          0.174918E-03
      0.290000          0.164006E-03
      0.295000          0.154306E-03
      0.300000          0.145840E-03
      0.305000          0.138586E-03
      0.310000          0.132486E-03
      0.315000          0.127445E-03
      0.320000          0.123344E-03
      0.325000          0.120043E-03
      0.330000          0.117395E-03
      0.335000          0.115254E-03
      0.340000          0.113479E-03
      0.345000          0.111948E-03
      0.350000          0.110557E-03
      0.355000          0.109224E-03
      0.360000          0.107892E-03
      0.365000          0.106527E-03
      0.370000          0.105114E-03
      0.375000          0.103658E-03
      0.380000          0.102178E-03
      0.385000          0.100699E-03
      0.390000          0.992565E-04
      0.395000          0.978846E-04
      0.400000          0.966172E-04
      0.405000          0.954836E-04
      0.410000          0.945070E-04
      0.415000          0.937033E-04
      0.420000          0.930803E-04
      0.425000          0.926378E-04
      0.430000          0.923681E-04
      0.435000          0.922570E-04
      0.440000          0.922844E-04
      0.445000          0.924265E-04
      0.450000          0.926564E-04
      0.455000          0.929459E-04
      0.460000          0.932666E-04
      0.465000          0.935911E-04
      0.470000          0.938944E-04
      0.475000          0.941542E-04
      0.480000          0.943516E-04
      0.485000          0.944720E-04
      0.490000          0.945045E-04
      0.495000          0.944428E-04
      0.500000          0.942841E-04
