 I_abs(s)[cm^-1]/c[mg/ml]
       0.00000          0.146302E-01
      0.500000E-02      0.145621E-01
      0.100000E-01      0.143601E-01
      0.150000E-01      0.140309E-01
      0.200000E-01      0.135855E-01
      0.250000E-01      0.130381E-01
      0.300000E-01      0.124058E-01
      0.350000E-01      0.117073E-01
      0.400000E-01      0.109618E-01
      0.450000E-01      0.101887E-01
      0.500000E-01      0.940594E-02
      0.550000E-01      0.862989E-02
      0.600000E-01      0.787442E-02
      0.650000E-01      0.715075E-02
      0.700000E-01      0.646728E-02
      0.750000E-01      0.582961E-02
      0.800000E-01      0.524083E-02
      0.850000E-01      0.470185E-02
      0.900000E-01      0.421178E-02
      0.950000E-01      0.376849E-02
      0.100000          0.336895E-02
      0.105000          0.300975E-02
      0.110000          0.268733E-02
      0.115000          0.239829E-02
      0.120000          0.213952E-02
      0.125000          0.190829E-02
      0.130000          0.170222E-02
      0.135000          0.151925E-02
      0.140000          0.135757E-02
      0.145000          0.121549E-02
      0.150000          0.109140E-02
      0.155000          0.983682E-03
      0.160000          0.890698E-03
      0.165000          0.810768E-03
      0.170000          0.742201E-03
      0.175000          0.683341E-03
      0.180000          0.632616E-03
      0.185000          0.588593E-03
      0.190000          0.550022E-03
      0.195000          0.515864E-03
      0.200000          0.485305E-03
      0.205000          0.457743E-03
      0.210000          0.432762E-03
      0.215000          0.410092E-03
      0.220000          0.389563E-03
      0.225000          0.371055E-03
      0.230000          0.354456E-03
      0.235000          0.339630E-03
      0.240000          0.326401E-03
      0.245000          0.314541E-03
      0.250000          0.303785E-03
      0.255000          0.293844E-03
      0.260000          0.284432E-03
      0.265000          0.275292E-03
      0.270000          0.266222E-03
      0.275000          0.257088E-03
      0.280000          0.247837E-03
      0.285000          0.238496E-03
      0.290000          0.229164E-03
      0.295000          0.219989E-03
      0.300000          0.211150E-03
      0.305000          0.202829E-03
      0.310000          0.195186E-03
      0.315000          0.188338E-03
      0.320000          0.182348E-03
      0.325000          0.177211E-03
      0.330000          0.172860E-03
      0.335000          0.169171E-03
      0.340000          0.165980E-03
      0.345000          0.163098E-03
      0.350000          0.160333E-03
      0.355000          0.157509E-03
      0.360000          0.154482E-03
      0.365000          0.151152E-03
      0.370000          0.147469E-03
      0.375000          0.143435E-03
      0.380000          0.139100E-03
      0.385000          0.134551E-03
      0.390000          0.129901E-03
      0.395000          0.125275E-03
      0.400000          0.120797E-03
      0.405000          0.116575E-03
      0.410000          0.112695E-03
      0.415000          0.109212E-03
      0.420000          0.106149E-03
      0.425000          0.103497E-03
      0.430000          0.101221E-03
      0.435000          0.992632E-04
      0.440000          0.975566E-04
      0.445000          0.960284E-04
      0.450000          0.946102E-04
      0.455000          0.932438E-04
      0.460000          0.918860E-04
      0.465000          0.905107E-04
      0.470000          0.891087E-04
      0.475000          0.876860E-04
      0.480000          0.862602E-04
      0.485000          0.848560E-04
      0.490000          0.835005E-04
      0.495000          0.822187E-04
      0.500000          0.810296E-04
