 I_abs(s)[cm^-1]/c[mg/ml]
       0.00000          0.138831E-01
      0.500000E-02      0.138160E-01
      0.100000E-01      0.136170E-01
      0.150000E-01      0.132927E-01
      0.200000E-01      0.128536E-01
      0.250000E-01      0.123138E-01
      0.300000E-01      0.116900E-01
      0.350000E-01      0.110010E-01
      0.400000E-01      0.102663E-01
      0.450000E-01      0.950557E-02
      0.500000E-01      0.873771E-02
      0.550000E-01      0.797999E-02
      0.600000E-01      0.724747E-02
      0.650000E-01      0.655254E-02
      0.700000E-01      0.590462E-02
      0.750000E-01      0.531009E-02
      0.800000E-01      0.477239E-02
      0.850000E-01      0.429225E-02
      0.900000E-01      0.386804E-02
      0.950000E-01      0.349627E-02
      0.100000          0.317207E-02
      0.105000          0.288971E-02
      0.110000          0.264309E-02
      0.115000          0.242617E-02
      0.120000          0.223330E-02
      0.125000          0.205954E-02
      0.130000          0.190076E-02
      0.135000          0.175377E-02
      0.140000          0.161625E-02
      0.145000          0.148675E-02
      0.150000          0.136445E-02
      0.155000          0.124913E-02
      0.160000          0.114088E-02
      0.165000          0.104002E-02
      0.170000          0.946902E-03
      0.175000          0.861825E-03
      0.180000          0.784926E-03
      0.185000          0.716145E-03
      0.190000          0.655205E-03
      0.195000          0.601624E-03
      0.200000          0.554754E-03
      0.205000          0.513824E-03
      0.210000          0.478000E-03
      0.215000          0.446440E-03
      0.220000          0.418342E-03
      0.225000          0.392986E-03
      0.230000          0.369760E-03
      0.235000          0.348179E-03
      0.240000          0.327886E-03
      0.245000          0.308644E-03
      0.250000          0.290323E-03
      0.255000          0.272880E-03
      0.260000          0.256332E-03
      0.265000          0.240739E-03
      0.270000          0.226177E-03
      0.275000          0.212725E-03
      0.280000          0.200448E-03
      0.285000          0.189387E-03
      0.290000          0.179557E-03
      0.295000          0.170941E-03
      0.300000          0.163494E-03
      0.305000          0.157147E-03
      0.310000          0.151808E-03
      0.315000          0.147376E-03
      0.320000          0.143737E-03
      0.325000          0.140776E-03
      0.330000          0.138383E-03
      0.335000          0.136453E-03
      0.340000          0.134889E-03
      0.345000          0.133611E-03
      0.350000          0.132549E-03
      0.355000          0.131647E-03
      0.360000          0.130863E-03
      0.365000          0.130164E-03
      0.370000          0.129527E-03
      0.375000          0.128938E-03
      0.380000          0.128384E-03
      0.385000          0.127857E-03
      0.390000          0.127347E-03
      0.395000          0.126846E-03
      0.400000          0.126340E-03
      0.405000          0.125815E-03
      0.410000          0.125253E-03
      0.415000          0.124637E-03
      0.420000          0.123949E-03
      0.425000          0.123172E-03
      0.430000          0.122293E-03
      0.435000          0.121301E-03
      0.440000          0.120191E-03
      0.445000          0.118965E-03
      0.450000          0.117626E-03
      0.455000          0.116186E-03
      0.460000          0.114656E-03
      0.465000          0.113052E-03
      0.470000          0.111387E-03
      0.475000          0.109675E-03
      0.480000          0.107928E-03
      0.485000          0.106153E-03
      0.490000          0.104354E-03
      0.495000          0.102532E-03
      0.500000          0.100688E-03
