 I_abs(s)[cm^-1]/c[mg/ml]
       0.00000          0.148783E-01
      0.500000E-02      0.148201E-01
      0.100000E-01      0.146468E-01
      0.150000E-01      0.143628E-01
      0.200000E-01      0.139750E-01
      0.250000E-01      0.134928E-01
      0.300000E-01      0.129276E-01
      0.350000E-01      0.122922E-01
      0.400000E-01      0.116007E-01
      0.450000E-01      0.108676E-01
      0.500000E-01      0.101076E-01
      0.550000E-01      0.933477E-02
      0.600000E-01      0.856240E-02
      0.650000E-01      0.780252E-02
      0.700000E-01      0.706559E-02
      0.750000E-01      0.636035E-02
      0.800000E-01      0.569366E-02
      0.850000E-01      0.507052E-02
      0.900000E-01      0.449416E-02
      0.950000E-01      0.396609E-02
      0.100000          0.348641E-02
      0.105000          0.305394E-02
      0.110000          0.266658E-02
      0.115000          0.232150E-02
      0.120000          0.201544E-02
      0.125000          0.174493E-02
      0.130000          0.150649E-02
      0.135000          0.129681E-02
      0.140000          0.111285E-02
      0.145000          0.951896E-03
      0.150000          0.811641E-03
      0.155000          0.690125E-03
      0.160000          0.585725E-03
      0.165000          0.497092E-03
      0.170000          0.423079E-03
      0.175000          0.362670E-03
      0.180000          0.314906E-03
      0.185000          0.278823E-03
      0.190000          0.253409E-03
      0.195000          0.237570E-03
      0.200000          0.230123E-03
      0.205000          0.229795E-03
      0.210000          0.235252E-03
      0.215000          0.245125E-03
      0.220000          0.258053E-03
      0.225000          0.272728E-03
      0.230000          0.287937E-03
      0.235000          0.302602E-03
      0.240000          0.315813E-03
      0.245000          0.326847E-03
      0.250000          0.335185E-03
      0.255000          0.340507E-03
      0.260000          0.342687E-03
      0.265000          0.341771E-03
      0.270000          0.337953E-03
      0.275000          0.331545E-03
      0.280000          0.322942E-03
      0.285000          0.312587E-03
      0.290000          0.300946E-03
      0.295000          0.288472E-03
      0.300000          0.275587E-03
      0.305000          0.262663E-03
      0.310000          0.250010E-03
      0.315000          0.237869E-03
      0.320000          0.226414E-03
      0.325000          0.215754E-03
      0.330000          0.205938E-03
      0.335000          0.196966E-03
      0.340000          0.188801E-03
      0.345000          0.181379E-03
      0.350000          0.174616E-03
      0.355000          0.168422E-03
      0.360000          0.162709E-03
      0.365000          0.157390E-03
      0.370000          0.152395E-03
      0.375000          0.147662E-03
      0.380000          0.143145E-03
      0.385000          0.138813E-03
      0.390000          0.134646E-03
      0.395000          0.130636E-03
      0.400000          0.126784E-03
      0.405000          0.123095E-03
      0.410000          0.119581E-03
      0.415000          0.116254E-03
      0.420000          0.113127E-03
      0.425000          0.110209E-03
      0.430000          0.107508E-03
      0.435000          0.105028E-03
      0.440000          0.102768E-03
      0.445000          0.100724E-03
      0.450000          0.988850E-04
      0.455000          0.972372E-04
      0.460000          0.957626E-04
      0.465000          0.944403E-04
      0.470000          0.932467E-04
      0.475000          0.921570E-04
      0.480000          0.911458E-04
      0.485000          0.901885E-04
      0.490000          0.892620E-04
      0.495000          0.883461E-04
      0.500000          0.874237E-04
