 I_abs(s)[cm^-1]/c[mg/ml]
       0.00000          0.147740E-01
      0.500000E-02      0.147289E-01
      0.100000E-01      0.145945E-01
      0.150000E-01      0.143732E-01
      0.200000E-01      0.140690E-01
      0.250000E-01      0.136874E-01
      0.300000E-01      0.132349E-01
      0.350000E-01      0.127194E-01
      0.400000E-01      0.121496E-01
      0.450000E-01      0.115347E-01
      0.500000E-01      0.108843E-01
      0.550000E-01      0.102083E-01
      0.600000E-01      0.951630E-02
      0.650000E-01      0.881770E-02
      0.700000E-01      0.812133E-02
      0.750000E-01      0.743533E-02
      0.800000E-01      0.676701E-02
      0.850000E-01      0.612273E-02
      0.900000E-01      0.550787E-02
      0.950000E-01      0.492674E-02
      0.100000          0.438264E-02
      0.105000          0.387784E-02
      0.110000          0.341366E-02
      0.115000          0.299057E-02
      0.120000          0.260825E-02
      0.125000          0.226570E-02
      0.130000          0.196137E-02
      0.135000          0.169327E-02
      0.140000          0.145907E-02
      0.145000          0.125619E-02
      0.150000          0.108194E-02
      0.155000          0.933553E-03
      0.160000          0.808287E-03
      0.165000          0.703469E-03
      0.170000          0.616547E-03
      0.175000          0.545119E-03
      0.180000          0.486959E-03
      0.185000          0.440027E-03
      0.190000          0.402479E-03
      0.195000          0.372665E-03
      0.200000          0.349124E-03
      0.205000          0.330574E-03
      0.210000          0.315904E-03
      0.215000          0.304164E-03
      0.220000          0.294547E-03
      0.225000          0.286382E-03
      0.230000          0.279120E-03
      0.235000          0.272323E-03
      0.240000          0.265653E-03
      0.245000          0.258859E-03
      0.250000          0.251772E-03
      0.255000          0.244289E-03
      0.260000          0.236365E-03
      0.265000          0.228006E-03
      0.270000          0.219256E-03
      0.275000          0.210190E-03
      0.280000          0.200905E-03
      0.285000          0.191510E-03
      0.290000          0.182122E-03
      0.295000          0.172859E-03
      0.300000          0.163833E-03
      0.305000          0.155147E-03
      0.310000          0.146889E-03
      0.315000          0.139137E-03
      0.320000          0.131949E-03
      0.325000          0.125369E-03
      0.330000          0.119425E-03
      0.335000          0.114130E-03
      0.340000          0.109485E-03
      0.345000          0.105477E-03
      0.350000          0.102088E-03
      0.355000          0.992873E-04
      0.360000          0.970413E-04
      0.365000          0.953104E-04
      0.370000          0.940515E-04
      0.375000          0.932193E-04
      0.380000          0.927665E-04
      0.385000          0.926450E-04
      0.390000          0.928062E-04
      0.395000          0.932012E-04
      0.400000          0.937822E-04
      0.405000          0.945020E-04
      0.410000          0.953154E-04
      0.415000          0.961792E-04
      0.420000          0.970535E-04
      0.425000          0.979018E-04
      0.430000          0.986922E-04
      0.435000          0.993977E-04
      0.440000          0.999967E-04
      0.445000          0.100474E-03
      0.450000          0.100818E-03
      0.455000          0.101027E-03
      0.460000          0.101102E-03
      0.465000          0.101048E-03
      0.470000          0.100878E-03
      0.475000          0.100604E-03
      0.480000          0.100244E-03
      0.485000          0.998156E-04
      0.490000          0.993363E-04
      0.495000          0.988236E-04
      0.500000          0.982929E-04
