 I_abs(s)[cm^-1]/c[mg/ml]
       0.00000          0.145110E-01
      0.500000E-02      0.144672E-01
      0.100000E-01      0.143365E-01
      0.150000E-01      0.141214E-01
      0.200000E-01      0.138255E-01
      0.250000E-01      0.134541E-01
      0.300000E-01      0.130135E-01
      0.350000E-01      0.125113E-01
      0.400000E-01      0.119556E-01
      0.450000E-01      0.113555E-01
      0.500000E-01      0.107203E-01
      0.550000E-01      0.100595E-01
      0.600000E-01      0.938272E-02
      0.650000E-01      0.869904E-02
      0.700000E-01      0.801728E-02
      0.750000E-01      0.734553E-02
      0.800000E-01      0.669113E-02
      0.850000E-01      0.606049E-02
      0.900000E-01      0.545904E-02
      0.950000E-01      0.489118E-02
      0.100000          0.436024E-02
      0.105000          0.386852E-02
      0.110000          0.341734E-02
      0.115000          0.300710E-02
      0.120000          0.263733E-02
      0.125000          0.230690E-02
      0.130000          0.201403E-02
      0.135000          0.175647E-02
      0.140000          0.153162E-02
      0.145000          0.133664E-02
      0.150000          0.116857E-02
      0.155000          0.102443E-02
      0.160000          0.901289E-03
      0.165000          0.796380E-03
      0.170000          0.707123E-03
      0.175000          0.631174E-03
      0.180000          0.566457E-03
      0.185000          0.511167E-03
      0.190000          0.463770E-03
      0.195000          0.422992E-03
      0.200000          0.387793E-03
      0.205000          0.357345E-03
      0.210000          0.330996E-03
      0.215000          0.308237E-03
      0.220000          0.288670E-03
      0.225000          0.271980E-03
      0.230000          0.257901E-03
      0.235000          0.246199E-03
      0.240000          0.236651E-03
      0.245000          0.229032E-03
      0.250000          0.223108E-03
      0.255000          0.218630E-03
      0.260000          0.215338E-03
      0.265000          0.212964E-03
      0.270000          0.211236E-03
      0.275000          0.209889E-03
      0.280000          0.208671E-03
      0.285000          0.207353E-03
      0.290000          0.205735E-03
      0.295000          0.203653E-03
      0.300000          0.200986E-03
      0.305000          0.197651E-03
      0.310000          0.193612E-03
      0.315000          0.188871E-03
      0.320000          0.183470E-03
      0.325000          0.177483E-03
      0.330000          0.171009E-03
      0.335000          0.164168E-03
      0.340000          0.157092E-03
      0.345000          0.149916E-03
      0.350000          0.142776E-03
      0.355000          0.135798E-03
      0.360000          0.129097E-03
      0.365000          0.122770E-03
      0.370000          0.116893E-03
      0.375000          0.111523E-03
      0.380000          0.106696E-03
      0.385000          0.102426E-03
      0.390000          0.987069E-04
      0.395000          0.955188E-04
      0.400000          0.928260E-04
      0.405000          0.905830E-04
      0.410000          0.887366E-04
      0.415000          0.872297E-04
      0.420000          0.860041E-04
      0.425000          0.850028E-04
      0.430000          0.841729E-04
      0.435000          0.834665E-04
      0.440000          0.828424E-04
      0.445000          0.822666E-04
      0.450000          0.817126E-04
      0.455000          0.811610E-04
      0.460000          0.805994E-04
      0.465000          0.800210E-04
      0.470000          0.794246E-04
      0.475000          0.788127E-04
      0.480000          0.781910E-04
      0.485000          0.775672E-04
      0.490000          0.769504E-04
      0.495000          0.763498E-04
      0.500000          0.757748E-04
