 I_abs(s)[cm^-1]/c[mg/ml]
       0.00000          0.146143E-01
      0.500000E-02      0.145661E-01
      0.100000E-01      0.144222E-01
      0.150000E-01      0.141856E-01
      0.200000E-01      0.138607E-01
      0.250000E-01      0.134537E-01
      0.300000E-01      0.129722E-01
      0.350000E-01      0.124249E-01
      0.400000E-01      0.118216E-01
      0.450000E-01      0.111728E-01
      0.500000E-01      0.104894E-01
      0.550000E-01      0.978223E-02
      0.600000E-01      0.906221E-02
      0.650000E-01      0.833971E-02
      0.700000E-01      0.762445E-02
      0.750000E-01      0.692529E-02
      0.800000E-01      0.625008E-02
      0.850000E-01      0.560552E-02
      0.900000E-01      0.499707E-02
      0.950000E-01      0.442895E-02
      0.100000          0.390412E-02
      0.105000          0.342434E-02
      0.110000          0.299023E-02
      0.115000          0.260140E-02
      0.120000          0.225658E-02
      0.125000          0.195374E-02
      0.130000          0.169027E-02
      0.135000          0.146310E-02
      0.140000          0.126890E-02
      0.145000          0.110417E-02
      0.150000          0.965397E-03
      0.155000          0.849142E-03
      0.160000          0.752150E-03
      0.165000          0.671410E-03
      0.170000          0.604200E-03
      0.175000          0.548122E-03
      0.180000          0.501111E-03
      0.185000          0.461430E-03
      0.190000          0.427656E-03
      0.195000          0.398649E-03
      0.200000          0.373516E-03
      0.205000          0.351582E-03
      0.210000          0.332339E-03
      0.215000          0.315416E-03
      0.220000          0.300538E-03
      0.225000          0.287497E-03
      0.230000          0.276124E-03
      0.235000          0.266270E-03
      0.240000          0.257792E-03
      0.245000          0.250541E-03
      0.250000          0.244358E-03
      0.255000          0.239076E-03
      0.260000          0.234522E-03
      0.265000          0.230518E-03
      0.270000          0.226895E-03
      0.275000          0.223490E-03
      0.280000          0.220162E-03
      0.285000          0.216788E-03
      0.290000          0.213272E-03
      0.295000          0.209546E-03
      0.300000          0.205571E-03
      0.305000          0.201332E-03
      0.310000          0.196839E-03
      0.315000          0.192122E-03
      0.320000          0.187228E-03
      0.325000          0.182213E-03
      0.330000          0.177138E-03
      0.335000          0.172065E-03
      0.340000          0.167054E-03
      0.345000          0.162158E-03
      0.350000          0.157420E-03
      0.355000          0.152872E-03
      0.360000          0.148537E-03
      0.365000          0.144425E-03
      0.370000          0.140538E-03
      0.375000          0.136868E-03
      0.380000          0.133401E-03
      0.385000          0.130121E-03
      0.390000          0.127008E-03
      0.395000          0.124042E-03
      0.400000          0.121206E-03
      0.405000          0.118486E-03
      0.410000          0.115872E-03
      0.415000          0.113357E-03
      0.420000          0.110942E-03
      0.425000          0.108630E-03
      0.430000          0.106427E-03
      0.435000          0.104343E-03
      0.440000          0.102390E-03
      0.445000          0.100578E-03
      0.450000          0.989182E-04
      0.455000          0.974186E-04
      0.460000          0.960840E-04
      0.465000          0.949157E-04
      0.470000          0.939106E-04
      0.475000          0.930611E-04
      0.480000          0.923551E-04
      0.485000          0.917764E-04
      0.490000          0.913052E-04
      0.495000          0.909191E-04
      0.500000          0.905936E-04
