 I_abs(s)[cm^-1]/c[mg/ml]
       0.00000          0.148221E-01
      0.500000E-02      0.147785E-01
      0.100000E-01      0.146485E-01
      0.150000E-01      0.144345E-01
      0.200000E-01      0.141404E-01
      0.250000E-01      0.137714E-01
      0.300000E-01      0.133341E-01
      0.350000E-01      0.128361E-01
      0.400000E-01      0.122856E-01
      0.450000E-01      0.116917E-01
      0.500000E-01      0.110635E-01
      0.550000E-01      0.104105E-01
      0.600000E-01      0.974193E-02
      0.650000E-01      0.906652E-02
      0.700000E-01      0.839263E-02
      0.750000E-01      0.772783E-02
      0.800000E-01      0.707889E-02
      0.850000E-01      0.645162E-02
      0.900000E-01      0.585088E-02
      0.950000E-01      0.528054E-02
      0.100000          0.474349E-02
      0.105000          0.424170E-02
      0.110000          0.377628E-02
      0.115000          0.334758E-02
      0.120000          0.295528E-02
      0.125000          0.259852E-02
      0.130000          0.227597E-02
      0.135000          0.198599E-02
      0.140000          0.172668E-02
      0.145000          0.149601E-02
      0.150000          0.129186E-02
      0.155000          0.111213E-02
      0.160000          0.954746E-03
      0.165000          0.817704E-03
      0.170000          0.699115E-03
      0.175000          0.597199E-03
      0.180000          0.510295E-03
      0.185000          0.436855E-03
      0.190000          0.375441E-03
      0.195000          0.324713E-03
      0.200000          0.283423E-03
      0.205000          0.250398E-03
      0.210000          0.224544E-03
      0.215000          0.204832E-03
      0.220000          0.190300E-03
      0.225000          0.180051E-03
      0.230000          0.173257E-03
      0.235000          0.169163E-03
      0.240000          0.167088E-03
      0.245000          0.166431E-03
      0.250000          0.166676E-03
      0.255000          0.167387E-03
      0.260000          0.168217E-03
      0.265000          0.168899E-03
      0.270000          0.169241E-03
      0.275000          0.169126E-03
      0.280000          0.168495E-03
      0.285000          0.167342E-03
      0.290000          0.165703E-03
      0.295000          0.163642E-03
      0.300000          0.161245E-03
      0.305000          0.158603E-03
      0.310000          0.155811E-03
      0.315000          0.152953E-03
      0.320000          0.150104E-03
      0.325000          0.147320E-03
      0.330000          0.144639E-03
      0.335000          0.142083E-03
      0.340000          0.139655E-03
      0.345000          0.137344E-03
      0.350000          0.135131E-03
      0.355000          0.132989E-03
      0.360000          0.130887E-03
      0.365000          0.128798E-03
      0.370000          0.126696E-03
      0.375000          0.124565E-03
      0.380000          0.122397E-03
      0.385000          0.120192E-03
      0.390000          0.117962E-03
      0.395000          0.115723E-03
      0.400000          0.113502E-03
      0.405000          0.111330E-03
      0.410000          0.109237E-03
      0.415000          0.107256E-03
      0.420000          0.105417E-03
      0.425000          0.103742E-03
      0.430000          0.102248E-03
      0.435000          0.100945E-03
      0.440000          0.998327E-04
      0.445000          0.989014E-04
      0.450000          0.981339E-04
      0.455000          0.975049E-04
      0.460000          0.969836E-04
      0.465000          0.965345E-04
      0.470000          0.961203E-04
      0.475000          0.957032E-04
      0.480000          0.952476E-04
      0.485000          0.947215E-04
      0.490000          0.940985E-04
      0.495000          0.933584E-04
      0.500000          0.924889E-04
