 I_abs(s)[cm^-1]/c[mg/ml]
       0.00000          0.138598E-01
      0.500000E-02      0.137879E-01
      0.100000E-01      0.135744E-01
      0.150000E-01      0.132265E-01
      0.200000E-01      0.127553E-01
      0.250000E-01      0.121759E-01
      0.300000E-01      0.115060E-01
      0.350000E-01      0.107658E-01
      0.400000E-01      0.997625E-02
      0.450000E-01      0.915862E-02
      0.500000E-01      0.833342E-02
      0.550000E-01      0.751958E-02
      0.600000E-01      0.673377E-02
      0.650000E-01      0.598992E-02
      0.700000E-01      0.529887E-02
      0.750000E-01      0.466828E-02
      0.800000E-01      0.410262E-02
      0.850000E-01      0.360342E-02
      0.900000E-01      0.316961E-02
      0.950000E-01      0.279795E-02
      0.100000          0.248352E-02
      0.105000          0.222021E-02
      0.110000          0.200128E-02
      0.115000          0.181973E-02
      0.120000          0.166876E-02
      0.125000          0.154203E-02
      0.130000          0.143390E-02
      0.135000          0.133957E-02
      0.140000          0.125513E-02
      0.145000          0.117754E-02
      0.150000          0.110460E-02
      0.155000          0.103481E-02
      0.160000          0.967295E-03
      0.165000          0.901646E-03
      0.170000          0.837801E-03
      0.175000          0.775936E-03
      0.180000          0.716371E-03
      0.185000          0.659484E-03
      0.190000          0.605662E-03
      0.195000          0.555258E-03
      0.200000          0.508565E-03
      0.205000          0.465806E-03
      0.210000          0.427127E-03
      0.215000          0.392598E-03
      0.220000          0.362213E-03
      0.225000          0.335902E-03
      0.230000          0.313526E-03
      0.235000          0.294890E-03
      0.240000          0.279744E-03
      0.245000          0.267790E-03
      0.250000          0.258688E-03
      0.255000          0.252065E-03
      0.260000          0.247525E-03
      0.265000          0.244662E-03
      0.270000          0.243066E-03
      0.275000          0.242343E-03
      0.280000          0.242118E-03
      0.285000          0.242055E-03
      0.290000          0.241856E-03
      0.295000          0.241276E-03
      0.300000          0.240122E-03
      0.305000          0.238255E-03
      0.310000          0.235588E-03
      0.315000          0.232087E-03
      0.320000          0.227760E-03
      0.325000          0.222654E-03
      0.330000          0.216847E-03
      0.335000          0.210440E-03
      0.340000          0.203549E-03
      0.345000          0.196301E-03
      0.350000          0.188821E-03
      0.355000          0.181236E-03
      0.360000          0.173659E-03
      0.365000          0.166196E-03
      0.370000          0.158937E-03
      0.375000          0.151957E-03
      0.380000          0.145315E-03
      0.385000          0.139053E-03
      0.390000          0.133201E-03
      0.395000          0.127774E-03
      0.400000          0.122777E-03
      0.405000          0.118206E-03
      0.410000          0.114050E-03
      0.415000          0.110297E-03
      0.420000          0.106928E-03
      0.425000          0.103927E-03
      0.430000          0.101276E-03
      0.435000          0.989592E-04
      0.440000          0.969602E-04
      0.445000          0.952635E-04
      0.450000          0.938533E-04
      0.455000          0.927126E-04
      0.460000          0.918225E-04
      0.465000          0.911614E-04
      0.470000          0.907050E-04
      0.475000          0.904257E-04
      0.480000          0.902937E-04
      0.485000          0.902770E-04
      0.490000          0.903429E-04
      0.495000          0.904589E-04
      0.500000          0.905945E-04
