 I_abs(s)[cm^-1]/c[mg/ml]
       0.00000          0.144317E-01
      0.500000E-02      0.143699E-01
      0.100000E-01      0.141862E-01
      0.150000E-01      0.138854E-01
      0.200000E-01      0.134752E-01
      0.250000E-01      0.129662E-01
      0.300000E-01      0.123710E-01
      0.350000E-01      0.117040E-01
      0.400000E-01      0.109809E-01
      0.450000E-01      0.102177E-01
      0.500000E-01      0.943069E-02
      0.550000E-01      0.863538E-02
      0.600000E-01      0.784631E-02
      0.650000E-01      0.707655E-02
      0.700000E-01      0.633738E-02
      0.750000E-01      0.563804E-02
      0.800000E-01      0.498569E-02
      0.850000E-01      0.438532E-02
      0.900000E-01      0.383984E-02
      0.950000E-01      0.335029E-02
      0.100000          0.291601E-02
      0.105000          0.253492E-02
      0.110000          0.220381E-02
      0.115000          0.191866E-02
      0.120000          0.167491E-02
      0.125000          0.146773E-02
      0.130000          0.129228E-02
      0.135000          0.114390E-02
      0.140000          0.101825E-02
      0.145000          0.911405E-03
      0.150000          0.819979E-03
      0.155000          0.741090E-03
      0.160000          0.672383E-03
      0.165000          0.611992E-03
      0.170000          0.558490E-03
      0.175000          0.510824E-03
      0.180000          0.468251E-03
      0.185000          0.430266E-03
      0.190000          0.396536E-03
      0.195000          0.366850E-03
      0.200000          0.341061E-03
      0.205000          0.319049E-03
      0.210000          0.300695E-03
      0.215000          0.285852E-03
      0.220000          0.274337E-03
      0.225000          0.265919E-03
      0.230000          0.260323E-03
      0.235000          0.257225E-03
      0.240000          0.256264E-03
      0.245000          0.257048E-03
      0.250000          0.259163E-03
      0.255000          0.262187E-03
      0.260000          0.265700E-03
      0.265000          0.269299E-03
      0.270000          0.272605E-03
      0.275000          0.275285E-03
      0.280000          0.277050E-03
      0.285000          0.277674E-03
      0.290000          0.276996E-03
      0.295000          0.274922E-03
      0.300000          0.271429E-03
      0.305000          0.266562E-03
      0.310000          0.260428E-03
      0.315000          0.253185E-03
      0.320000          0.245036E-03
      0.325000          0.236213E-03
      0.330000          0.226965E-03
      0.335000          0.217542E-03
      0.340000          0.208186E-03
      0.345000          0.199116E-03
      0.350000          0.190519E-03
      0.355000          0.182546E-03
      0.360000          0.175304E-03
      0.365000          0.168854E-03
      0.370000          0.163220E-03
      0.375000          0.158383E-03
      0.380000          0.154294E-03
      0.385000          0.150876E-03
      0.390000          0.148037E-03
      0.395000          0.145674E-03
      0.400000          0.143679E-03
      0.405000          0.141951E-03
      0.410000          0.140395E-03
      0.415000          0.138928E-03
      0.420000          0.137484E-03
      0.425000          0.136007E-03
      0.430000          0.134459E-03
      0.435000          0.132813E-03
      0.440000          0.131051E-03
      0.445000          0.129167E-03
      0.450000          0.127157E-03
      0.455000          0.125023E-03
      0.460000          0.122770E-03
      0.465000          0.120403E-03
      0.470000          0.117931E-03
      0.475000          0.115363E-03
      0.480000          0.112710E-03
      0.485000          0.109988E-03
      0.490000          0.107214E-03
      0.495000          0.104412E-03
      0.500000          0.101607E-03
