 I_abs(s)[cm^-1]/c[mg/ml]
       0.00000          0.142032E-01
      0.500000E-02      0.141508E-01
      0.100000E-01      0.139947E-01
      0.150000E-01      0.137386E-01
      0.200000E-01      0.133880E-01
      0.250000E-01      0.129506E-01
      0.300000E-01      0.124358E-01
      0.350000E-01      0.118543E-01
      0.400000E-01      0.112181E-01
      0.450000E-01      0.105395E-01
      0.500000E-01      0.983139E-02
      0.550000E-01      0.910633E-02
      0.600000E-01      0.837648E-02
      0.650000E-01      0.765321E-02
      0.700000E-01      0.694678E-02
      0.750000E-01      0.626619E-02
      0.800000E-01      0.561897E-02
      0.850000E-01      0.501112E-02
      0.900000E-01      0.444707E-02
      0.950000E-01      0.392971E-02
      0.100000          0.346048E-02
      0.105000          0.303951E-02
      0.110000          0.266574E-02
      0.115000          0.233717E-02
      0.120000          0.205099E-02
      0.125000          0.180385E-02
      0.130000          0.159201E-02
      0.135000          0.141153E-02
      0.140000          0.125848E-02
      0.145000          0.112900E-02
      0.150000          0.101949E-02
      0.155000          0.926644E-03
      0.160000          0.847509E-03
      0.165000          0.779534E-03
      0.170000          0.720563E-03
      0.175000          0.668822E-03
      0.180000          0.622896E-03
      0.185000          0.581683E-03
      0.190000          0.544355E-03
      0.195000          0.510305E-03
      0.200000          0.479102E-03
      0.205000          0.450446E-03
      0.210000          0.424127E-03
      0.215000          0.399994E-03
      0.220000          0.377925E-03
      0.225000          0.357809E-03
      0.230000          0.339535E-03
      0.235000          0.322981E-03
      0.240000          0.308011E-03
      0.245000          0.294479E-03
      0.250000          0.282228E-03
      0.255000          0.271100E-03
      0.260000          0.260937E-03
      0.265000          0.251586E-03
      0.270000          0.242910E-03
      0.275000          0.234784E-03
      0.280000          0.227102E-03
      0.285000          0.219778E-03
      0.290000          0.212746E-03
      0.295000          0.205958E-03
      0.300000          0.199384E-03
      0.305000          0.193010E-03
      0.310000          0.186832E-03
      0.315000          0.180858E-03
      0.320000          0.175103E-03
      0.325000          0.169585E-03
      0.330000          0.164322E-03
      0.335000          0.159334E-03
      0.340000          0.154637E-03
      0.345000          0.150242E-03
      0.350000          0.146156E-03
      0.355000          0.142379E-03
      0.360000          0.138905E-03
      0.365000          0.135721E-03
      0.370000          0.132810E-03
      0.375000          0.130149E-03
      0.380000          0.127709E-03
      0.385000          0.125461E-03
      0.390000          0.123373E-03
      0.395000          0.121412E-03
      0.400000          0.119549E-03
      0.405000          0.117754E-03
      0.410000          0.116002E-03
      0.415000          0.114274E-03
      0.420000          0.112553E-03
      0.425000          0.110829E-03
      0.430000          0.109100E-03
      0.435000          0.107364E-03
      0.440000          0.105628E-03
      0.445000          0.103902E-03
      0.450000          0.102198E-03
      0.455000          0.100531E-03
      0.460000          0.989158E-04
      0.465000          0.973683E-04
      0.470000          0.959017E-04
      0.475000          0.945274E-04
      0.480000          0.932535E-04
      0.485000          0.920843E-04
      0.490000          0.910205E-04
      0.495000          0.900586E-04
      0.500000          0.891914E-04
