 I_abs(s)[cm^-1]/c[mg/ml]
       0.00000          0.146223E-01
      0.500000E-02      0.145770E-01
      0.100000E-01      0.144419E-01
      0.150000E-01      0.142195E-01
      0.200000E-01      0.139135E-01
      0.250000E-01      0.135294E-01
      0.300000E-01      0.130737E-01
      0.350000E-01      0.125541E-01
      0.400000E-01      0.119792E-01
      0.450000E-01      0.113581E-01
      0.500000E-01      0.107007E-01
      0.550000E-01      0.100168E-01
      0.600000E-01      0.931631E-02
      0.650000E-01      0.860877E-02
      0.700000E-01      0.790337E-02
      0.750000E-01      0.720863E-02
      0.800000E-01      0.653226E-02
      0.850000E-01      0.588106E-02
      0.900000E-01      0.526080E-02
      0.950000E-01      0.467620E-02
      0.100000          0.413087E-02
      0.105000          0.362733E-02
      0.110000          0.316707E-02
      0.115000          0.275058E-02
      0.120000          0.237749E-02
      0.125000          0.204662E-02
      0.130000          0.175613E-02
      0.135000          0.150365E-02
      0.140000          0.128638E-02
      0.145000          0.110127E-02
      0.150000          0.945074E-03
      0.155000          0.814509E-03
      0.160000          0.706335E-03
      0.165000          0.617440E-03
      0.170000          0.544904E-03
      0.175000          0.486053E-03
      0.180000          0.438492E-03
      0.185000          0.400119E-03
      0.190000          0.369136E-03
      0.195000          0.344035E-03
      0.200000          0.323583E-03
      0.205000          0.306797E-03
      0.210000          0.292909E-03
      0.215000          0.281336E-03
      0.220000          0.271645E-03
      0.225000          0.263515E-03
      0.230000          0.256708E-03
      0.235000          0.251045E-03
      0.240000          0.246375E-03
      0.245000          0.242563E-03
      0.250000          0.239475E-03
      0.255000          0.236971E-03
      0.260000          0.234898E-03
      0.265000          0.233097E-03
      0.270000          0.231399E-03
      0.275000          0.229636E-03
      0.280000          0.227646E-03
      0.285000          0.225281E-03
      0.290000          0.222412E-03
      0.295000          0.218941E-03
      0.300000          0.214797E-03
      0.305000          0.209950E-03
      0.310000          0.204401E-03
      0.315000          0.198190E-03
      0.320000          0.191389E-03
      0.325000          0.184097E-03
      0.330000          0.176438E-03
      0.335000          0.168549E-03
      0.340000          0.160581E-03
      0.345000          0.152681E-03
      0.350000          0.144993E-03
      0.355000          0.137651E-03
      0.360000          0.130770E-03
      0.365000          0.124443E-03
      0.370000          0.118740E-03
      0.375000          0.113704E-03
      0.380000          0.109353E-03
      0.385000          0.105680E-03
      0.390000          0.102652E-03
      0.395000          0.100221E-03
      0.400000          0.983187E-04
      0.405000          0.968675E-04
      0.410000          0.957817E-04
      0.415000          0.949727E-04
      0.420000          0.943535E-04
      0.425000          0.938425E-04
      0.430000          0.933661E-04
      0.435000          0.928621E-04
      0.440000          0.922809E-04
      0.445000          0.915868E-04
      0.450000          0.907583E-04
      0.455000          0.897874E-04
      0.460000          0.886791E-04
      0.465000          0.874493E-04
      0.470000          0.861231E-04
      0.475000          0.847329E-04
      0.480000          0.833153E-04
      0.485000          0.819096E-04
      0.490000          0.805548E-04
      0.495000          0.792882E-04
      0.500000          0.781429E-04
