 I_abs(s)[cm^-1]/c[mg/ml]
       0.00000          0.144951E-01
      0.500000E-02      0.144491E-01
      0.100000E-01      0.143117E-01
      0.150000E-01      0.140855E-01
      0.200000E-01      0.137744E-01
      0.250000E-01      0.133840E-01
      0.300000E-01      0.129209E-01
      0.350000E-01      0.123930E-01
      0.400000E-01      0.118091E-01
      0.450000E-01      0.111787E-01
      0.500000E-01      0.105118E-01
      0.550000E-01      0.981847E-02
      0.600000E-01      0.910895E-02
      0.650000E-01      0.839311E-02
      0.700000E-01      0.768037E-02
      0.750000E-01      0.697954E-02
      0.800000E-01      0.629856E-02
      0.850000E-01      0.564448E-02
      0.900000E-01      0.502325E-02
      0.950000E-01      0.443976E-02
      0.100000          0.389773E-02
      0.105000          0.339977E-02
      0.110000          0.294738E-02
      0.115000          0.254104E-02
      0.120000          0.218029E-02
      0.125000          0.186383E-02
      0.130000          0.158962E-02
      0.135000          0.135507E-02
      0.140000          0.115713E-02
      0.145000          0.992396E-03
      0.150000          0.857312E-03
      0.155000          0.748226E-03
      0.160000          0.661523E-03
      0.165000          0.593712E-03
      0.170000          0.541504E-03
      0.175000          0.501871E-03
      0.180000          0.472092E-03
      0.185000          0.449776E-03
      0.190000          0.432878E-03
      0.195000          0.419696E-03
      0.200000          0.408859E-03
      0.205000          0.399305E-03
      0.210000          0.390250E-03
      0.215000          0.381154E-03
      0.220000          0.371685E-03
      0.225000          0.361682E-03
      0.230000          0.351112E-03
      0.235000          0.340041E-03
      0.240000          0.328599E-03
      0.245000          0.316951E-03
      0.250000          0.305279E-03
      0.255000          0.293759E-03
      0.260000          0.282547E-03
      0.265000          0.271774E-03
      0.270000          0.261539E-03
      0.275000          0.251906E-03
      0.280000          0.242907E-03
      0.285000          0.234544E-03
      0.290000          0.226797E-03
      0.295000          0.219625E-03
      0.300000          0.212975E-03
      0.305000          0.206786E-03
      0.310000          0.200998E-03
      0.315000          0.195552E-03
      0.320000          0.190396E-03
      0.325000          0.185487E-03
      0.330000          0.180792E-03
      0.335000          0.176289E-03
      0.340000          0.171966E-03
      0.345000          0.167820E-03
      0.350000          0.163856E-03
      0.355000          0.160084E-03
      0.360000          0.156518E-03
      0.365000          0.153170E-03
      0.370000          0.150055E-03
      0.375000          0.147184E-03
      0.380000          0.144561E-03
      0.385000          0.142187E-03
      0.390000          0.140057E-03
      0.395000          0.138159E-03
      0.400000          0.136475E-03
      0.405000          0.134981E-03
      0.410000          0.133648E-03
      0.415000          0.132443E-03
      0.420000          0.131333E-03
      0.425000          0.130279E-03
      0.430000          0.129247E-03
      0.435000          0.128199E-03
      0.440000          0.127104E-03
      0.445000          0.125932E-03
      0.450000          0.124659E-03
      0.455000          0.123264E-03
      0.460000          0.121734E-03
      0.465000          0.120059E-03
      0.470000          0.118236E-03
      0.475000          0.116269E-03
      0.480000          0.114166E-03
      0.485000          0.111939E-03
      0.490000          0.109604E-03
      0.495000          0.107182E-03
      0.500000          0.104694E-03
