 I_abs(s)[cm^-1]/c[mg/ml]
       0.00000          0.147740E-01
      0.500000E-02      0.147141E-01
      0.100000E-01      0.145359E-01
      0.150000E-01      0.142436E-01
      0.200000E-01      0.138443E-01
      0.250000E-01      0.133473E-01
      0.300000E-01      0.127641E-01
      0.350000E-01      0.121078E-01
      0.400000E-01      0.113928E-01
      0.450000E-01      0.106341E-01
      0.500000E-01      0.984689E-02
      0.550000E-01      0.904616E-02
      0.600000E-01      0.824611E-02
      0.650000E-01      0.745980E-02
      0.700000E-01      0.669885E-02
      0.750000E-01      0.597312E-02
      0.800000E-01      0.529063E-02
      0.850000E-01      0.465740E-02
      0.900000E-01      0.407748E-02
      0.950000E-01      0.355307E-02
      0.100000          0.308458E-02
      0.105000          0.267093E-02
      0.110000          0.230970E-02
      0.115000          0.199748E-02
      0.120000          0.173009E-02
      0.125000          0.150289E-02
      0.130000          0.131100E-02
      0.135000          0.114956E-02
      0.140000          0.101393E-02
      0.145000          0.899821E-03
      0.150000          0.803410E-03
      0.155000          0.721417E-03
      0.160000          0.651124E-03
      0.165000          0.590369E-03
      0.170000          0.537506E-03
      0.175000          0.491342E-03
      0.180000          0.451059E-03
      0.185000          0.416129E-03
      0.190000          0.386228E-03
      0.195000          0.361152E-03
      0.200000          0.340746E-03
      0.205000          0.324846E-03
      0.210000          0.313230E-03
      0.215000          0.305599E-03
      0.220000          0.301555E-03
      0.225000          0.300611E-03
      0.230000          0.302200E-03
      0.235000          0.305699E-03
      0.240000          0.310458E-03
      0.245000          0.315828E-03
      0.250000          0.321196E-03
      0.255000          0.326010E-03
      0.260000          0.329803E-03
      0.265000          0.332209E-03
      0.270000          0.332974E-03
      0.275000          0.331958E-03
      0.280000          0.329131E-03
      0.285000          0.324562E-03
      0.290000          0.318407E-03
      0.295000          0.310886E-03
      0.300000          0.302268E-03
      0.305000          0.292846E-03
      0.310000          0.282919E-03
      0.315000          0.272773E-03
      0.320000          0.262669E-03
      0.325000          0.252827E-03
      0.330000          0.243420E-03
      0.335000          0.234572E-03
      0.340000          0.226356E-03
      0.345000          0.218796E-03
      0.350000          0.211873E-03
      0.355000          0.205534E-03
      0.360000          0.199699E-03
      0.365000          0.194270E-03
      0.370000          0.189143E-03
      0.375000          0.184213E-03
      0.380000          0.179383E-03
      0.385000          0.174571E-03
      0.390000          0.169712E-03
      0.395000          0.164763E-03
      0.400000          0.159701E-03
      0.405000          0.154525E-03
      0.410000          0.149255E-03
      0.415000          0.143923E-03
      0.420000          0.138576E-03
      0.425000          0.133267E-03
      0.430000          0.128055E-03
      0.435000          0.122996E-03
      0.440000          0.118142E-03
      0.445000          0.113539E-03
      0.450000          0.109222E-03
      0.455000          0.105214E-03
      0.460000          0.101527E-03
      0.465000          0.981622E-04
      0.470000          0.951083E-04
      0.475000          0.923461E-04
      0.480000          0.898494E-04
      0.485000          0.875873E-04
      0.490000          0.855267E-04
      0.495000          0.836351E-04
      0.500000          0.818824E-04
