 I_abs(s)[cm^-1]/c[mg/ml]
       0.00000          0.146781E-01
      0.500000E-02      0.146123E-01
      0.100000E-01      0.144172E-01
      0.150000E-01      0.140988E-01
      0.200000E-01      0.136670E-01
      0.250000E-01      0.131350E-01
      0.300000E-01      0.125182E-01
      0.350000E-01      0.118341E-01
      0.400000E-01      0.111007E-01
      0.450000E-01      0.103362E-01
      0.500000E-01      0.955777E-02
      0.550000E-01      0.878140E-02
      0.600000E-01      0.802094E-02
      0.650000E-01      0.728794E-02
      0.700000E-01      0.659137E-02
      0.750000E-01      0.593768E-02
      0.800000E-01      0.533086E-02
      0.850000E-01      0.477272E-02
      0.900000E-01      0.426319E-02
      0.950000E-01      0.380076E-02
      0.100000          0.338282E-02
      0.105000          0.300609E-02
      0.110000          0.266692E-02
      0.115000          0.236164E-02
      0.120000          0.208672E-02
      0.125000          0.183897E-02
      0.130000          0.161560E-02
      0.135000          0.141428E-02
      0.140000          0.123307E-02
      0.145000          0.107044E-02
      0.150000          0.925129E-03
      0.155000          0.796134E-03
      0.160000          0.682579E-03
      0.165000          0.583672E-03
      0.170000          0.498633E-03
      0.175000          0.426655E-03
      0.180000          0.366873E-03
      0.185000          0.318349E-03
      0.190000          0.280069E-03
      0.195000          0.250949E-03
      0.200000          0.229858E-03
      0.205000          0.215633E-03
      0.210000          0.207111E-03
      0.215000          0.203158E-03
      0.220000          0.202694E-03
      0.225000          0.204722E-03
      0.230000          0.208349E-03
      0.235000          0.212810E-03
      0.240000          0.217469E-03
      0.245000          0.221836E-03
      0.250000          0.225555E-03
      0.255000          0.228401E-03
      0.260000          0.230261E-03
      0.265000          0.231119E-03
      0.270000          0.231028E-03
      0.275000          0.230094E-03
      0.280000          0.228449E-03
      0.285000          0.226230E-03
      0.290000          0.223572E-03
      0.295000          0.220586E-03
      0.300000          0.217364E-03
      0.305000          0.213969E-03
      0.310000          0.210442E-03
      0.315000          0.206806E-03
      0.320000          0.203075E-03
      0.325000          0.199254E-03
      0.330000          0.195354E-03
      0.335000          0.191386E-03
      0.340000          0.187373E-03
      0.345000          0.183342E-03
      0.350000          0.179328E-03
      0.355000          0.175365E-03
      0.360000          0.171490E-03
      0.365000          0.167730E-03
      0.370000          0.164109E-03
      0.375000          0.160638E-03
      0.380000          0.157320E-03
      0.385000          0.154147E-03
      0.390000          0.151103E-03
      0.395000          0.148169E-03
      0.400000          0.145323E-03
      0.405000          0.142543E-03
      0.410000          0.139811E-03
      0.415000          0.137114E-03
      0.420000          0.134444E-03
      0.425000          0.131800E-03
      0.430000          0.129184E-03
      0.435000          0.126603E-03
      0.440000          0.124068E-03
      0.445000          0.121588E-03
      0.450000          0.119175E-03
      0.455000          0.116837E-03
      0.460000          0.114584E-03
      0.465000          0.112421E-03
      0.470000          0.110354E-03
      0.475000          0.108387E-03
      0.480000          0.106521E-03
      0.485000          0.104761E-03
      0.490000          0.103106E-03
      0.495000          0.101556E-03
      0.500000          0.100110E-03
