 I_abs(s)[cm^-1]/c[mg/ml]
       0.00000          0.144634E-01
      0.500000E-02      0.144171E-01
      0.100000E-01      0.142790E-01
      0.150000E-01      0.140520E-01
      0.200000E-01      0.137402E-01
      0.250000E-01      0.133497E-01
      0.300000E-01      0.128878E-01
      0.350000E-01      0.123630E-01
      0.400000E-01      0.117847E-01
      0.450000E-01      0.111628E-01
      0.500000E-01      0.105076E-01
      0.550000E-01      0.982975E-02
      0.600000E-01      0.913932E-02
      0.650000E-01      0.844613E-02
      0.700000E-01      0.775930E-02
      0.750000E-01      0.708709E-02
      0.800000E-01      0.643678E-02
      0.850000E-01      0.581455E-02
      0.900000E-01      0.522543E-02
      0.950000E-01      0.467328E-02
      0.100000          0.416080E-02
      0.105000          0.368961E-02
      0.110000          0.326031E-02
      0.115000          0.287259E-02
      0.120000          0.252539E-02
      0.125000          0.221697E-02
      0.130000          0.194511E-02
      0.135000          0.170719E-02
      0.140000          0.150038E-02
      0.145000          0.132169E-02
      0.150000          0.116812E-02
      0.155000          0.103674E-02
      0.160000          0.924737E-03
      0.165000          0.829487E-03
      0.170000          0.748586E-03
      0.175000          0.679873E-03
      0.180000          0.621434E-03
      0.185000          0.571600E-03
      0.190000          0.528940E-03
      0.195000          0.492236E-03
      0.200000          0.460466E-03
      0.205000          0.432780E-03
      0.210000          0.408474E-03
      0.215000          0.386966E-03
      0.220000          0.367779E-03
      0.225000          0.350514E-03
      0.230000          0.334844E-03
      0.235000          0.320493E-03
      0.240000          0.307227E-03
      0.245000          0.294851E-03
      0.250000          0.283198E-03
      0.255000          0.272128E-03
      0.260000          0.261523E-03
      0.265000          0.251289E-03
      0.270000          0.241349E-03
      0.275000          0.231649E-03
      0.280000          0.222149E-03
      0.285000          0.212829E-03
      0.290000          0.203680E-03
      0.295000          0.194709E-03
      0.300000          0.185933E-03
      0.305000          0.177378E-03
      0.310000          0.169076E-03
      0.315000          0.161063E-03
      0.320000          0.153377E-03
      0.325000          0.146056E-03
      0.330000          0.139134E-03
      0.335000          0.132642E-03
      0.340000          0.126607E-03
      0.345000          0.121048E-03
      0.350000          0.115975E-03
      0.355000          0.111394E-03
      0.360000          0.107301E-03
      0.365000          0.103685E-03
      0.370000          0.100525E-03
      0.375000          0.977980E-04
      0.380000          0.954711E-04
      0.385000          0.935080E-04
      0.390000          0.918684E-04
      0.395000          0.905093E-04
      0.400000          0.893863E-04
      0.405000          0.884547E-04
      0.410000          0.876710E-04
      0.415000          0.869938E-04
      0.420000          0.863849E-04
      0.425000          0.858100E-04
      0.430000          0.852399E-04
      0.435000          0.846504E-04
      0.440000          0.840229E-04
      0.445000          0.833445E-04
      0.450000          0.826077E-04
      0.455000          0.818104E-04
      0.460000          0.809550E-04
      0.465000          0.800483E-04
      0.470000          0.791002E-04
      0.475000          0.781235E-04
      0.480000          0.771325E-04
      0.485000          0.761426E-04
      0.490000          0.751693E-04
      0.495000          0.742277E-04
      0.500000          0.733317E-04
