 I_abs(s)[cm^-1]/c[mg/ml]
       0.00000          0.144317E-01
      0.500000E-02      0.143785E-01
      0.100000E-01      0.142199E-01
      0.150000E-01      0.139598E-01
      0.200000E-01      0.136041E-01
      0.250000E-01      0.131609E-01
      0.300000E-01      0.126401E-01
      0.350000E-01      0.120529E-01
      0.400000E-01      0.114117E-01
      0.450000E-01      0.107295E-01
      0.500000E-01      0.100193E-01
      0.550000E-01      0.929421E-02
      0.600000E-01      0.856646E-02
      0.650000E-01      0.784744E-02
      0.700000E-01      0.714730E-02
      0.750000E-01      0.647477E-02
      0.800000E-01      0.583699E-02
      0.850000E-01      0.523945E-02
      0.900000E-01      0.468600E-02
      0.950000E-01      0.417889E-02
      0.100000          0.371891E-02
      0.105000          0.330555E-02
      0.110000          0.293719E-02
      0.115000          0.261131E-02
      0.120000          0.232475E-02
      0.125000          0.207389E-02
      0.130000          0.185486E-02
      0.135000          0.166377E-02
      0.140000          0.149684E-02
      0.145000          0.135050E-02
      0.150000          0.122155E-02
      0.155000          0.110716E-02
      0.160000          0.100492E-02
      0.165000          0.912867E-03
      0.170000          0.829417E-03
      0.175000          0.753366E-03
      0.180000          0.683822E-03
      0.185000          0.620150E-03
      0.190000          0.561910E-03
      0.195000          0.508808E-03
      0.200000          0.460632E-03
      0.205000          0.417219E-03
      0.210000          0.378410E-03
      0.215000          0.344032E-03
      0.220000          0.313879E-03
      0.225000          0.287702E-03
      0.230000          0.265214E-03
      0.235000          0.246090E-03
      0.240000          0.229980E-03
      0.245000          0.216521E-03
      0.250000          0.205345E-03
      0.255000          0.196095E-03
      0.260000          0.188434E-03
      0.265000          0.182055E-03
      0.270000          0.176681E-03
      0.275000          0.172076E-03
      0.280000          0.168041E-03
      0.285000          0.164413E-03
      0.290000          0.161065E-03
      0.295000          0.157898E-03
      0.300000          0.154840E-03
      0.305000          0.151840E-03
      0.310000          0.148864E-03
      0.315000          0.145890E-03
      0.320000          0.142904E-03
      0.325000          0.139901E-03
      0.330000          0.136881E-03
      0.335000          0.133847E-03
      0.340000          0.130806E-03
      0.345000          0.127769E-03
      0.350000          0.124750E-03
      0.355000          0.121765E-03
      0.360000          0.118837E-03
      0.365000          0.115989E-03
      0.370000          0.113248E-03
      0.375000          0.110643E-03
      0.380000          0.108205E-03
      0.385000          0.105962E-03
      0.390000          0.103943E-03
      0.395000          0.102171E-03
      0.400000          0.100667E-03
      0.405000          0.994428E-04
      0.410000          0.985061E-04
      0.415000          0.978546E-04
      0.420000          0.974783E-04
      0.425000          0.973589E-04
      0.430000          0.974705E-04
      0.435000          0.977801E-04
      0.440000          0.982492E-04
      0.445000          0.988348E-04
      0.450000          0.994918E-04
      0.455000          0.100174E-03
      0.460000          0.100837E-03
      0.465000          0.101437E-03
      0.470000          0.101938E-03
      0.475000          0.102306E-03
      0.480000          0.102514E-03
      0.485000          0.102544E-03
      0.490000          0.102381E-03
      0.495000          0.102021E-03
      0.500000          0.101462E-03
