 I_abs(s)[cm^-1]/c[mg/ml]
       0.00000          0.146223E-01
      0.500000E-02      0.145773E-01
      0.100000E-01      0.144430E-01
      0.150000E-01      0.142220E-01
      0.200000E-01      0.139182E-01
      0.250000E-01      0.135371E-01
      0.300000E-01      0.130854E-01
      0.350000E-01      0.125711E-01
      0.400000E-01      0.120028E-01
      0.450000E-01      0.113898E-01
      0.500000E-01      0.107419E-01
      0.550000E-01      0.100691E-01
      0.600000E-01      0.938110E-02
      0.650000E-01      0.868738E-02
      0.700000E-01      0.799690E-02
      0.750000E-01      0.731787E-02
      0.800000E-01      0.665768E-02
      0.850000E-01      0.602270E-02
      0.900000E-01      0.541829E-02
      0.950000E-01      0.484872E-02
      0.100000          0.431717E-02
      0.105000          0.382575E-02
      0.110000          0.337559E-02
      0.115000          0.296691E-02
      0.120000          0.259909E-02
      0.125000          0.227085E-02
      0.130000          0.198030E-02
      0.135000          0.172514E-02
      0.140000          0.150274E-02
      0.145000          0.131023E-02
      0.150000          0.114470E-02
      0.155000          0.100321E-02
      0.160000          0.882876E-03
      0.165000          0.780996E-03
      0.170000          0.695031E-03
      0.175000          0.622671E-03
      0.180000          0.561841E-03
      0.185000          0.510714E-03
      0.190000          0.467701E-03
      0.195000          0.431438E-03
      0.200000          0.400771E-03
      0.205000          0.374729E-03
      0.210000          0.352500E-03
      0.215000          0.333408E-03
      0.220000          0.316887E-03
      0.225000          0.302462E-03
      0.230000          0.289730E-03
      0.235000          0.278344E-03
      0.240000          0.268007E-03
      0.245000          0.258457E-03
      0.250000          0.249469E-03
      0.255000          0.240847E-03
      0.260000          0.232428E-03
      0.265000          0.224077E-03
      0.270000          0.215692E-03
      0.275000          0.207202E-03
      0.280000          0.198571E-03
      0.285000          0.189788E-03
      0.290000          0.180877E-03
      0.295000          0.171885E-03
      0.300000          0.162881E-03
      0.305000          0.153953E-03
      0.310000          0.145199E-03
      0.315000          0.136726E-03
      0.320000          0.128638E-03
      0.325000          0.121038E-03
      0.330000          0.114015E-03
      0.335000          0.107648E-03
      0.340000          0.101997E-03
      0.345000          0.971030E-04
      0.350000          0.929858E-04
      0.355000          0.896458E-04
      0.360000          0.870635E-04
      0.365000          0.852018E-04
      0.370000          0.840077E-04
      0.375000          0.834162E-04
      0.380000          0.833526E-04
      0.385000          0.837363E-04
      0.390000          0.844837E-04
      0.395000          0.855118E-04
      0.400000          0.867401E-04
      0.405000          0.880934E-04
      0.410000          0.895037E-04
      0.415000          0.909109E-04
      0.420000          0.922645E-04
      0.425000          0.935229E-04
      0.430000          0.946543E-04
      0.435000          0.956355E-04
      0.440000          0.964519E-04
      0.445000          0.970960E-04
      0.450000          0.975665E-04
      0.455000          0.978674E-04
      0.460000          0.980069E-04
      0.465000          0.979958E-04
      0.470000          0.978472E-04
      0.475000          0.975753E-04
      0.480000          0.971946E-04
      0.485000          0.967196E-04
      0.490000          0.961640E-04
      0.495000          0.955407E-04
      0.500000          0.948611E-04
