 I_abs(s)[cm^-1]/c[mg/ml]
       0.00000          0.141195E-01
      0.500000E-02      0.140641E-01
      0.100000E-01      0.138994E-01
      0.150000E-01      0.136296E-01
      0.200000E-01      0.132616E-01
      0.250000E-01      0.128044E-01
      0.300000E-01      0.122692E-01
      0.350000E-01      0.116688E-01
      0.400000E-01      0.110169E-01
      0.450000E-01      0.103276E-01
      0.500000E-01      0.961522E-02
      0.550000E-01      0.889364E-02
      0.600000E-01      0.817572E-02
      0.650000E-01      0.747309E-02
      0.700000E-01      0.679581E-02
      0.750000E-01      0.615219E-02
      0.800000E-01      0.554863E-02
      0.850000E-01      0.498964E-02
      0.900000E-01      0.447787E-02
      0.950000E-01      0.401426E-02
      0.100000          0.359825E-02
      0.105000          0.322797E-02
      0.110000          0.290055E-02
      0.115000          0.261238E-02
      0.120000          0.235936E-02
      0.125000          0.213721E-02
      0.130000          0.194163E-02
      0.135000          0.176855E-02
      0.140000          0.161422E-02
      0.145000          0.147536E-02
      0.150000          0.134922E-02
      0.155000          0.123355E-02
      0.160000          0.112666E-02
      0.165000          0.102732E-02
      0.170000          0.934727E-03
      0.175000          0.848421E-03
      0.180000          0.768204E-03
      0.185000          0.694052E-03
      0.190000          0.626040E-03
      0.195000          0.564273E-03
      0.200000          0.508828E-03
      0.205000          0.459710E-03
      0.210000          0.416825E-03
      0.215000          0.379964E-03
      0.220000          0.348799E-03
      0.225000          0.322897E-03
      0.230000          0.301731E-03
      0.235000          0.284706E-03
      0.240000          0.271184E-03
      0.245000          0.260515E-03
      0.250000          0.252060E-03
      0.255000          0.245217E-03
      0.260000          0.239441E-03
      0.265000          0.234262E-03
      0.270000          0.229292E-03
      0.275000          0.224236E-03
      0.280000          0.218886E-03
      0.285000          0.213119E-03
      0.290000          0.206892E-03
      0.295000          0.200226E-03
      0.300000          0.193196E-03
      0.305000          0.185914E-03
      0.310000          0.178515E-03
      0.315000          0.171145E-03
      0.320000          0.163945E-03
      0.325000          0.157043E-03
      0.330000          0.150544E-03
      0.335000          0.144525E-03
      0.340000          0.139031E-03
      0.345000          0.134078E-03
      0.350000          0.129651E-03
      0.355000          0.125713E-03
      0.360000          0.122203E-03
      0.365000          0.119052E-03
      0.370000          0.116180E-03
      0.375000          0.113511E-03
      0.380000          0.110974E-03
      0.385000          0.108509E-03
      0.390000          0.106071E-03
      0.395000          0.103635E-03
      0.400000          0.101190E-03
      0.405000          0.987430E-04
      0.410000          0.963181E-04
      0.415000          0.939494E-04
      0.420000          0.916799E-04
      0.425000          0.895564E-04
      0.430000          0.876256E-04
      0.435000          0.859302E-04
      0.440000          0.845054E-04
      0.445000          0.833762E-04
      0.450000          0.825560E-04
      0.455000          0.820452E-04
      0.460000          0.818318E-04
      0.465000          0.818923E-04
      0.470000          0.821928E-04
      0.475000          0.826920E-04
      0.480000          0.833430E-04
      0.485000          0.840964E-04
      0.490000          0.849028E-04
      0.495000          0.857152E-04
      0.500000          0.864911E-04
