 I_abs(s)[cm^-1]/c[mg/ml]
       0.00000          0.142213E-01
      0.500000E-02      0.141639E-01
      0.100000E-01      0.139936E-01
      0.150000E-01      0.137148E-01
      0.200000E-01      0.133353E-01
      0.250000E-01      0.128651E-01
      0.300000E-01      0.123164E-01
      0.350000E-01      0.117031E-01
      0.400000E-01      0.110398E-01
      0.450000E-01      0.103416E-01
      0.500000E-01      0.962339E-02
      0.550000E-01      0.889932E-02
      0.600000E-01      0.818226E-02
      0.650000E-01      0.748353E-02
      0.700000E-01      0.681258E-02
      0.750000E-01      0.617685E-02
      0.800000E-01      0.558178E-02
      0.850000E-01      0.503081E-02
      0.900000E-01      0.452560E-02
      0.950000E-01      0.406619E-02
      0.100000          0.365133E-02
      0.105000          0.327879E-02
      0.110000          0.294559E-02
      0.115000          0.264835E-02
      0.120000          0.238354E-02
      0.125000          0.214765E-02
      0.130000          0.193740E-02
      0.135000          0.174981E-02
      0.140000          0.158225E-02
      0.145000          0.143247E-02
      0.150000          0.129857E-02
      0.155000          0.117894E-02
      0.160000          0.107218E-02
      0.165000          0.977058E-03
      0.170000          0.892444E-03
      0.175000          0.817239E-03
      0.180000          0.750361E-03
      0.185000          0.690726E-03
      0.190000          0.637258E-03
      0.195000          0.588905E-03
      0.200000          0.544680E-03
      0.205000          0.503691E-03
      0.210000          0.465185E-03
      0.215000          0.428577E-03
      0.220000          0.393471E-03
      0.225000          0.359666E-03
      0.230000          0.327152E-03
      0.235000          0.296082E-03
      0.240000          0.266739E-03
      0.245000          0.239490E-03
      0.250000          0.214735E-03
      0.255000          0.192853E-03
      0.260000          0.174155E-03
      0.265000          0.158846E-03
      0.270000          0.146991E-03
      0.275000          0.138507E-03
      0.280000          0.133155E-03
      0.285000          0.130557E-03
      0.290000          0.130223E-03
      0.295000          0.131581E-03
      0.300000          0.134021E-03
      0.305000          0.136937E-03
      0.310000          0.139768E-03
      0.315000          0.142032E-03
      0.320000          0.143358E-03
      0.325000          0.143500E-03
      0.330000          0.142345E-03
      0.335000          0.139910E-03
      0.340000          0.136325E-03
      0.345000          0.131815E-03
      0.350000          0.126669E-03
      0.355000          0.121210E-03
      0.360000          0.115767E-03
      0.365000          0.110639E-03
      0.370000          0.106081E-03
      0.375000          0.102276E-03
      0.380000          0.993332E-04
      0.385000          0.972813E-04
      0.390000          0.960731E-04
      0.395000          0.955972E-04
      0.400000          0.956925E-04
      0.405000          0.961676E-04
      0.410000          0.968198E-04
      0.415000          0.974542E-04
      0.420000          0.979003E-04
      0.425000          0.980250E-04
      0.430000          0.977416E-04
      0.435000          0.970136E-04
      0.440000          0.958533E-04
      0.445000          0.943177E-04
      0.450000          0.924990E-04
      0.455000          0.905140E-04
      0.460000          0.884921E-04
      0.465000          0.865623E-04
      0.470000          0.848426E-04
      0.475000          0.834299E-04
      0.480000          0.823937E-04
      0.485000          0.817714E-04
      0.490000          0.815682E-04
      0.495000          0.817582E-04
      0.500000          0.822890E-04
