 I_abs(s)[cm^-1]/c[mg/ml]
       0.00000          0.146240E-01
      0.500000E-02      0.145759E-01
      0.100000E-01      0.144323E-01
      0.150000E-01      0.141962E-01
      0.200000E-01      0.138722E-01
      0.250000E-01      0.134665E-01
      0.300000E-01      0.129868E-01
      0.350000E-01      0.124421E-01
      0.400000E-01      0.118422E-01
      0.450000E-01      0.111977E-01
      0.500000E-01      0.105195E-01
      0.550000E-01      0.981870E-02
      0.600000E-01      0.910599E-02
      0.650000E-01      0.839174E-02
      0.700000E-01      0.768557E-02
      0.750000E-01      0.699619E-02
      0.800000E-01      0.633125E-02
      0.850000E-01      0.569721E-02
      0.900000E-01      0.509928E-02
      0.950000E-01      0.454140E-02
      0.100000          0.402626E-02
      0.105000          0.355536E-02
      0.110000          0.312908E-02
      0.115000          0.274682E-02
      0.120000          0.240713E-02
      0.125000          0.210785E-02
      0.130000          0.184627E-02
      0.135000          0.161932E-02
      0.140000          0.142363E-02
      0.145000          0.125578E-02
      0.150000          0.111232E-02
      0.155000          0.989933E-03
      0.160000          0.885496E-03
      0.165000          0.796144E-03
      0.170000          0.719313E-03
      0.175000          0.652766E-03
      0.180000          0.594592E-03
      0.185000          0.543206E-03
      0.190000          0.497326E-03
      0.195000          0.455943E-03
      0.200000          0.418290E-03
      0.205000          0.383804E-03
      0.210000          0.352089E-03
      0.215000          0.322876E-03
      0.220000          0.295992E-03
      0.225000          0.271329E-03
      0.230000          0.248820E-03
      0.235000          0.228414E-03
      0.240000          0.210067E-03
      0.245000          0.193726E-03
      0.250000          0.179326E-03
      0.255000          0.166783E-03
      0.260000          0.155998E-03
      0.265000          0.146854E-03
      0.270000          0.139223E-03
      0.275000          0.132970E-03
      0.280000          0.127952E-03
      0.285000          0.124027E-03
      0.290000          0.121056E-03
      0.295000          0.118906E-03
      0.300000          0.117451E-03
      0.305000          0.116574E-03
      0.310000          0.116168E-03
      0.315000          0.116135E-03
      0.320000          0.116389E-03
      0.325000          0.116851E-03
      0.330000          0.117452E-03
      0.335000          0.118129E-03
      0.340000          0.118828E-03
      0.345000          0.119502E-03
      0.350000          0.120107E-03
      0.355000          0.120609E-03
      0.360000          0.120977E-03
      0.365000          0.121187E-03
      0.370000          0.121222E-03
      0.375000          0.121068E-03
      0.380000          0.120720E-03
      0.385000          0.120178E-03
      0.390000          0.119448E-03
      0.395000          0.118540E-03
      0.400000          0.117472E-03
      0.405000          0.116264E-03
      0.410000          0.114940E-03
      0.415000          0.113529E-03
      0.420000          0.112058E-03
      0.425000          0.110558E-03
      0.430000          0.109056E-03
      0.435000          0.107581E-03
      0.440000          0.106156E-03
      0.445000          0.104803E-03
      0.450000          0.103536E-03
      0.455000          0.102368E-03
      0.460000          0.101303E-03
      0.465000          0.100341E-03
      0.470000          0.994754E-04
      0.475000          0.986965E-04
      0.480000          0.979881E-04
      0.485000          0.973309E-04
      0.490000          0.967028E-04
      0.495000          0.960802E-04
      0.500000          0.954387E-04
