 I_abs(s)[cm^-1]/c[mg/ml]
       0.00000          0.144338E-01
      0.500000E-02      0.143903E-01
      0.100000E-01      0.142605E-01
      0.150000E-01      0.140468E-01
      0.200000E-01      0.137529E-01
      0.250000E-01      0.133841E-01
      0.300000E-01      0.129468E-01
      0.350000E-01      0.124483E-01
      0.400000E-01      0.118971E-01
      0.450000E-01      0.113021E-01
      0.500000E-01      0.106727E-01
      0.550000E-01      0.100183E-01
      0.600000E-01      0.934857E-02
      0.650000E-01      0.867262E-02
      0.700000E-01      0.799921E-02
      0.750000E-01      0.733642E-02
      0.800000E-01      0.669154E-02
      0.850000E-01      0.607093E-02
      0.900000E-01      0.547995E-02
      0.950000E-01      0.492290E-02
      0.100000          0.440301E-02
      0.105000          0.392246E-02
      0.110000          0.348241E-02
      0.115000          0.308311E-02
      0.120000          0.272393E-02
      0.125000          0.240355E-02
      0.130000          0.212000E-02
      0.135000          0.187087E-02
      0.140000          0.165335E-02
      0.145000          0.146445E-02
      0.150000          0.130105E-02
      0.155000          0.116003E-02
      0.160000          0.103836E-02
      0.165000          0.933188E-03
      0.170000          0.841895E-03
      0.175000          0.762130E-03
      0.180000          0.691849E-03
      0.185000          0.629317E-03
      0.190000          0.573112E-03
      0.195000          0.522105E-03
      0.200000          0.475437E-03
      0.205000          0.432487E-03
      0.210000          0.392835E-03
      0.215000          0.356223E-03
      0.220000          0.322512E-03
      0.225000          0.291649E-03
      0.230000          0.263629E-03
      0.235000          0.238466E-03
      0.240000          0.216168E-03
      0.245000          0.196717E-03
      0.250000          0.180060E-03
      0.255000          0.166093E-03
      0.260000          0.154668E-03
      0.265000          0.145591E-03
      0.270000          0.138627E-03
      0.275000          0.133509E-03
      0.280000          0.129952E-03
      0.285000          0.127658E-03
      0.290000          0.126334E-03
      0.295000          0.125698E-03
      0.300000          0.125489E-03
      0.305000          0.125476E-03
      0.310000          0.125466E-03
      0.315000          0.125300E-03
      0.320000          0.124864E-03
      0.325000          0.124079E-03
      0.330000          0.122907E-03
      0.335000          0.121343E-03
      0.340000          0.119409E-03
      0.345000          0.117153E-03
      0.350000          0.114638E-03
      0.355000          0.111941E-03
      0.360000          0.109142E-03
      0.365000          0.106323E-03
      0.370000          0.103563E-03
      0.375000          0.100931E-03
      0.380000          0.984885E-04
      0.385000          0.962832E-04
      0.390000          0.943501E-04
      0.395000          0.927112E-04
      0.400000          0.913755E-04
      0.405000          0.903403E-04
      0.410000          0.895928E-04
      0.415000          0.891113E-04
      0.420000          0.888676E-04
      0.425000          0.888287E-04
      0.430000          0.889582E-04
      0.435000          0.892187E-04
      0.440000          0.895723E-04
      0.445000          0.899826E-04
      0.450000          0.904153E-04
      0.455000          0.908387E-04
      0.460000          0.912246E-04
      0.465000          0.915482E-04
      0.470000          0.917886E-04
      0.475000          0.919284E-04
      0.480000          0.919538E-04
      0.485000          0.918544E-04
      0.490000          0.916234E-04
      0.495000          0.912567E-04
      0.500000          0.907533E-04
