 I_abs(s)[cm^-1]/c[mg/ml]
       0.00000          0.148315E-01
      0.500000E-02      0.147713E-01
      0.100000E-01      0.145921E-01
      0.150000E-01      0.142985E-01
      0.200000E-01      0.138977E-01
      0.250000E-01      0.133996E-01
      0.300000E-01      0.128160E-01
      0.350000E-01      0.121607E-01
      0.400000E-01      0.114483E-01
      0.450000E-01      0.106943E-01
      0.500000E-01      0.991410E-02
      0.550000E-01      0.912283E-02
      0.600000E-01      0.833464E-02
      0.650000E-01      0.756239E-02
      0.700000E-01      0.681732E-02
      0.750000E-01      0.610881E-02
      0.800000E-01      0.544425E-02
      0.850000E-01      0.482898E-02
      0.900000E-01      0.426634E-02
      0.950000E-01      0.375780E-02
      0.100000          0.330313E-02
      0.105000          0.290067E-02
      0.110000          0.254758E-02
      0.115000          0.224012E-02
      0.120000          0.197399E-02
      0.125000          0.174456E-02
      0.130000          0.154711E-02
      0.135000          0.137710E-02
      0.140000          0.123026E-02
      0.145000          0.110278E-02
      0.150000          0.991361E-03
      0.155000          0.893223E-03
      0.160000          0.806142E-03
      0.165000          0.728389E-03
      0.170000          0.658680E-03
      0.175000          0.596094E-03
      0.180000          0.539999E-03
      0.185000          0.489960E-03
      0.190000          0.445672E-03
      0.195000          0.406883E-03
      0.200000          0.373350E-03
      0.205000          0.344793E-03
      0.210000          0.320878E-03
      0.215000          0.301208E-03
      0.220000          0.285322E-03
      0.225000          0.272714E-03
      0.230000          0.262849E-03
      0.235000          0.255189E-03
      0.240000          0.249214E-03
      0.245000          0.244448E-03
      0.250000          0.240471E-03
      0.255000          0.236939E-03
      0.260000          0.233585E-03
      0.265000          0.230222E-03
      0.270000          0.226741E-03
      0.275000          0.223098E-03
      0.280000          0.219303E-03
      0.285000          0.215410E-03
      0.290000          0.211494E-03
      0.295000          0.207642E-03
      0.300000          0.203940E-03
      0.305000          0.200460E-03
      0.310000          0.197251E-03
      0.315000          0.194339E-03
      0.320000          0.191722E-03
      0.325000          0.189371E-03
      0.330000          0.187235E-03
      0.335000          0.185243E-03
      0.340000          0.183316E-03
      0.345000          0.181366E-03
      0.350000          0.179311E-03
      0.355000          0.177074E-03
      0.360000          0.174591E-03
      0.365000          0.171815E-03
      0.370000          0.168720E-03
      0.375000          0.165297E-03
      0.380000          0.161557E-03
      0.385000          0.157532E-03
      0.390000          0.153265E-03
      0.395000          0.148814E-03
      0.400000          0.144243E-03
      0.405000          0.139623E-03
      0.410000          0.135023E-03
      0.415000          0.130511E-03
      0.420000          0.126146E-03
      0.425000          0.121982E-03
      0.430000          0.118060E-03
      0.435000          0.114410E-03
      0.440000          0.111052E-03
      0.445000          0.107993E-03
      0.450000          0.105228E-03
      0.455000          0.102747E-03
      0.460000          0.100528E-03
      0.465000          0.985455E-04
      0.470000          0.967704E-04
      0.475000          0.951706E-04
      0.480000          0.937146E-04
      0.485000          0.923719E-04
      0.490000          0.911149E-04
      0.495000          0.899196E-04
      0.500000          0.887659E-04
