 I_abs(s)[cm^-1]/c[mg/ml]
       0.00000          0.143785E-01
      0.500000E-02      0.143280E-01
      0.100000E-01      0.141775E-01
      0.150000E-01      0.139303E-01
      0.200000E-01      0.135915E-01
      0.250000E-01      0.131682E-01
      0.300000E-01      0.126691E-01
      0.350000E-01      0.121041E-01
      0.400000E-01      0.114842E-01
      0.450000E-01      0.108210E-01
      0.500000E-01      0.101266E-01
      0.550000E-01      0.941279E-02
      0.600000E-01      0.869122E-02
      0.650000E-01      0.797279E-02
      0.700000E-01      0.726747E-02
      0.750000E-01      0.658413E-02
      0.800000E-01      0.593034E-02
      0.850000E-01      0.531230E-02
      0.900000E-01      0.473475E-02
      0.950000E-01      0.420102E-02
      0.100000          0.371306E-02
      0.105000          0.327156E-02
      0.110000          0.287606E-02
      0.115000          0.252513E-02
      0.120000          0.221652E-02
      0.125000          0.194737E-02
      0.130000          0.171437E-02
      0.135000          0.151396E-02
      0.140000          0.134245E-02
      0.145000          0.119619E-02
      0.150000          0.107166E-02
      0.155000          0.965588E-03
      0.160000          0.874993E-03
      0.165000          0.797230E-03
      0.170000          0.730014E-03
      0.175000          0.671413E-03
      0.180000          0.619836E-03
      0.185000          0.574000E-03
      0.190000          0.532897E-03
      0.195000          0.495749E-03
      0.200000          0.461967E-03
      0.205000          0.431113E-03
      0.210000          0.402856E-03
      0.215000          0.376945E-03
      0.220000          0.353180E-03
      0.225000          0.331391E-03
      0.230000          0.311428E-03
      0.235000          0.293145E-03
      0.240000          0.276402E-03
      0.245000          0.261060E-03
      0.250000          0.246983E-03
      0.255000          0.234046E-03
      0.260000          0.222129E-03
      0.265000          0.211127E-03
      0.270000          0.200952E-03
      0.275000          0.191531E-03
      0.280000          0.182805E-03
      0.285000          0.174734E-03
      0.290000          0.167288E-03
      0.295000          0.160446E-03
      0.300000          0.154195E-03
      0.305000          0.148521E-03
      0.310000          0.143413E-03
      0.315000          0.138853E-03
      0.320000          0.134820E-03
      0.325000          0.131285E-03
      0.330000          0.128211E-03
      0.335000          0.125557E-03
      0.340000          0.123274E-03
      0.345000          0.121309E-03
      0.350000          0.119610E-03
      0.355000          0.118121E-03
      0.360000          0.116791E-03
      0.365000          0.115570E-03
      0.370000          0.114417E-03
      0.375000          0.113292E-03
      0.380000          0.112165E-03
      0.385000          0.111013E-03
      0.390000          0.109817E-03
      0.395000          0.108566E-03
      0.400000          0.107254E-03
      0.405000          0.105880E-03
      0.410000          0.104444E-03
      0.415000          0.102953E-03
      0.420000          0.101412E-03
      0.425000          0.998301E-04
      0.430000          0.982168E-04
      0.435000          0.965825E-04
      0.440000          0.949382E-04
      0.445000          0.932957E-04
      0.450000          0.916674E-04
      0.455000          0.900666E-04
      0.460000          0.885072E-04
      0.465000          0.870036E-04
      0.470000          0.855706E-04
      0.475000          0.842230E-04
      0.480000          0.829753E-04
      0.485000          0.818412E-04
      0.490000          0.808328E-04
      0.495000          0.799601E-04
      0.500000          0.792308E-04
