 I_abs(s)[cm^-1]/c[mg/ml]
       0.00000          0.145050E-01
      0.500000E-02      0.144601E-01
      0.100000E-01      0.143264E-01
      0.150000E-01      0.141064E-01
      0.200000E-01      0.138043E-01
      0.250000E-01      0.134259E-01
      0.300000E-01      0.129781E-01
      0.350000E-01      0.124690E-01
      0.400000E-01      0.119076E-01
      0.450000E-01      0.113035E-01
      0.500000E-01      0.106665E-01
      0.550000E-01      0.100065E-01
      0.600000E-01      0.933315E-02
      0.650000E-01      0.865581E-02
      0.700000E-01      0.798304E-02
      0.750000E-01      0.732266E-02
      0.800000E-01      0.668154E-02
      0.850000E-01      0.606552E-02
      0.900000E-01      0.547938E-02
      0.950000E-01      0.492683E-02
      0.100000          0.441050E-02
      0.105000          0.393206E-02
      0.110000          0.349228E-02
      0.115000          0.309110E-02
      0.120000          0.272778E-02
      0.125000          0.240102E-02
      0.130000          0.210906E-02
      0.135000          0.184982E-02
      0.140000          0.162097E-02
      0.145000          0.142009E-02
      0.150000          0.124466E-02
      0.155000          0.109223E-02
      0.160000          0.960395E-03
      0.165000          0.846861E-03
      0.170000          0.749480E-03
      0.175000          0.666255E-03
      0.180000          0.595350E-03
      0.185000          0.535092E-03
      0.190000          0.483965E-03
      0.195000          0.440602E-03
      0.200000          0.403781E-03
      0.205000          0.372409E-03
      0.210000          0.345522E-03
      0.215000          0.322269E-03
      0.220000          0.301912E-03
      0.225000          0.283815E-03
      0.230000          0.267445E-03
      0.235000          0.252359E-03
      0.240000          0.238207E-03
      0.245000          0.224721E-03
      0.250000          0.211711E-03
      0.255000          0.199058E-03
      0.260000          0.186706E-03
      0.265000          0.174651E-03
      0.270000          0.162931E-03
      0.275000          0.151621E-03
      0.280000          0.140814E-03
      0.285000          0.130620E-03
      0.290000          0.121147E-03
      0.295000          0.112501E-03
      0.300000          0.104773E-03
      0.305000          0.980363E-04
      0.310000          0.923401E-04
      0.315000          0.877082E-04
      0.320000          0.841374E-04
      0.325000          0.815984E-04
      0.330000          0.800371E-04
      0.335000          0.793779E-04
      0.340000          0.795271E-04
      0.345000          0.803771E-04
      0.350000          0.818111E-04
      0.355000          0.837075E-04
      0.360000          0.859446E-04
      0.365000          0.884042E-04
      0.370000          0.909754E-04
      0.375000          0.935575E-04
      0.380000          0.960624E-04
      0.385000          0.984159E-04
      0.390000          0.100559E-03
      0.395000          0.102448E-03
      0.400000          0.104053E-03
      0.405000          0.105359E-03
      0.410000          0.106364E-03
      0.415000          0.107078E-03
      0.420000          0.107517E-03
      0.425000          0.107707E-03
      0.430000          0.107679E-03
      0.435000          0.107466E-03
      0.440000          0.107103E-03
      0.445000          0.106624E-03
      0.450000          0.106060E-03
      0.455000          0.105441E-03
      0.460000          0.104791E-03
      0.465000          0.104128E-03
      0.470000          0.103466E-03
      0.475000          0.102813E-03
      0.480000          0.102171E-03
      0.485000          0.101539E-03
      0.490000          0.100909E-03
      0.495000          0.100272E-03
      0.500000          0.996143E-04
