 I_abs(s)[cm^-1]/c[mg/ml]
       0.00000          0.142526E-01
      0.500000E-02      0.141832E-01
      0.100000E-01      0.139771E-01
      0.150000E-01      0.136407E-01
      0.200000E-01      0.131840E-01
      0.250000E-01      0.126209E-01
      0.300000E-01      0.119675E-01
      0.350000E-01      0.112422E-01
      0.400000E-01      0.104645E-01
      0.450000E-01      0.965428E-02
      0.500000E-01      0.883088E-02
      0.550000E-01      0.801239E-02
      0.600000E-01      0.721508E-02
      0.650000E-01      0.645284E-02
      0.700000E-01      0.573687E-02
      0.750000E-01      0.507548E-02
      0.800000E-01      0.447409E-02
      0.850000E-01      0.393538E-02
      0.900000E-01      0.345950E-02
      0.950000E-01      0.304445E-02
      0.100000          0.268653E-02
      0.105000          0.238074E-02
      0.110000          0.212125E-02
      0.115000          0.190187E-02
      0.120000          0.171636E-02
      0.125000          0.155882E-02
      0.130000          0.142387E-02
      0.135000          0.130683E-02
      0.140000          0.120381E-02
      0.145000          0.111171E-02
      0.150000          0.102819E-02
      0.155000          0.951556E-03
      0.160000          0.880695E-03
      0.165000          0.814905E-03
      0.170000          0.753792E-03
      0.175000          0.697147E-03
      0.180000          0.644858E-03
      0.185000          0.596831E-03
      0.190000          0.552944E-03
      0.195000          0.513022E-03
      0.200000          0.476835E-03
      0.205000          0.444101E-03
      0.210000          0.414513E-03
      0.215000          0.387758E-03
      0.220000          0.363545E-03
      0.225000          0.341619E-03
      0.230000          0.321778E-03
      0.235000          0.303877E-03
      0.240000          0.287824E-03
      0.245000          0.273569E-03
      0.250000          0.261093E-03
      0.255000          0.250387E-03
      0.260000          0.241435E-03
      0.265000          0.234200E-03
      0.270000          0.228612E-03
      0.275000          0.224560E-03
      0.280000          0.221889E-03
      0.285000          0.220407E-03
      0.290000          0.219891E-03
      0.295000          0.220095E-03
      0.300000          0.220770E-03
      0.305000          0.221671E-03
      0.310000          0.222571E-03
      0.315000          0.223274E-03
      0.320000          0.223619E-03
      0.325000          0.223487E-03
      0.330000          0.222797E-03
      0.335000          0.221511E-03
      0.340000          0.219623E-03
      0.345000          0.217155E-03
      0.350000          0.214148E-03
      0.355000          0.210656E-03
      0.360000          0.206738E-03
      0.365000          0.202453E-03
      0.370000          0.197853E-03
      0.375000          0.192985E-03
      0.380000          0.187884E-03
      0.385000          0.182581E-03
      0.390000          0.177097E-03
      0.395000          0.171452E-03
      0.400000          0.165664E-03
      0.405000          0.159755E-03
      0.410000          0.153752E-03
      0.415000          0.147687E-03
      0.420000          0.141602E-03
      0.425000          0.135547E-03
      0.430000          0.129577E-03
      0.435000          0.123753E-03
      0.440000          0.118139E-03
      0.445000          0.112798E-03
      0.450000          0.107788E-03
      0.455000          0.103163E-03
      0.460000          0.989624E-04
      0.465000          0.952177E-04
      0.470000          0.919444E-04
      0.475000          0.891440E-04
      0.480000          0.868034E-04
      0.485000          0.848959E-04
      0.490000          0.833830E-04
      0.495000          0.822167E-04
      0.500000          0.813425E-04
