 I_abs(s)[cm^-1]/c[mg/ml]
       0.00000          0.138860E-01
      0.500000E-02      0.138231E-01
      0.100000E-01      0.136360E-01
      0.150000E-01      0.133307E-01
      0.200000E-01      0.129162E-01
      0.250000E-01      0.124048E-01
      0.300000E-01      0.118111E-01
      0.350000E-01      0.111516E-01
      0.400000E-01      0.104438E-01
      0.450000E-01      0.970523E-02
      0.500000E-01      0.895323E-02
      0.550000E-01      0.820386E-02
      0.600000E-01      0.747152E-02
      0.650000E-01      0.676847E-02
      0.700000E-01      0.610461E-02
      0.750000E-01      0.548726E-02
      0.800000E-01      0.492127E-02
      0.850000E-01      0.440903E-02
      0.900000E-01      0.395084E-02
      0.950000E-01      0.354510E-02
      0.100000          0.318880E-02
      0.105000          0.287781E-02
      0.110000          0.260733E-02
      0.115000          0.237221E-02
      0.120000          0.216728E-02
      0.125000          0.198762E-02
      0.130000          0.182871E-02
      0.135000          0.168659E-02
      0.140000          0.155790E-02
      0.145000          0.143995E-02
      0.150000          0.133061E-02
      0.155000          0.122833E-02
      0.160000          0.113200E-02
      0.165000          0.104093E-02
      0.170000          0.954689E-03
      0.175000          0.873090E-03
      0.180000          0.796079E-03
      0.185000          0.723694E-03
      0.190000          0.656018E-03
      0.195000          0.593141E-03
      0.200000          0.535145E-03
      0.205000          0.482082E-03
      0.210000          0.433969E-03
      0.215000          0.390778E-03
      0.220000          0.352434E-03
      0.225000          0.318811E-03
      0.230000          0.289729E-03
      0.235000          0.264958E-03
      0.240000          0.244211E-03
      0.245000          0.227157E-03
      0.250000          0.213417E-03
      0.255000          0.202581E-03
      0.260000          0.194214E-03
      0.265000          0.187874E-03
      0.270000          0.183124E-03
      0.275000          0.179546E-03
      0.280000          0.176762E-03
      0.285000          0.174437E-03
      0.290000          0.172297E-03
      0.295000          0.170128E-03
      0.300000          0.167782E-03
      0.305000          0.165172E-03
      0.310000          0.162269E-03
      0.315000          0.159089E-03
      0.320000          0.155685E-03
      0.325000          0.152133E-03
      0.330000          0.148525E-03
      0.335000          0.144950E-03
      0.340000          0.141493E-03
      0.345000          0.138221E-03
      0.350000          0.135187E-03
      0.355000          0.132418E-03
      0.360000          0.129926E-03
      0.365000          0.127701E-03
      0.370000          0.125720E-03
      0.375000          0.123953E-03
      0.380000          0.122361E-03
      0.385000          0.120907E-03
      0.390000          0.119555E-03
      0.395000          0.118275E-03
      0.400000          0.117044E-03
      0.405000          0.115846E-03
      0.410000          0.114673E-03
      0.415000          0.113521E-03
      0.420000          0.112394E-03
      0.425000          0.111293E-03
      0.430000          0.110225E-03
      0.435000          0.109193E-03
      0.440000          0.108199E-03
      0.445000          0.107241E-03
      0.450000          0.106316E-03
      0.455000          0.105416E-03
      0.460000          0.104530E-03
      0.465000          0.103648E-03
      0.470000          0.102754E-03
      0.475000          0.101837E-03
      0.480000          0.100882E-03
      0.485000          0.998798E-04
      0.490000          0.988197E-04
      0.495000          0.976956E-04
      0.500000          0.965041E-04
