 I_abs(s)[cm^-1]/c[mg/ml]
       0.00000          0.140961E-01
      0.500000E-02      0.140449E-01
      0.100000E-01      0.138925E-01
      0.150000E-01      0.136425E-01
      0.200000E-01      0.133009E-01
      0.250000E-01      0.128756E-01
      0.300000E-01      0.123763E-01
      0.350000E-01      0.118139E-01
      0.400000E-01      0.112005E-01
      0.450000E-01      0.105487E-01
      0.500000E-01      0.987111E-02
      0.550000E-01      0.918007E-02
      0.600000E-01      0.848732E-02
      0.650000E-01      0.780358E-02
      0.700000E-01      0.713834E-02
      0.750000E-01      0.649964E-02
      0.800000E-01      0.589400E-02
      0.850000E-01      0.532633E-02
      0.900000E-01      0.479998E-02
      0.950000E-01      0.431683E-02
      0.100000          0.387739E-02
      0.105000          0.348101E-02
      0.110000          0.312605E-02
      0.115000          0.281012E-02
      0.120000          0.253024E-02
      0.125000          0.228311E-02
      0.130000          0.206525E-02
      0.135000          0.187315E-02
      0.140000          0.170343E-02
      0.145000          0.155295E-02
      0.150000          0.141886E-02
      0.155000          0.129861E-02
      0.160000          0.119006E-02
      0.165000          0.109139E-02
      0.170000          0.100111E-02
      0.175000          0.918036E-03
      0.180000          0.841258E-03
      0.185000          0.770071E-03
      0.190000          0.703950E-03
      0.195000          0.642510E-03
      0.200000          0.585466E-03
      0.205000          0.532604E-03
      0.210000          0.483759E-03
      0.215000          0.438792E-03
      0.220000          0.397577E-03
      0.225000          0.359992E-03
      0.230000          0.325911E-03
      0.235000          0.295202E-03
      0.240000          0.267720E-03
      0.245000          0.243313E-03
      0.250000          0.221813E-03
      0.255000          0.203044E-03
      0.260000          0.186819E-03
      0.265000          0.172941E-03
      0.270000          0.161207E-03
      0.275000          0.151408E-03
      0.280000          0.143330E-03
      0.285000          0.136762E-03
      0.290000          0.131494E-03
      0.295000          0.127323E-03
      0.300000          0.124057E-03
      0.305000          0.121516E-03
      0.310000          0.119540E-03
      0.315000          0.117983E-03
      0.320000          0.116722E-03
      0.325000          0.115657E-03
      0.330000          0.114706E-03
      0.335000          0.113808E-03
      0.340000          0.112923E-03
      0.345000          0.112025E-03
      0.350000          0.111103E-03
      0.355000          0.110155E-03
      0.360000          0.109188E-03
      0.365000          0.108215E-03
      0.370000          0.107249E-03
      0.375000          0.106304E-03
      0.380000          0.105394E-03
      0.385000          0.104528E-03
      0.390000          0.103713E-03
      0.395000          0.102951E-03
      0.400000          0.102242E-03
      0.405000          0.101581E-03
      0.410000          0.100962E-03
      0.415000          0.100377E-03
      0.420000          0.998173E-04
      0.425000          0.992726E-04
      0.430000          0.987341E-04
      0.435000          0.981938E-04
      0.440000          0.976449E-04
      0.445000          0.970821E-04
      0.450000          0.965015E-04
      0.455000          0.959009E-04
      0.460000          0.952794E-04
      0.465000          0.946372E-04
      0.470000          0.939754E-04
      0.475000          0.932955E-04
      0.480000          0.925997E-04
      0.485000          0.918898E-04
      0.490000          0.911677E-04
      0.495000          0.904350E-04
      0.500000          0.896926E-04
