 I_abs(s)[cm^-1]/c[mg/ml]
       0.00000          0.136930E-01
      0.500000E-02      0.136320E-01
      0.100000E-01      0.134510E-01
      0.150000E-01      0.131553E-01
      0.200000E-01      0.127538E-01
      0.250000E-01      0.122579E-01
      0.300000E-01      0.116819E-01
      0.350000E-01      0.110414E-01
      0.400000E-01      0.103533E-01
      0.450000E-01      0.963482E-02
      0.500000E-01      0.890271E-02
      0.550000E-01      0.817281E-02
      0.600000E-01      0.745938E-02
      0.650000E-01      0.677471E-02
      0.700000E-01      0.612878E-02
      0.750000E-01      0.552911E-02
      0.800000E-01      0.498069E-02
      0.850000E-01      0.448609E-02
      0.900000E-01      0.404565E-02
      0.950000E-01      0.365778E-02
      0.100000          0.331927E-02
      0.105000          0.302572E-02
      0.110000          0.277190E-02
      0.115000          0.255215E-02
      0.120000          0.236076E-02
      0.125000          0.219221E-02
      0.130000          0.204146E-02
      0.135000          0.190411E-02
      0.140000          0.177653E-02
      0.145000          0.165587E-02
      0.150000          0.154008E-02
      0.155000          0.142786E-02
      0.160000          0.131853E-02
      0.165000          0.121198E-02
      0.170000          0.110848E-02
      0.175000          0.100859E-02
      0.180000          0.913043E-03
      0.185000          0.822603E-03
      0.190000          0.738008E-03
      0.195000          0.659889E-03
      0.200000          0.588715E-03
      0.205000          0.524771E-03
      0.210000          0.468146E-03
      0.215000          0.418736E-03
      0.220000          0.376261E-03
      0.225000          0.340289E-03
      0.230000          0.310271E-03
      0.235000          0.285570E-03
      0.240000          0.265496E-03
      0.245000          0.249339E-03
      0.250000          0.236394E-03
      0.255000          0.225992E-03
      0.260000          0.217511E-03
      0.265000          0.210401E-03
      0.270000          0.204183E-03
      0.275000          0.198466E-03
      0.280000          0.192940E-03
      0.285000          0.187379E-03
      0.290000          0.181633E-03
      0.295000          0.175625E-03
      0.300000          0.169338E-03
      0.305000          0.162806E-03
      0.310000          0.156104E-03
      0.315000          0.149335E-03
      0.320000          0.142620E-03
      0.325000          0.136088E-03
      0.330000          0.129865E-03
      0.335000          0.124070E-03
      0.340000          0.118801E-03
      0.345000          0.114139E-03
      0.350000          0.110136E-03
      0.355000          0.106821E-03
      0.360000          0.104195E-03
      0.365000          0.102234E-03
      0.370000          0.100891E-03
      0.375000          0.100099E-03
      0.380000          0.997784E-04
      0.385000          0.998359E-04
      0.390000          0.100174E-03
      0.395000          0.100695E-03
      0.400000          0.101301E-03
      0.405000          0.101904E-03
      0.410000          0.102425E-03
      0.415000          0.102799E-03
      0.420000          0.102974E-03
      0.425000          0.102914E-03
      0.430000          0.102600E-03
      0.435000          0.102027E-03
      0.440000          0.101203E-03
      0.445000          0.100151E-03
      0.450000          0.989025E-04
      0.455000          0.974954E-04
      0.460000          0.959736E-04
      0.465000          0.943827E-04
      0.470000          0.927675E-04
      0.475000          0.911696E-04
      0.480000          0.896256E-04
      0.485000          0.881649E-04
      0.490000          0.868092E-04
      0.495000          0.855716E-04
      0.500000          0.844562E-04
