 I_abs(s)[cm^-1]/c[mg/ml]
       0.00000          0.141195E-01
      0.500000E-02      0.140690E-01
      0.100000E-01      0.139188E-01
      0.150000E-01      0.136722E-01
      0.200000E-01      0.133349E-01
      0.250000E-01      0.129145E-01
      0.300000E-01      0.124202E-01
      0.350000E-01      0.118626E-01
      0.400000E-01      0.112532E-01
      0.450000E-01      0.106044E-01
      0.500000E-01      0.992843E-02
      0.550000E-01      0.923754E-02
      0.600000E-01      0.854338E-02
      0.650000E-01      0.785674E-02
      0.700000E-01      0.718727E-02
      0.750000E-01      0.654330E-02
      0.800000E-01      0.593166E-02
      0.850000E-01      0.535762E-02
      0.900000E-01      0.482490E-02
      0.950000E-01      0.433571E-02
      0.100000          0.389085E-02
      0.105000          0.348986E-02
      0.110000          0.313121E-02
      0.115000          0.281250E-02
      0.120000          0.253070E-02
      0.125000          0.228233E-02
      0.130000          0.206366E-02
      0.135000          0.187094E-02
      0.140000          0.170052E-02
      0.145000          0.154899E-02
      0.150000          0.141328E-02
      0.155000          0.129071E-02
      0.160000          0.117907E-02
      0.165000          0.107654E-02
      0.170000          0.981769E-03
      0.175000          0.893747E-03
      0.180000          0.811810E-03
      0.185000          0.735555E-03
      0.190000          0.664776E-03
      0.195000          0.599403E-03
      0.200000          0.539435E-03
      0.205000          0.484898E-03
      0.210000          0.435792E-03
      0.215000          0.392068E-03
      0.220000          0.353602E-03
      0.225000          0.320187E-03
      0.230000          0.291534E-03
      0.235000          0.267279E-03
      0.240000          0.246994E-03
      0.245000          0.230210E-03
      0.250000          0.216432E-03
      0.255000          0.205161E-03
      0.260000          0.195915E-03
      0.265000          0.188244E-03
      0.270000          0.181740E-03
      0.275000          0.176055E-03
      0.280000          0.170899E-03
      0.285000          0.166045E-03
      0.290000          0.161329E-03
      0.295000          0.156643E-03
      0.300000          0.151927E-03
      0.305000          0.147168E-03
      0.310000          0.142382E-03
      0.315000          0.137610E-03
      0.320000          0.132909E-03
      0.325000          0.128340E-03
      0.330000          0.123967E-03
      0.335000          0.119848E-03
      0.340000          0.116029E-03
      0.345000          0.112546E-03
      0.350000          0.109421E-03
      0.355000          0.106663E-03
      0.360000          0.104268E-03
      0.365000          0.102221E-03
      0.370000          0.100498E-03
      0.375000          0.990699E-04
      0.380000          0.979019E-04
      0.385000          0.969587E-04
      0.390000          0.962052E-04
      0.395000          0.956083E-04
      0.400000          0.951386E-04
      0.405000          0.947707E-04
      0.410000          0.944840E-04
      0.415000          0.942626E-04
      0.420000          0.940950E-04
      0.425000          0.939734E-04
      0.430000          0.938929E-04
      0.435000          0.938509E-04
      0.440000          0.938456E-04
      0.445000          0.938756E-04
      0.450000          0.939388E-04
      0.455000          0.940319E-04
      0.460000          0.941496E-04
      0.465000          0.942849E-04
      0.470000          0.944286E-04
      0.475000          0.945695E-04
      0.480000          0.946951E-04
      0.485000          0.947918E-04
      0.490000          0.948458E-04
      0.495000          0.948436E-04
      0.500000          0.947730E-04
