 I_abs(s)[cm^-1]/c[mg/ml]
       0.00000          0.147835E-01
      0.500000E-02      0.147346E-01
      0.100000E-01      0.145888E-01
      0.150000E-01      0.143486E-01
      0.200000E-01      0.140186E-01
      0.250000E-01      0.136045E-01
      0.300000E-01      0.131136E-01
      0.350000E-01      0.125545E-01
      0.400000E-01      0.119368E-01
      0.450000E-01      0.112706E-01
      0.500000E-01      0.105667E-01
      0.550000E-01      0.983626E-02
      0.600000E-01      0.909008E-02
      0.650000E-01      0.833889E-02
      0.700000E-01      0.759284E-02
      0.750000E-01      0.686138E-02
      0.800000E-01      0.615304E-02
      0.850000E-01      0.547530E-02
      0.900000E-01      0.483448E-02
      0.950000E-01      0.423571E-02
      0.100000          0.368280E-02
      0.105000          0.317837E-02
      0.110000          0.272379E-02
      0.115000          0.231930E-02
      0.120000          0.196411E-02
      0.125000          0.165649E-02
      0.130000          0.139392E-02
      0.135000          0.117328E-02
      0.140000          0.990912E-03
      0.145000          0.842855E-03
      0.150000          0.724947E-03
      0.155000          0.632976E-03
      0.160000          0.562799E-03
      0.165000          0.510452E-03
      0.170000          0.472238E-03
      0.175000          0.444797E-03
      0.180000          0.425158E-03
      0.185000          0.410769E-03
      0.190000          0.399511E-03
      0.195000          0.389694E-03
      0.200000          0.380040E-03
      0.205000          0.369652E-03
      0.210000          0.357977E-03
      0.215000          0.344758E-03
      0.220000          0.329987E-03
      0.225000          0.313848E-03
      0.230000          0.296669E-03
      0.235000          0.278876E-03
      0.240000          0.260942E-03
      0.245000          0.243352E-03
      0.250000          0.226566E-03
      0.255000          0.210998E-03
      0.260000          0.196989E-03
      0.265000          0.184801E-03
      0.270000          0.174604E-03
      0.275000          0.166478E-03
      0.280000          0.160415E-03
      0.285000          0.156329E-03
      0.290000          0.154063E-03
      0.295000          0.153405E-03
      0.300000          0.154102E-03
      0.305000          0.155871E-03
      0.310000          0.158418E-03
      0.315000          0.161448E-03
      0.320000          0.164678E-03
      0.325000          0.167847E-03
      0.330000          0.170725E-03
      0.335000          0.173117E-03
      0.340000          0.174868E-03
      0.345000          0.175866E-03
      0.350000          0.176039E-03
      0.355000          0.175358E-03
      0.360000          0.173827E-03
      0.365000          0.171486E-03
      0.370000          0.168400E-03
      0.375000          0.164659E-03
      0.380000          0.160367E-03
      0.385000          0.155640E-03
      0.390000          0.150599E-03
      0.395000          0.145365E-03
      0.400000          0.140055E-03
      0.405000          0.134778E-03
      0.410000          0.129632E-03
      0.415000          0.124702E-03
      0.420000          0.120057E-03
      0.425000          0.115752E-03
      0.430000          0.111826E-03
      0.435000          0.108300E-03
      0.440000          0.105185E-03
      0.445000          0.102475E-03
      0.450000          0.100156E-03
      0.455000          0.982004E-04
      0.460000          0.965768E-04
      0.465000          0.952464E-04
      0.470000          0.941670E-04
      0.475000          0.932947E-04
      0.480000          0.925856E-04
      0.485000          0.919972E-04
      0.490000          0.914898E-04
      0.495000          0.910274E-04
      0.500000          0.905784E-04
