 I_abs(s)[cm^-1]/c[mg/ml]
       0.00000          0.144496E-01
      0.500000E-02      0.143885E-01
      0.100000E-01      0.142068E-01
      0.150000E-01      0.139090E-01
      0.200000E-01      0.135024E-01
      0.250000E-01      0.129969E-01
      0.300000E-01      0.124046E-01
      0.350000E-01      0.117394E-01
      0.400000E-01      0.110161E-01
      0.450000E-01      0.102507E-01
      0.500000E-01      0.945895E-02
      0.550000E-01      0.865649E-02
      0.600000E-01      0.785806E-02
      0.650000E-01      0.707717E-02
      0.700000E-01      0.632572E-02
      0.750000E-01      0.561374E-02
      0.800000E-01      0.494925E-02
      0.850000E-01      0.433814E-02
      0.900000E-01      0.378417E-02
      0.950000E-01      0.328912E-02
      0.100000          0.285288E-02
      0.105000          0.247373E-02
      0.110000          0.214858E-02
      0.115000          0.187326E-02
      0.120000          0.164282E-02
      0.125000          0.145186E-02
      0.130000          0.129478E-02
      0.135000          0.116604E-02
      0.140000          0.106037E-02
      0.145000          0.972939E-03
      0.150000          0.899494E-03
      0.155000          0.836413E-03
      0.160000          0.780748E-03
      0.165000          0.730215E-03
      0.170000          0.683151E-03
      0.175000          0.638451E-03
      0.180000          0.595483E-03
      0.185000          0.553991E-03
      0.190000          0.513997E-03
      0.195000          0.475711E-03
      0.200000          0.439445E-03
      0.205000          0.405536E-03
      0.210000          0.374293E-03
      0.215000          0.345953E-03
      0.220000          0.320656E-03
      0.225000          0.298434E-03
      0.230000          0.279213E-03
      0.235000          0.262823E-03
      0.240000          0.249016E-03
      0.245000          0.237494E-03
      0.250000          0.227926E-03
      0.255000          0.219978E-03
      0.260000          0.213329E-03
      0.265000          0.207691E-03
      0.270000          0.202819E-03
      0.275000          0.198518E-03
      0.280000          0.194645E-03
      0.285000          0.191105E-03
      0.290000          0.187846E-03
      0.295000          0.184850E-03
      0.300000          0.182123E-03
      0.305000          0.179684E-03
      0.310000          0.177556E-03
      0.315000          0.175758E-03
      0.320000          0.174299E-03
      0.325000          0.173170E-03
      0.330000          0.172349E-03
      0.335000          0.171796E-03
      0.340000          0.171454E-03
      0.345000          0.171258E-03
      0.350000          0.171136E-03
      0.355000          0.171011E-03
      0.360000          0.170813E-03
      0.365000          0.170477E-03
      0.370000          0.169949E-03
      0.375000          0.169187E-03
      0.380000          0.168166E-03
      0.385000          0.166874E-03
      0.390000          0.165314E-03
      0.395000          0.163500E-03
      0.400000          0.161457E-03
      0.405000          0.159217E-03
      0.410000          0.156816E-03
      0.415000          0.154291E-03
      0.420000          0.151676E-03
      0.425000          0.149005E-03
      0.430000          0.146303E-03
      0.435000          0.143592E-03
      0.440000          0.140884E-03
      0.445000          0.138187E-03
      0.450000          0.135502E-03
      0.455000          0.132828E-03
      0.460000          0.130156E-03
      0.465000          0.127480E-03
      0.470000          0.124790E-03
      0.475000          0.122080E-03
      0.480000          0.119345E-03
      0.485000          0.116583E-03
      0.490000          0.113796E-03
      0.495000          0.110988E-03
      0.500000          0.108170E-03
