 I_abs(s)[cm^-1]/c[mg/ml]
       0.00000          0.147515E-01
      0.500000E-02      0.147042E-01
      0.100000E-01      0.145629E-01
      0.150000E-01      0.143303E-01
      0.200000E-01      0.140107E-01
      0.250000E-01      0.136098E-01
      0.300000E-01      0.131347E-01
      0.350000E-01      0.125938E-01
      0.400000E-01      0.119962E-01
      0.450000E-01      0.113520E-01
      0.500000E-01      0.106713E-01
      0.550000E-01      0.996474E-02
      0.600000E-01      0.924274E-02
      0.650000E-01      0.851537E-02
      0.700000E-01      0.779218E-02
      0.750000E-01      0.708196E-02
      0.800000E-01      0.639262E-02
      0.850000E-01      0.573105E-02
      0.900000E-01      0.510303E-02
      0.950000E-01      0.451320E-02
      0.100000          0.396506E-02
      0.105000          0.346095E-02
      0.110000          0.300216E-02
      0.115000          0.258898E-02
      0.120000          0.222080E-02
      0.125000          0.189626E-02
      0.130000          0.161333E-02
      0.135000          0.136947E-02
      0.140000          0.116177E-02
      0.145000          0.987026E-03
      0.150000          0.841921E-03
      0.155000          0.723081E-03
      0.160000          0.627181E-03
      0.165000          0.551022E-03
      0.170000          0.491586E-03
      0.175000          0.446084E-03
      0.180000          0.411982E-03
      0.185000          0.387021E-03
      0.190000          0.369220E-03
      0.195000          0.356869E-03
      0.200000          0.348524E-03
      0.205000          0.342980E-03
      0.210000          0.339256E-03
      0.215000          0.336566E-03
      0.220000          0.334300E-03
      0.225000          0.331993E-03
      0.230000          0.329305E-03
      0.235000          0.325999E-03
      0.240000          0.321926E-03
      0.245000          0.317000E-03
      0.250000          0.311191E-03
      0.255000          0.304513E-03
      0.260000          0.297010E-03
      0.265000          0.288751E-03
      0.270000          0.279824E-03
      0.275000          0.270332E-03
      0.280000          0.260385E-03
      0.285000          0.250100E-03
      0.290000          0.239594E-03
      0.295000          0.228987E-03
      0.300000          0.218395E-03
      0.305000          0.207930E-03
      0.310000          0.197694E-03
      0.315000          0.187784E-03
      0.320000          0.178284E-03
      0.325000          0.169267E-03
      0.330000          0.160795E-03
      0.335000          0.152914E-03
      0.340000          0.145658E-03
      0.345000          0.139046E-03
      0.350000          0.133086E-03
      0.355000          0.127772E-03
      0.360000          0.123088E-03
      0.365000          0.119007E-03
      0.370000          0.115495E-03
      0.375000          0.112509E-03
      0.380000          0.110003E-03
      0.385000          0.107927E-03
      0.390000          0.106229E-03
      0.395000          0.104855E-03
      0.400000          0.103754E-03
      0.405000          0.102876E-03
      0.410000          0.102174E-03
      0.415000          0.101607E-03
      0.420000          0.101135E-03
      0.425000          0.100724E-03
      0.430000          0.100346E-03
      0.435000          0.999761E-04
      0.440000          0.995949E-04
      0.445000          0.991871E-04
      0.450000          0.987409E-04
      0.455000          0.982481E-04
      0.460000          0.977031E-04
      0.465000          0.971027E-04
      0.470000          0.964450E-04
      0.475000          0.957298E-04
      0.480000          0.949571E-04
      0.485000          0.941277E-04
      0.490000          0.932424E-04
      0.495000          0.923019E-04
      0.500000          0.913069E-04
