 I_abs(s)[cm^-1]/c[mg/ml]
       0.00000          0.142213E-01
      0.500000E-02      0.141695E-01
      0.100000E-01      0.140156E-01
      0.150000E-01      0.137630E-01
      0.200000E-01      0.134176E-01
      0.250000E-01      0.129873E-01
      0.300000E-01      0.124815E-01
      0.350000E-01      0.119113E-01
      0.400000E-01      0.112886E-01
      0.450000E-01      0.106259E-01
      0.500000E-01      0.993604E-02
      0.550000E-01      0.923140E-02
      0.600000E-01      0.852390E-02
      0.650000E-01      0.782452E-02
      0.700000E-01      0.714304E-02
      0.750000E-01      0.648786E-02
      0.800000E-01      0.586587E-02
      0.850000E-01      0.528236E-02
      0.900000E-01      0.474106E-02
      0.950000E-01      0.424420E-02
      0.100000          0.379259E-02
      0.105000          0.338583E-02
      0.110000          0.302243E-02
      0.115000          0.270010E-02
      0.120000          0.241589E-02
      0.125000          0.216643E-02
      0.130000          0.194810E-02
      0.135000          0.175722E-02
      0.140000          0.159021E-02
      0.145000          0.144365E-02
      0.150000          0.131444E-02
      0.155000          0.119980E-02
      0.160000          0.109731E-02
      0.165000          0.100496E-02
      0.170000          0.921081E-03
      0.175000          0.844338E-03
      0.180000          0.773709E-03
      0.185000          0.708420E-03
      0.190000          0.647907E-03
      0.195000          0.591772E-03
      0.200000          0.539738E-03
      0.205000          0.491614E-03
      0.210000          0.447264E-03
      0.215000          0.406581E-03
      0.220000          0.369469E-03
      0.225000          0.335832E-03
      0.230000          0.305559E-03
      0.235000          0.278525E-03
      0.240000          0.254586E-03
      0.245000          0.233578E-03
      0.250000          0.215320E-03
      0.255000          0.199613E-03
      0.260000          0.186249E-03
      0.265000          0.175005E-03
      0.270000          0.165656E-03
      0.275000          0.157969E-03
      0.280000          0.151716E-03
      0.285000          0.146669E-03
      0.290000          0.142610E-03
      0.295000          0.139335E-03
      0.300000          0.136652E-03
      0.305000          0.134393E-03
      0.310000          0.132408E-03
      0.315000          0.130573E-03
      0.320000          0.128791E-03
      0.325000          0.126990E-03
      0.330000          0.125121E-03
      0.335000          0.123161E-03
      0.340000          0.121107E-03
      0.345000          0.118970E-03
      0.350000          0.116777E-03
      0.355000          0.114562E-03
      0.360000          0.112361E-03
      0.365000          0.110214E-03
      0.370000          0.108152E-03
      0.375000          0.106205E-03
      0.380000          0.104390E-03
      0.385000          0.102716E-03
      0.390000          0.101184E-03
      0.395000          0.997846E-04
      0.400000          0.985006E-04
      0.405000          0.973102E-04
      0.410000          0.961880E-04
      0.415000          0.951076E-04
      0.420000          0.940439E-04
      0.425000          0.929752E-04
      0.430000          0.918843E-04
      0.435000          0.907600E-04
      0.440000          0.895975E-04
      0.445000          0.883981E-04
      0.450000          0.871690E-04
      0.455000          0.859223E-04
      0.460000          0.846737E-04
      0.465000          0.834408E-04
      0.470000          0.822426E-04
      0.475000          0.810968E-04
      0.480000          0.800199E-04
      0.485000          0.790252E-04
      0.490000          0.781227E-04
      0.495000          0.773183E-04
      0.500000          0.766141E-04
