 I_abs(s)[cm^-1]/c[mg/ml]
       0.00000          0.145605E-01
      0.500000E-02      0.144962E-01
      0.100000E-01      0.143055E-01
      0.150000E-01      0.139943E-01
      0.200000E-01      0.135721E-01
      0.250000E-01      0.130514E-01
      0.300000E-01      0.124472E-01
      0.350000E-01      0.117759E-01
      0.400000E-01      0.110548E-01
      0.450000E-01      0.103009E-01
      0.500000E-01      0.953065E-02
      0.550000E-01      0.875906E-02
      0.600000E-01      0.799925E-02
      0.650000E-01      0.726225E-02
      0.700000E-01      0.655683E-02
      0.750000E-01      0.588955E-02
      0.800000E-01      0.526488E-02
      0.850000E-01      0.468548E-02
      0.900000E-01      0.415247E-02
      0.950000E-01      0.366576E-02
      0.100000          0.322431E-02
      0.105000          0.282647E-02
      0.110000          0.247015E-02
      0.115000          0.215301E-02
      0.120000          0.187256E-02
      0.125000          0.162626E-02
      0.130000          0.141154E-02
      0.135000          0.122582E-02
      0.140000          0.106650E-02
      0.145000          0.931003E-03
      0.150000          0.816766E-03
      0.155000          0.721263E-03
      0.160000          0.642048E-03
      0.165000          0.576784E-03
      0.170000          0.523286E-03
      0.175000          0.479557E-03
      0.180000          0.443811E-03
      0.185000          0.414488E-03
      0.190000          0.390259E-03
      0.195000          0.370018E-03
      0.200000          0.352857E-03
      0.205000          0.338051E-03
      0.210000          0.325022E-03
      0.215000          0.313321E-03
      0.220000          0.302600E-03
      0.225000          0.292599E-03
      0.230000          0.283130E-03
      0.235000          0.274073E-03
      0.240000          0.265364E-03
      0.245000          0.256995E-03
      0.250000          0.249003E-03
      0.255000          0.241463E-03
      0.260000          0.234471E-03
      0.265000          0.228132E-03
      0.270000          0.222540E-03
      0.275000          0.217762E-03
      0.280000          0.213827E-03
      0.285000          0.210710E-03
      0.290000          0.208336E-03
      0.295000          0.206575E-03
      0.300000          0.205260E-03
      0.305000          0.204194E-03
      0.310000          0.203173E-03
      0.315000          0.202006E-03
      0.320000          0.200530E-03
      0.325000          0.198625E-03
      0.330000          0.196227E-03
      0.335000          0.193327E-03
      0.340000          0.189970E-03
      0.345000          0.186245E-03
      0.350000          0.182272E-03
      0.355000          0.178185E-03
      0.360000          0.174117E-03
      0.365000          0.170183E-03
      0.370000          0.166467E-03
      0.375000          0.163019E-03
      0.380000          0.159847E-03
      0.385000          0.156919E-03
      0.390000          0.154175E-03
      0.395000          0.151531E-03
      0.400000          0.148895E-03
      0.405000          0.146177E-03
      0.410000          0.143300E-03
      0.415000          0.140213E-03
      0.420000          0.136896E-03
      0.425000          0.133362E-03
      0.430000          0.129657E-03
      0.435000          0.125859E-03
      0.440000          0.122067E-03
      0.445000          0.118398E-03
      0.450000          0.114969E-03
      0.455000          0.111895E-03
      0.460000          0.109273E-03
      0.465000          0.107174E-03
      0.470000          0.105638E-03
      0.475000          0.104672E-03
      0.480000          0.104241E-03
      0.485000          0.104278E-03
      0.490000          0.104685E-03
      0.495000          0.105337E-03
      0.500000          0.106096E-03
