 I_abs(s)[cm^-1]/c[mg/ml]
       0.00000          0.142056E-01
      0.500000E-02      0.141585E-01
      0.100000E-01      0.140181E-01
      0.150000E-01      0.137874E-01
      0.200000E-01      0.134711E-01
      0.250000E-01      0.130754E-01
      0.300000E-01      0.126084E-01
      0.350000E-01      0.120790E-01
      0.400000E-01      0.114972E-01
      0.450000E-01      0.108738E-01
      0.500000E-01      0.102195E-01
      0.550000E-01      0.954555E-02
      0.600000E-01      0.886250E-02
      0.650000E-01      0.818054E-02
      0.700000E-01      0.750900E-02
      0.750000E-01      0.685626E-02
      0.800000E-01      0.622951E-02
      0.850000E-01      0.563472E-02
      0.900000E-01      0.507653E-02
      0.950000E-01      0.455826E-02
      0.100000          0.408196E-02
      0.105000          0.364849E-02
      0.110000          0.325759E-02
      0.115000          0.290806E-02
      0.120000          0.259790E-02
      0.125000          0.232451E-02
      0.130000          0.208478E-02
      0.135000          0.187534E-02
      0.140000          0.169269E-02
      0.145000          0.153330E-02
      0.150000          0.139381E-02
      0.155000          0.127105E-02
      0.160000          0.116214E-02
      0.165000          0.106459E-02
      0.170000          0.976256E-03
      0.175000          0.895375E-03
      0.180000          0.820572E-03
      0.185000          0.750814E-03
      0.190000          0.685375E-03
      0.195000          0.623799E-03
      0.200000          0.565838E-03
      0.205000          0.511413E-03
      0.210000          0.460553E-03
      0.215000          0.413358E-03
      0.220000          0.369953E-03
      0.225000          0.330455E-03
      0.230000          0.294949E-03
      0.235000          0.263467E-03
      0.240000          0.235977E-03
      0.245000          0.212378E-03
      0.250000          0.192501E-03
      0.255000          0.176117E-03
      0.260000          0.162941E-03
      0.265000          0.152648E-03
      0.270000          0.144885E-03
      0.275000          0.139286E-03
      0.280000          0.135479E-03
      0.285000          0.133105E-03
      0.290000          0.131825E-03
      0.295000          0.131327E-03
      0.300000          0.131333E-03
      0.305000          0.131604E-03
      0.310000          0.131942E-03
      0.315000          0.132187E-03
      0.320000          0.132220E-03
      0.325000          0.131960E-03
      0.330000          0.131355E-03
      0.335000          0.130387E-03
      0.340000          0.129059E-03
      0.345000          0.127395E-03
      0.350000          0.125436E-03
      0.355000          0.123234E-03
      0.360000          0.120848E-03
      0.365000          0.118341E-03
      0.370000          0.115776E-03
      0.375000          0.113217E-03
      0.380000          0.110721E-03
      0.385000          0.108341E-03
      0.390000          0.106121E-03
      0.395000          0.104098E-03
      0.400000          0.102299E-03
      0.405000          0.100742E-03
      0.410000          0.994351E-04
      0.415000          0.983764E-04
      0.420000          0.975555E-04
      0.425000          0.969532E-04
      0.430000          0.965427E-04
      0.435000          0.962911E-04
      0.440000          0.961604E-04
      0.445000          0.961089E-04
      0.450000          0.960933E-04
      0.455000          0.960700E-04
      0.460000          0.959971E-04
      0.465000          0.958360E-04
      0.470000          0.955527E-04
      0.475000          0.951198E-04
      0.480000          0.945171E-04
      0.485000          0.937328E-04
      0.490000          0.927639E-04
      0.495000          0.916165E-04
      0.500000          0.903052E-04
