 I_abs(s)[cm^-1]/c[mg/ml]
       0.00000          0.138705E-01
      0.500000E-02      0.138158E-01
      0.100000E-01      0.136529E-01
      0.150000E-01      0.133860E-01
      0.200000E-01      0.130217E-01
      0.250000E-01      0.125690E-01
      0.300000E-01      0.120387E-01
      0.350000E-01      0.114434E-01
      0.400000E-01      0.107965E-01
      0.450000E-01      0.101119E-01
      0.500000E-01      0.940393E-02
      0.550000E-01      0.868624E-02
      0.600000E-01      0.797175E-02
      0.650000E-01      0.727218E-02
      0.700000E-01      0.659777E-02
      0.750000E-01      0.595704E-02
      0.800000E-01      0.535668E-02
      0.850000E-01      0.480150E-02
      0.900000E-01      0.429447E-02
      0.950000E-01      0.383682E-02
      0.100000          0.342824E-02
      0.105000          0.306707E-02
      0.110000          0.275056E-02
      0.115000          0.247513E-02
      0.120000          0.223664E-02
      0.125000          0.203066E-02
      0.130000          0.185268E-02
      0.135000          0.169832E-02
      0.140000          0.156346E-02
      0.145000          0.144442E-02
      0.150000          0.133798E-02
      0.155000          0.124146E-02
      0.160000          0.115270E-02
      0.165000          0.107003E-02
      0.170000          0.992267E-03
      0.175000          0.918594E-03
      0.180000          0.848533E-03
      0.185000          0.781853E-03
      0.190000          0.718500E-03
      0.195000          0.658532E-03
      0.200000          0.602068E-03
      0.205000          0.549237E-03
      0.210000          0.500149E-03
      0.215000          0.454874E-03
      0.220000          0.413429E-03
      0.225000          0.375772E-03
      0.230000          0.341808E-03
      0.235000          0.311394E-03
      0.240000          0.284349E-03
      0.245000          0.260464E-03
      0.250000          0.239511E-03
      0.255000          0.221251E-03
      0.260000          0.205442E-03
      0.265000          0.191844E-03
      0.270000          0.180221E-03
      0.275000          0.170345E-03
      0.280000          0.161998E-03
      0.285000          0.154971E-03
      0.290000          0.149067E-03
      0.295000          0.144101E-03
      0.300000          0.139905E-03
      0.305000          0.136326E-03
      0.310000          0.133231E-03
      0.315000          0.130507E-03
      0.320000          0.128063E-03
      0.325000          0.125833E-03
      0.330000          0.123772E-03
      0.335000          0.121855E-03
      0.340000          0.120079E-03
      0.345000          0.118452E-03
      0.350000          0.116995E-03
      0.355000          0.115734E-03
      0.360000          0.114693E-03
      0.365000          0.113894E-03
      0.370000          0.113347E-03
      0.375000          0.113053E-03
      0.380000          0.112995E-03
      0.385000          0.113143E-03
      0.390000          0.113452E-03
      0.395000          0.113866E-03
      0.400000          0.114319E-03
      0.405000          0.114740E-03
      0.410000          0.115059E-03
      0.415000          0.115211E-03
      0.420000          0.115137E-03
      0.425000          0.114793E-03
      0.430000          0.114150E-03
      0.435000          0.113196E-03
      0.440000          0.111936E-03
      0.445000          0.110391E-03
      0.450000          0.108596E-03
      0.455000          0.106601E-03
      0.460000          0.104460E-03
      0.465000          0.102232E-03
      0.470000          0.999777E-04
      0.475000          0.977511E-04
      0.480000          0.956006E-04
      0.485000          0.935643E-04
      0.490000          0.916685E-04
      0.495000          0.899274E-04
      0.500000          0.883425E-04
