 I_abs(s)[cm^-1]/c[mg/ml]
       0.00000          0.145605E-01
      0.500000E-02      0.145148E-01
      0.100000E-01      0.143785E-01
      0.150000E-01      0.141542E-01
      0.200000E-01      0.138459E-01
      0.250000E-01      0.134592E-01
      0.300000E-01      0.130010E-01
      0.350000E-01      0.124793E-01
      0.400000E-01      0.119030E-01
      0.450000E-01      0.112817E-01
      0.500000E-01      0.106254E-01
      0.550000E-01      0.994432E-02
      0.600000E-01      0.924847E-02
      0.650000E-01      0.854766E-02
      0.700000E-01      0.785112E-02
      0.750000E-01      0.716737E-02
      0.800000E-01      0.650403E-02
      0.850000E-01      0.586772E-02
      0.900000E-01      0.526398E-02
      0.950000E-01      0.469718E-02
      0.100000          0.417058E-02
      0.105000          0.368626E-02
      0.110000          0.324528E-02
      0.115000          0.284766E-02
      0.120000          0.249256E-02
      0.125000          0.217838E-02
      0.130000          0.190287E-02
      0.135000          0.166329E-02
      0.140000          0.145657E-02
      0.145000          0.127939E-02
      0.150000          0.112835E-02
      0.155000          0.100008E-02
      0.160000          0.891314E-03
      0.165000          0.798978E-03
      0.170000          0.720268E-03
      0.175000          0.652676E-03
      0.180000          0.594025E-03
      0.185000          0.542477E-03
      0.190000          0.496527E-03
      0.195000          0.454986E-03
      0.200000          0.416956E-03
      0.205000          0.381795E-03
      0.210000          0.349079E-03
      0.215000          0.318559E-03
      0.220000          0.290124E-03
      0.225000          0.263758E-03
      0.230000          0.239507E-03
      0.235000          0.217446E-03
      0.240000          0.197653E-03
      0.245000          0.180192E-03
      0.250000          0.165092E-03
      0.255000          0.152342E-03
      0.260000          0.141889E-03
      0.265000          0.133631E-03
      0.270000          0.127424E-03
      0.275000          0.123091E-03
      0.280000          0.120422E-03
      0.285000          0.119192E-03
      0.290000          0.119162E-03
      0.295000          0.120094E-03
      0.300000          0.121752E-03
      0.305000          0.123917E-03
      0.310000          0.126386E-03
      0.315000          0.128979E-03
      0.320000          0.131541E-03
      0.325000          0.133943E-03
      0.330000          0.136081E-03
      0.335000          0.137877E-03
      0.340000          0.139276E-03
      0.345000          0.140243E-03
      0.350000          0.140764E-03
      0.355000          0.140836E-03
      0.360000          0.140472E-03
      0.365000          0.139694E-03
      0.370000          0.138533E-03
      0.375000          0.137023E-03
      0.380000          0.135204E-03
      0.385000          0.133118E-03
      0.390000          0.130808E-03
      0.395000          0.128320E-03
      0.400000          0.125694E-03
      0.405000          0.122976E-03
      0.410000          0.120205E-03
      0.415000          0.117421E-03
      0.420000          0.114661E-03
      0.425000          0.111958E-03
      0.430000          0.109343E-03
      0.435000          0.106844E-03
      0.440000          0.104484E-03
      0.445000          0.102280E-03
      0.450000          0.100248E-03
      0.455000          0.983972E-04
      0.460000          0.967316E-04
      0.465000          0.952517E-04
      0.470000          0.939531E-04
      0.475000          0.928272E-04
      0.480000          0.918620E-04
      0.485000          0.910423E-04
      0.490000          0.903505E-04
      0.495000          0.897673E-04
      0.500000          0.892724E-04
