 I_abs(s)[cm^-1]/c[mg/ml]
       0.00000          0.145605E-01
      0.500000E-02      0.145045E-01
      0.100000E-01      0.143378E-01
      0.150000E-01      0.140643E-01
      0.200000E-01      0.136903E-01
      0.250000E-01      0.132243E-01
      0.300000E-01      0.126766E-01
      0.350000E-01      0.120591E-01
      0.400000E-01      0.113848E-01
      0.450000E-01      0.106674E-01
      0.500000E-01      0.992067E-02
      0.550000E-01      0.915825E-02
      0.600000E-01      0.839317E-02
      0.650000E-01      0.763748E-02
      0.700000E-01      0.690199E-02
      0.750000E-01      0.619602E-02
      0.800000E-01      0.552727E-02
      0.850000E-01      0.490174E-02
      0.900000E-01      0.432372E-02
      0.950000E-01      0.379586E-02
      0.100000          0.331928E-02
      0.105000          0.289370E-02
      0.110000          0.251768E-02
      0.115000          0.218880E-02
      0.120000          0.190391E-02
      0.125000          0.165930E-02
      0.130000          0.145095E-02
      0.135000          0.127469E-02
      0.140000          0.112639E-02
      0.145000          0.100206E-02
      0.150000          0.897987E-03
      0.155000          0.810778E-03
      0.160000          0.737426E-03
      0.165000          0.675320E-03
      0.170000          0.622253E-03
      0.175000          0.576396E-03
      0.180000          0.536274E-03
      0.185000          0.500724E-03
      0.190000          0.468853E-03
      0.195000          0.439993E-03
      0.200000          0.413658E-03
      0.205000          0.389501E-03
      0.210000          0.367282E-03
      0.215000          0.346835E-03
      0.220000          0.328040E-03
      0.225000          0.310810E-03
      0.230000          0.295068E-03
      0.235000          0.280741E-03
      0.240000          0.267755E-03
      0.245000          0.256024E-03
      0.250000          0.245456E-03
      0.255000          0.235951E-03
      0.260000          0.227399E-03
      0.265000          0.219691E-03
      0.270000          0.212713E-03
      0.275000          0.206357E-03
      0.280000          0.200520E-03
      0.285000          0.195107E-03
      0.290000          0.190036E-03
      0.295000          0.185239E-03
      0.300000          0.180662E-03
      0.305000          0.176265E-03
      0.310000          0.172024E-03
      0.315000          0.167926E-03
      0.320000          0.163973E-03
      0.325000          0.160171E-03
      0.330000          0.156535E-03
      0.335000          0.153082E-03
      0.340000          0.149826E-03
      0.345000          0.146781E-03
      0.350000          0.143954E-03
      0.355000          0.141345E-03
      0.360000          0.138945E-03
      0.365000          0.136738E-03
      0.370000          0.134699E-03
      0.375000          0.132795E-03
      0.380000          0.130991E-03
      0.385000          0.129247E-03
      0.390000          0.127525E-03
      0.395000          0.125787E-03
      0.400000          0.124003E-03
      0.405000          0.122146E-03
      0.410000          0.120201E-03
      0.415000          0.118159E-03
      0.420000          0.116023E-03
      0.425000          0.113804E-03
      0.430000          0.111522E-03
      0.435000          0.109201E-03
      0.440000          0.106872E-03
      0.445000          0.104568E-03
      0.450000          0.102322E-03
      0.455000          0.100164E-03
      0.460000          0.981224E-04
      0.465000          0.962179E-04
      0.470000          0.944657E-04
      0.475000          0.928736E-04
      0.480000          0.914422E-04
      0.485000          0.901650E-04
      0.490000          0.890295E-04
      0.495000          0.880182E-04
      0.500000          0.871099E-04
