 I_abs(s)[cm^-1]/c[mg/ml]
       0.00000          0.147196E-01
      0.500000E-02      0.146593E-01
      0.100000E-01      0.144798E-01
      0.150000E-01      0.141856E-01
      0.200000E-01      0.137836E-01
      0.250000E-01      0.132834E-01
      0.300000E-01      0.126965E-01
      0.350000E-01      0.120363E-01
      0.400000E-01      0.113171E-01
      0.450000E-01      0.105540E-01
      0.500000E-01      0.976209E-02
      0.550000E-01      0.895634E-02
      0.600000E-01      0.815083E-02
      0.650000E-01      0.735851E-02
      0.700000E-01      0.659086E-02
      0.750000E-01      0.585770E-02
      0.800000E-01      0.516704E-02
      0.850000E-01      0.452500E-02
      0.900000E-01      0.393585E-02
      0.950000E-01      0.340211E-02
      0.100000          0.292467E-02
      0.105000          0.250296E-02
      0.110000          0.213521E-02
      0.115000          0.181865E-02
      0.120000          0.154972E-02
      0.125000          0.132434E-02
      0.130000          0.113807E-02
      0.135000          0.986327E-03
      0.140000          0.864512E-03
      0.145000          0.768167E-03
      0.150000          0.693066E-03
      0.155000          0.635288E-03
      0.160000          0.591278E-03
      0.165000          0.557872E-03
      0.170000          0.532320E-03
      0.175000          0.512285E-03
      0.180000          0.495833E-03
      0.185000          0.481417E-03
      0.190000          0.467851E-03
      0.195000          0.454283E-03
      0.200000          0.440153E-03
      0.205000          0.425167E-03
      0.210000          0.409245E-03
      0.215000          0.392487E-03
      0.220000          0.375130E-03
      0.225000          0.357502E-03
      0.230000          0.339985E-03
      0.235000          0.322977E-03
      0.240000          0.306860E-03
      0.245000          0.291968E-03
      0.250000          0.278568E-03
      0.255000          0.266844E-03
      0.260000          0.256890E-03
      0.265000          0.248707E-03
      0.270000          0.242206E-03
      0.275000          0.237225E-03
      0.280000          0.233535E-03
      0.285000          0.230867E-03
      0.290000          0.228924E-03
      0.295000          0.227405E-03
      0.300000          0.226019E-03
      0.305000          0.224507E-03
      0.310000          0.222647E-03
      0.315000          0.220268E-03
      0.320000          0.217254E-03
      0.325000          0.213543E-03
      0.330000          0.209126E-03
      0.335000          0.204041E-03
      0.340000          0.198363E-03
      0.345000          0.192200E-03
      0.350000          0.185678E-03
      0.355000          0.178933E-03
      0.360000          0.172104E-03
      0.365000          0.165320E-03
      0.370000          0.158703E-03
      0.375000          0.152353E-03
      0.380000          0.146355E-03
      0.385000          0.140771E-03
      0.390000          0.135646E-03
      0.395000          0.131004E-03
      0.400000          0.126855E-03
      0.405000          0.123196E-03
      0.410000          0.120014E-03
      0.415000          0.117286E-03
      0.420000          0.114987E-03
      0.425000          0.113086E-03
      0.430000          0.111551E-03
      0.435000          0.110351E-03
      0.440000          0.109452E-03
      0.445000          0.108820E-03
      0.450000          0.108421E-03
      0.455000          0.108223E-03
      0.460000          0.108188E-03
      0.465000          0.108284E-03
      0.470000          0.108473E-03
      0.475000          0.108720E-03
      0.480000          0.108990E-03
      0.485000          0.109248E-03
      0.490000          0.109462E-03
      0.495000          0.109600E-03
      0.500000          0.109638E-03
