 I_abs(s)[cm^-1]/c[mg/ml]
       0.00000          0.142684E-01
      0.500000E-02      0.142160E-01
      0.100000E-01      0.140601E-01
      0.150000E-01      0.138044E-01
      0.200000E-01      0.134546E-01
      0.250000E-01      0.130189E-01
      0.300000E-01      0.125068E-01
      0.350000E-01      0.119296E-01
      0.400000E-01      0.112994E-01
      0.450000E-01      0.106289E-01
      0.500000E-01      0.993125E-02
      0.550000E-01      0.921913E-02
      0.600000E-01      0.850474E-02
      0.650000E-01      0.779934E-02
      0.700000E-01      0.711298E-02
      0.750000E-01      0.645428E-02
      0.800000E-01      0.583030E-02
      0.850000E-01      0.524644E-02
      0.900000E-01      0.470646E-02
      0.950000E-01      0.421250E-02
      0.100000          0.376526E-02
      0.105000          0.336408E-02
      0.110000          0.300722E-02
      0.115000          0.269203E-02
      0.120000          0.241516E-02
      0.125000          0.217287E-02
      0.130000          0.196115E-02
      0.135000          0.177599E-02
      0.140000          0.161349E-02
      0.145000          0.147005E-02
      0.150000          0.134242E-02
      0.155000          0.122780E-02
      0.160000          0.112383E-02
      0.165000          0.102865E-02
      0.170000          0.940807E-03
      0.175000          0.859274E-03
      0.180000          0.783347E-03
      0.185000          0.712597E-03
      0.190000          0.646797E-03
      0.195000          0.585855E-03
      0.200000          0.529752E-03
      0.205000          0.478491E-03
      0.210000          0.432056E-03
      0.215000          0.390383E-03
      0.220000          0.353343E-03
      0.225000          0.320732E-03
      0.230000          0.292278E-03
      0.235000          0.267649E-03
      0.240000          0.246467E-03
      0.245000          0.228329E-03
      0.250000          0.212823E-03
      0.255000          0.199546E-03
      0.260000          0.188122E-03
      0.265000          0.178213E-03
      0.270000          0.169525E-03
      0.275000          0.161817E-03
      0.280000          0.154898E-03
      0.285000          0.148626E-03
      0.290000          0.142903E-03
      0.295000          0.137664E-03
      0.300000          0.132873E-03
      0.305000          0.128513E-03
      0.310000          0.124578E-03
      0.315000          0.121066E-03
      0.320000          0.117972E-03
      0.325000          0.115287E-03
      0.330000          0.112994E-03
      0.335000          0.111066E-03
      0.340000          0.109469E-03
      0.345000          0.108162E-03
      0.350000          0.107100E-03
      0.355000          0.106236E-03
      0.360000          0.105524E-03
      0.365000          0.104920E-03
      0.370000          0.104385E-03
      0.375000          0.103888E-03
      0.380000          0.103402E-03
      0.385000          0.102907E-03
      0.390000          0.102392E-03
      0.395000          0.101849E-03
      0.400000          0.101273E-03
      0.405000          0.100664E-03
      0.410000          0.100023E-03
      0.415000          0.993519E-04
      0.420000          0.986503E-04
      0.425000          0.979185E-04
      0.430000          0.971548E-04
      0.435000          0.963561E-04
      0.440000          0.955184E-04
      0.445000          0.946370E-04
      0.450000          0.937074E-04
      0.455000          0.927257E-04
      0.460000          0.916891E-04
      0.465000          0.905971E-04
      0.470000          0.894510E-04
      0.475000          0.882550E-04
      0.480000          0.870155E-04
      0.485000          0.857412E-04
      0.490000          0.844429E-04
      0.495000          0.831327E-04
      0.500000          0.818235E-04
