 I_abs(s)[cm^-1]/c[mg/ml]
       0.00000          0.143864E-01
      0.500000E-02      0.143414E-01
      0.100000E-01      0.142073E-01
      0.150000E-01      0.139866E-01
      0.200000E-01      0.136835E-01
      0.250000E-01      0.133035E-01
      0.300000E-01      0.128537E-01
      0.350000E-01      0.123420E-01
      0.400000E-01      0.117775E-01
      0.450000E-01      0.111698E-01
      0.500000E-01      0.105286E-01
      0.550000E-01      0.986423E-02
      0.600000E-01      0.918645E-02
      0.650000E-01      0.850483E-02
      0.700000E-01      0.782830E-02
      0.750000E-01      0.716501E-02
      0.800000E-01      0.652221E-02
      0.850000E-01      0.590608E-02
      0.900000E-01      0.532173E-02
      0.950000E-01      0.477311E-02
      0.100000          0.426307E-02
      0.105000          0.379335E-02
      0.110000          0.336469E-02
      0.115000          0.297692E-02
      0.120000          0.262905E-02
      0.125000          0.231942E-02
      0.130000          0.204585E-02
      0.135000          0.180572E-02
      0.140000          0.159618E-02
      0.145000          0.141418E-02
      0.150000          0.125667E-02
      0.155000          0.112065E-02
      0.160000          0.100324E-02
      0.165000          0.901757E-03
      0.170000          0.813780E-03
      0.175000          0.737139E-03
      0.180000          0.669949E-03
      0.185000          0.610606E-03
      0.190000          0.557775E-03
      0.195000          0.510370E-03
      0.200000          0.467527E-03
      0.205000          0.428575E-03
      0.210000          0.393007E-03
      0.215000          0.360444E-03
      0.220000          0.330611E-03
      0.225000          0.303306E-03
      0.230000          0.278381E-03
      0.235000          0.255719E-03
      0.240000          0.235225E-03
      0.245000          0.216808E-03
      0.250000          0.200379E-03
      0.255000          0.185846E-03
      0.260000          0.173109E-03
      0.265000          0.162063E-03
      0.270000          0.152596E-03
      0.275000          0.144596E-03
      0.280000          0.137946E-03
      0.285000          0.132532E-03
      0.290000          0.128241E-03
      0.295000          0.124964E-03
      0.300000          0.122595E-03
      0.305000          0.121031E-03
      0.310000          0.120174E-03
      0.315000          0.119928E-03
      0.320000          0.120201E-03
      0.325000          0.120901E-03
      0.330000          0.121938E-03
      0.335000          0.123223E-03
      0.340000          0.124668E-03
      0.345000          0.126189E-03
      0.350000          0.127702E-03
      0.355000          0.129127E-03
      0.360000          0.130393E-03
      0.365000          0.131431E-03
      0.370000          0.132182E-03
      0.375000          0.132599E-03
      0.380000          0.132643E-03
      0.385000          0.132289E-03
      0.390000          0.131522E-03
      0.395000          0.130344E-03
      0.400000          0.128764E-03
      0.405000          0.126808E-03
      0.410000          0.124510E-03
      0.415000          0.121912E-03
      0.420000          0.119067E-03
      0.425000          0.116031E-03
      0.430000          0.112863E-03
      0.435000          0.109624E-03
      0.440000          0.106375E-03
      0.445000          0.103173E-03
      0.450000          0.100069E-03
      0.455000          0.971095E-04
      0.460000          0.943332E-04
      0.465000          0.917702E-04
      0.470000          0.894421E-04
      0.475000          0.873616E-04
      0.480000          0.855326E-04
      0.485000          0.839512E-04
      0.490000          0.826062E-04
      0.495000          0.814804E-04
      0.500000          0.805514E-04
