 I_abs(s)[cm^-1]/c[mg/ml]
       0.00000          0.140103E-01
      0.500000E-02      0.139460E-01
      0.100000E-01      0.137550E-01
      0.150000E-01      0.134432E-01
      0.200000E-01      0.130198E-01
      0.250000E-01      0.124974E-01
      0.300000E-01      0.118909E-01
      0.350000E-01      0.112170E-01
      0.400000E-01      0.104939E-01
      0.450000E-01      0.973961E-02
      0.500000E-01      0.897206E-02
      0.550000E-01      0.820794E-02
      0.600000E-01      0.746227E-02
      0.650000E-01      0.674794E-02
      0.700000E-01      0.607530E-02
      0.750000E-01      0.545210E-02
      0.800000E-01      0.488338E-02
      0.850000E-01      0.437160E-02
      0.900000E-01      0.391691E-02
      0.950000E-01      0.351741E-02
      0.100000          0.316959E-02
      0.105000          0.286873E-02
      0.110000          0.260936E-02
      0.115000          0.238562E-02
      0.120000          0.219168E-02
      0.125000          0.202201E-02
      0.130000          0.187164E-02
      0.135000          0.173632E-02
      0.140000          0.161257E-02
      0.145000          0.149774E-02
      0.150000          0.138991E-02
      0.155000          0.128787E-02
      0.160000          0.119095E-02
      0.165000          0.109887E-02
      0.170000          0.101166E-02
      0.175000          0.929484E-03
      0.180000          0.852544E-03
      0.185000          0.780999E-03
      0.190000          0.714906E-03
      0.195000          0.654193E-03
      0.200000          0.598649E-03
      0.205000          0.547949E-03
      0.210000          0.501679E-03
      0.215000          0.459379E-03
      0.220000          0.420584E-03
      0.225000          0.384860E-03
      0.230000          0.351841E-03
      0.235000          0.321246E-03
      0.240000          0.292887E-03
      0.245000          0.266670E-03
      0.250000          0.242584E-03
      0.255000          0.220672E-03
      0.260000          0.201016E-03
      0.265000          0.183702E-03
      0.270000          0.168796E-03
      0.275000          0.156322E-03
      0.280000          0.146243E-03
      0.285000          0.138452E-03
      0.290000          0.132773E-03
      0.295000          0.128960E-03
      0.300000          0.126714E-03
      0.305000          0.125694E-03
      0.310000          0.125544E-03
      0.315000          0.125907E-03
      0.320000          0.126448E-03
      0.325000          0.126871E-03
      0.330000          0.126938E-03
      0.335000          0.126469E-03
      0.340000          0.125356E-03
      0.345000          0.123559E-03
      0.350000          0.121101E-03
      0.355000          0.118060E-03
      0.360000          0.114556E-03
      0.365000          0.110741E-03
      0.370000          0.106781E-03
      0.375000          0.102846E-03
      0.380000          0.990932E-04
      0.385000          0.956624E-04
      0.390000          0.926638E-04
      0.395000          0.901751E-04
      0.400000          0.882390E-04
      0.405000          0.868640E-04
      0.410000          0.860271E-04
      0.415000          0.856785E-04
      0.420000          0.857481E-04
      0.425000          0.861515E-04
      0.430000          0.867975E-04
      0.435000          0.875940E-04
      0.440000          0.884540E-04
      0.445000          0.893001E-04
      0.450000          0.900680E-04
      0.455000          0.907081E-04
      0.460000          0.911865E-04
      0.465000          0.914844E-04
      0.470000          0.915967E-04
      0.475000          0.915295E-04
      0.480000          0.912978E-04
      0.485000          0.909224E-04
      0.490000          0.904273E-04
      0.495000          0.898370E-04
      0.500000          0.891749E-04
