 I_abs(s)[cm^-1]/c[mg/ml]
       0.00000          0.140570E-01
      0.500000E-02      0.140035E-01
      0.100000E-01      0.138443E-01
      0.150000E-01      0.135835E-01
      0.200000E-01      0.132274E-01
      0.250000E-01      0.127850E-01
      0.300000E-01      0.122667E-01
      0.350000E-01      0.116848E-01
      0.400000E-01      0.110523E-01
      0.450000E-01      0.103828E-01
      0.500000E-01      0.969009E-02
      0.550000E-01      0.898735E-02
      0.600000E-01      0.828702E-02
      0.650000E-01      0.760032E-02
      0.700000E-01      0.693698E-02
      0.750000E-01      0.630505E-02
      0.800000E-01      0.571077E-02
      0.850000E-01      0.515856E-02
      0.900000E-01      0.465107E-02
      0.950000E-01      0.418927E-02
      0.100000          0.377270E-02
      0.105000          0.339962E-02
      0.110000          0.306735E-02
      0.115000          0.277248E-02
      0.120000          0.251114E-02
      0.125000          0.227928E-02
      0.130000          0.207289E-02
      0.135000          0.188816E-02
      0.140000          0.172163E-02
      0.145000          0.157031E-02
      0.150000          0.143172E-02
      0.155000          0.130391E-02
      0.160000          0.118540E-02
      0.165000          0.107522E-02
      0.170000          0.972728E-03
      0.175000          0.877612E-03
      0.180000          0.789755E-03
      0.185000          0.709163E-03
      0.190000          0.635881E-03
      0.195000          0.569928E-03
      0.200000          0.511245E-03
      0.205000          0.459662E-03
      0.210000          0.414882E-03
      0.215000          0.376475E-03
      0.220000          0.343899E-03
      0.225000          0.316516E-03
      0.230000          0.293626E-03
      0.235000          0.274501E-03
      0.240000          0.258421E-03
      0.245000          0.244704E-03
      0.250000          0.232735E-03
      0.255000          0.221985E-03
      0.260000          0.212031E-03
      0.265000          0.202552E-03
      0.270000          0.193336E-03
      0.275000          0.184269E-03
      0.280000          0.175321E-03
      0.285000          0.166533E-03
      0.290000          0.157992E-03
      0.295000          0.149821E-03
      0.300000          0.142150E-03
      0.305000          0.135110E-03
      0.310000          0.128810E-03
      0.315000          0.123336E-03
      0.320000          0.118737E-03
      0.325000          0.115028E-03
      0.330000          0.112185E-03
      0.335000          0.110155E-03
      0.340000          0.108855E-03
      0.345000          0.108179E-03
      0.350000          0.108010E-03
      0.355000          0.108224E-03
      0.360000          0.108697E-03
      0.365000          0.109310E-03
      0.370000          0.109957E-03
      0.375000          0.110547E-03
      0.380000          0.111003E-03
      0.385000          0.111269E-03
      0.390000          0.111303E-03
      0.395000          0.111081E-03
      0.400000          0.110594E-03
      0.405000          0.109842E-03
      0.410000          0.108839E-03
      0.415000          0.107604E-03
      0.420000          0.106162E-03
      0.425000          0.104542E-03
      0.430000          0.102775E-03
      0.435000          0.100894E-03
      0.440000          0.989329E-04
      0.445000          0.969240E-04
      0.450000          0.949005E-04
      0.455000          0.928945E-04
      0.460000          0.909369E-04
      0.465000          0.890574E-04
      0.470000          0.872834E-04
      0.475000          0.856399E-04
      0.480000          0.841485E-04
      0.485000          0.828268E-04
      0.490000          0.816876E-04
      0.495000          0.807383E-04
      0.500000          0.799803E-04
