 I_abs(s)[cm^-1]/c[mg/ml]
       0.00000          0.142841E-01
      0.500000E-02      0.142311E-01
      0.100000E-01      0.140732E-01
      0.150000E-01      0.138142E-01
      0.200000E-01      0.134598E-01
      0.250000E-01      0.130178E-01
      0.300000E-01      0.124979E-01
      0.350000E-01      0.119112E-01
      0.400000E-01      0.112699E-01
      0.450000E-01      0.105867E-01
      0.500000E-01      0.987473E-02
      0.550000E-01      0.914698E-02
      0.600000E-01      0.841589E-02
      0.650000E-01      0.769304E-02
      0.700000E-01      0.698890E-02
      0.750000E-01      0.631257E-02
      0.800000E-01      0.567161E-02
      0.850000E-01      0.507196E-02
      0.900000E-01      0.451789E-02
      0.950000E-01      0.401206E-02
      0.100000          0.355558E-02
      0.105000          0.314815E-02
      0.110000          0.278828E-02
      0.115000          0.247343E-02
      0.120000          0.220030E-02
      0.125000          0.196500E-02
      0.130000          0.176330E-02
      0.135000          0.159085E-02
      0.140000          0.144333E-02
      0.145000          0.131663E-02
      0.150000          0.120695E-02
      0.155000          0.111095E-02
      0.160000          0.102571E-02
      0.165000          0.948861E-03
      0.170000          0.878502E-03
      0.175000          0.813211E-03
      0.180000          0.751991E-03
      0.185000          0.694211E-03
      0.190000          0.639534E-03
      0.195000          0.587851E-03
      0.200000          0.539209E-03
      0.205000          0.493746E-03
      0.210000          0.451637E-03
      0.215000          0.413047E-03
      0.220000          0.378094E-03
      0.225000          0.346829E-03
      0.230000          0.319221E-03
      0.235000          0.295154E-03
      0.240000          0.274433E-03
      0.245000          0.256795E-03
      0.250000          0.241925E-03
      0.255000          0.229472E-03
      0.260000          0.219071E-03
      0.265000          0.210357E-03
      0.270000          0.202982E-03
      0.275000          0.196629E-03
      0.280000          0.191020E-03
      0.285000          0.185921E-03
      0.290000          0.181147E-03
      0.295000          0.176558E-03
      0.300000          0.172057E-03
      0.305000          0.167586E-03
      0.310000          0.163121E-03
      0.315000          0.158660E-03
      0.320000          0.154220E-03
      0.325000          0.149832E-03
      0.330000          0.145531E-03
      0.335000          0.141353E-03
      0.340000          0.137335E-03
      0.345000          0.133508E-03
      0.350000          0.129896E-03
      0.355000          0.126518E-03
      0.360000          0.123387E-03
      0.365000          0.120510E-03
      0.370000          0.117891E-03
      0.375000          0.115529E-03
      0.380000          0.113419E-03
      0.385000          0.111555E-03
      0.390000          0.109932E-03
      0.395000          0.108539E-03
      0.400000          0.107367E-03
      0.405000          0.106403E-03
      0.410000          0.105635E-03
      0.415000          0.105046E-03
      0.420000          0.104619E-03
      0.425000          0.104332E-03
      0.430000          0.104163E-03
      0.435000          0.104087E-03
      0.440000          0.104075E-03
      0.445000          0.104101E-03
      0.450000          0.104134E-03
      0.455000          0.104147E-03
      0.460000          0.104114E-03
      0.465000          0.104010E-03
      0.470000          0.103814E-03
      0.475000          0.103511E-03
      0.480000          0.103089E-03
      0.485000          0.102541E-03
      0.490000          0.101867E-03
      0.495000          0.101073E-03
      0.500000          0.100167E-03
