 I_abs(s)[cm^-1]/c[mg/ml]
       0.00000          0.146638E-01
      0.500000E-02      0.146122E-01
      0.100000E-01      0.144584E-01
      0.150000E-01      0.142057E-01
      0.200000E-01      0.138593E-01
      0.250000E-01      0.134263E-01
      0.300000E-01      0.129154E-01
      0.350000E-01      0.123367E-01
      0.400000E-01      0.117012E-01
      0.450000E-01      0.110208E-01
      0.500000E-01      0.103076E-01
      0.550000E-01      0.957375E-02
      0.600000E-01      0.883113E-02
      0.650000E-01      0.809094E-02
      0.700000E-01      0.736346E-02
      0.750000E-01      0.665791E-02
      0.800000E-01      0.598218E-02
      0.850000E-01      0.534281E-02
      0.900000E-01      0.474484E-02
      0.950000E-01      0.419188E-02
      0.100000          0.368612E-02
      0.105000          0.322842E-02
      0.110000          0.281844E-02
      0.115000          0.245481E-02
      0.120000          0.213530E-02
      0.125000          0.185700E-02
      0.130000          0.161649E-02
      0.135000          0.141008E-02
      0.140000          0.123391E-02
      0.145000          0.108416E-02
      0.150000          0.957155E-03
      0.155000          0.849442E-03
      0.160000          0.757908E-03
      0.165000          0.679804E-03
      0.170000          0.612776E-03
      0.175000          0.554866E-03
      0.180000          0.504491E-03
      0.185000          0.460417E-03
      0.190000          0.421708E-03
      0.195000          0.387681E-03
      0.200000          0.357848E-03
      0.205000          0.331869E-03
      0.210000          0.309496E-03
      0.215000          0.290536E-03
      0.220000          0.274813E-03
      0.225000          0.262140E-03
      0.230000          0.252303E-03
      0.235000          0.245047E-03
      0.240000          0.240079E-03
      0.245000          0.237068E-03
      0.250000          0.235654E-03
      0.255000          0.235460E-03
      0.260000          0.236109E-03
      0.265000          0.237235E-03
      0.270000          0.238497E-03
      0.275000          0.239591E-03
      0.280000          0.240261E-03
      0.285000          0.240304E-03
      0.290000          0.239572E-03
      0.295000          0.237975E-03
      0.300000          0.235474E-03
      0.305000          0.232081E-03
      0.310000          0.227847E-03
      0.315000          0.222860E-03
      0.320000          0.217230E-03
      0.325000          0.211084E-03
      0.330000          0.204556E-03
      0.335000          0.197783E-03
      0.340000          0.190893E-03
      0.345000          0.184004E-03
      0.350000          0.177219E-03
      0.355000          0.170624E-03
      0.360000          0.164286E-03
      0.365000          0.158256E-03
      0.370000          0.152566E-03
      0.375000          0.147232E-03
      0.380000          0.142257E-03
      0.385000          0.137636E-03
      0.390000          0.133350E-03
      0.395000          0.129377E-03
      0.400000          0.125691E-03
      0.405000          0.122263E-03
      0.410000          0.119063E-03
      0.415000          0.116063E-03
      0.420000          0.113237E-03
      0.425000          0.110558E-03
      0.430000          0.108007E-03
      0.435000          0.105563E-03
      0.440000          0.103212E-03
      0.445000          0.100940E-03
      0.450000          0.987397E-04
      0.455000          0.966028E-04
      0.460000          0.945259E-04
      0.465000          0.925072E-04
      0.470000          0.905471E-04
      0.475000          0.886478E-04
      0.480000          0.868130E-04
      0.485000          0.850474E-04
      0.490000          0.833564E-04
      0.495000          0.817460E-04
      0.500000          0.802221E-04
