 I_abs(s)[cm^-1]/c[mg/ml]
       0.00000          0.145605E-01
      0.500000E-02      0.145215E-01
      0.100000E-01      0.144052E-01
      0.150000E-01      0.142133E-01
      0.200000E-01      0.139486E-01
      0.250000E-01      0.136152E-01
      0.300000E-01      0.132179E-01
      0.350000E-01      0.127625E-01
      0.400000E-01      0.122554E-01
      0.450000E-01      0.117039E-01
      0.500000E-01      0.111153E-01
      0.550000E-01      0.104975E-01
      0.600000E-01      0.985831E-02
      0.650000E-01      0.920570E-02
      0.700000E-01      0.854729E-02
      0.750000E-01      0.789044E-02
      0.800000E-01      0.724202E-02
      0.850000E-01      0.660835E-02
      0.900000E-01      0.599507E-02
      0.950000E-01      0.540713E-02
      0.100000          0.484866E-02
      0.105000          0.432301E-02
      0.110000          0.383272E-02
      0.115000          0.337952E-02
      0.120000          0.296436E-02
      0.125000          0.258750E-02
      0.130000          0.224851E-02
      0.135000          0.194641E-02
      0.140000          0.167967E-02
      0.145000          0.144636E-02
      0.150000          0.124423E-02
      0.155000          0.107075E-02
      0.160000          0.923269E-03
      0.165000          0.799025E-03
      0.170000          0.695267E-03
      0.175000          0.609296E-03
      0.180000          0.538533E-03
      0.185000          0.480556E-03
      0.190000          0.433143E-03
      0.195000          0.394292E-03
      0.200000          0.362240E-03
      0.205000          0.335470E-03
      0.210000          0.312705E-03
      0.215000          0.292904E-03
      0.220000          0.275244E-03
      0.225000          0.259102E-03
      0.230000          0.244032E-03
      0.235000          0.229739E-03
      0.240000          0.216054E-03
      0.245000          0.202910E-03
      0.250000          0.190312E-03
      0.255000          0.178320E-03
      0.260000          0.167024E-03
      0.265000          0.156530E-03
      0.270000          0.146941E-03
      0.275000          0.138347E-03
      0.280000          0.130821E-03
      0.285000          0.124403E-03
      0.290000          0.119109E-03
      0.295000          0.114921E-03
      0.300000          0.111794E-03
      0.305000          0.109657E-03
      0.310000          0.108416E-03
      0.315000          0.107961E-03
      0.320000          0.108172E-03
      0.325000          0.108919E-03
      0.330000          0.110075E-03
      0.335000          0.111513E-03
      0.340000          0.113116E-03
      0.345000          0.114777E-03
      0.350000          0.116401E-03
      0.355000          0.117910E-03
      0.360000          0.119241E-03
      0.365000          0.120346E-03
      0.370000          0.121193E-03
      0.375000          0.121765E-03
      0.380000          0.122055E-03
      0.385000          0.122069E-03
      0.390000          0.121822E-03
      0.395000          0.121335E-03
      0.400000          0.120635E-03
      0.405000          0.119748E-03
      0.410000          0.118707E-03
      0.415000          0.117540E-03
      0.420000          0.116274E-03
      0.425000          0.114935E-03
      0.430000          0.113546E-03
      0.435000          0.112123E-03
      0.440000          0.110683E-03
      0.445000          0.109235E-03
      0.450000          0.107788E-03
      0.455000          0.106345E-03
      0.460000          0.104909E-03
      0.465000          0.103480E-03
      0.470000          0.102055E-03
      0.475000          0.100634E-03
      0.480000          0.992142E-04
      0.485000          0.977929E-04
      0.490000          0.963688E-04
      0.495000          0.949413E-04
      0.500000          0.935108E-04
