 I_abs(s)[cm^-1]/c[mg/ml]
       0.00000          0.144101E-01
      0.500000E-02      0.143545E-01
      0.100000E-01      0.141889E-01
      0.150000E-01      0.139170E-01
      0.200000E-01      0.135449E-01
      0.250000E-01      0.130808E-01
      0.300000E-01      0.125347E-01
      0.350000E-01      0.119182E-01
      0.400000E-01      0.112439E-01
      0.450000E-01      0.105253E-01
      0.500000E-01      0.977611E-02
      0.550000E-01      0.900999E-02
      0.600000E-01      0.824009E-02
      0.650000E-01      0.747874E-02
      0.700000E-01      0.673712E-02
      0.750000E-01      0.602502E-02
      0.800000E-01      0.535066E-02
      0.850000E-01      0.472059E-02
      0.900000E-01      0.413963E-02
      0.950000E-01      0.361088E-02
      0.100000          0.313583E-02
      0.105000          0.271445E-02
      0.110000          0.234541E-02
      0.115000          0.202622E-02
      0.120000          0.175354E-02
      0.125000          0.152331E-02
      0.130000          0.133106E-02
      0.135000          0.117208E-02
      0.140000          0.104166E-02
      0.145000          0.935185E-03
      0.150000          0.848371E-03
      0.155000          0.777303E-03
      0.160000          0.718536E-03
      0.165000          0.669132E-03
      0.170000          0.626674E-03
      0.175000          0.589252E-03
      0.180000          0.555427E-03
      0.185000          0.524183E-03
      0.190000          0.494862E-03
      0.195000          0.467097E-03
      0.200000          0.440747E-03
      0.205000          0.415824E-03
      0.210000          0.392438E-03
      0.215000          0.370740E-03
      0.220000          0.350885E-03
      0.225000          0.332994E-03
      0.230000          0.317139E-03
      0.235000          0.303323E-03
      0.240000          0.291485E-03
      0.245000          0.281496E-03
      0.250000          0.273176E-03
      0.255000          0.266300E-03
      0.260000          0.260615E-03
      0.265000          0.255859E-03
      0.270000          0.251770E-03
      0.275000          0.248102E-03
      0.280000          0.244635E-03
      0.285000          0.241181E-03
      0.290000          0.237593E-03
      0.295000          0.233760E-03
      0.300000          0.229614E-03
      0.305000          0.225119E-03
      0.310000          0.220273E-03
      0.315000          0.215102E-03
      0.320000          0.209648E-03
      0.325000          0.203971E-03
      0.330000          0.198137E-03
      0.335000          0.192217E-03
      0.340000          0.186277E-03
      0.345000          0.180382E-03
      0.350000          0.174588E-03
      0.355000          0.168942E-03
      0.360000          0.163480E-03
      0.365000          0.158232E-03
      0.370000          0.153215E-03
      0.375000          0.148439E-03
      0.380000          0.143910E-03
      0.385000          0.139624E-03
      0.390000          0.135576E-03
      0.395000          0.131757E-03
      0.400000          0.128156E-03
      0.405000          0.124763E-03
      0.410000          0.121566E-03
      0.415000          0.118555E-03
      0.420000          0.115721E-03
      0.425000          0.113055E-03
      0.430000          0.110552E-03
      0.435000          0.108205E-03
      0.440000          0.106010E-03
      0.445000          0.103964E-03
      0.450000          0.102065E-03
      0.455000          0.100309E-03
      0.460000          0.986958E-04
      0.465000          0.972223E-04
      0.470000          0.958859E-04
      0.475000          0.946836E-04
      0.480000          0.936114E-04
      0.485000          0.926644E-04
      0.490000          0.918367E-04
      0.495000          0.911212E-04
      0.500000          0.905099E-04
