 I_abs(s)[cm^-1]/c[mg/ml]
       0.00000          0.145367E-01
      0.500000E-02      0.144855E-01
      0.100000E-01      0.143330E-01
      0.150000E-01      0.140825E-01
      0.200000E-01      0.137391E-01
      0.250000E-01      0.133100E-01
      0.300000E-01      0.128037E-01
      0.350000E-01      0.122302E-01
      0.400000E-01      0.116007E-01
      0.450000E-01      0.109266E-01
      0.500000E-01      0.102201E-01
      0.550000E-01      0.949294E-02
      0.600000E-01      0.875685E-02
      0.650000E-01      0.802273E-02
      0.700000E-01      0.730062E-02
      0.750000E-01      0.659946E-02
      0.800000E-01      0.592694E-02
      0.850000E-01      0.528939E-02
      0.900000E-01      0.469177E-02
      0.950000E-01      0.413762E-02
      0.100000          0.362919E-02
      0.105000          0.316748E-02
      0.110000          0.275238E-02
      0.115000          0.238284E-02
      0.120000          0.205698E-02
      0.125000          0.177232E-02
      0.130000          0.152591E-02
      0.135000          0.131449E-02
      0.140000          0.113463E-02
      0.145000          0.982871E-03
      0.150000          0.855813E-03
      0.155000          0.750204E-03
      0.160000          0.663000E-03
      0.165000          0.591411E-03
      0.170000          0.532920E-03
      0.175000          0.485296E-03
      0.180000          0.446590E-03
      0.185000          0.415122E-03
      0.190000          0.389462E-03
      0.195000          0.368407E-03
      0.200000          0.350958E-03
      0.205000          0.336294E-03
      0.210000          0.323749E-03
      0.215000          0.312789E-03
      0.220000          0.302997E-03
      0.225000          0.294051E-03
      0.230000          0.285712E-03
      0.235000          0.277810E-03
      0.240000          0.270234E-03
      0.245000          0.262919E-03
      0.250000          0.255840E-03
      0.255000          0.248997E-03
      0.260000          0.242413E-03
      0.265000          0.236123E-03
      0.270000          0.230164E-03
      0.275000          0.224573E-03
      0.280000          0.219379E-03
      0.285000          0.214599E-03
      0.290000          0.210235E-03
      0.295000          0.206271E-03
      0.300000          0.202676E-03
      0.305000          0.199403E-03
      0.310000          0.196394E-03
      0.315000          0.193579E-03
      0.320000          0.190884E-03
      0.325000          0.188237E-03
      0.330000          0.185566E-03
      0.335000          0.182810E-03
      0.340000          0.179920E-03
      0.345000          0.176860E-03
      0.350000          0.173612E-03
      0.355000          0.170173E-03
      0.360000          0.166558E-03
      0.365000          0.162798E-03
      0.370000          0.158935E-03
      0.375000          0.155021E-03
      0.380000          0.151117E-03
      0.385000          0.147283E-03
      0.390000          0.143583E-03
      0.395000          0.140073E-03
      0.400000          0.136805E-03
      0.405000          0.133820E-03
      0.410000          0.131149E-03
      0.415000          0.128810E-03
      0.420000          0.126810E-03
      0.425000          0.125143E-03
      0.430000          0.123790E-03
      0.435000          0.122725E-03
      0.440000          0.121911E-03
      0.445000          0.121306E-03
      0.450000          0.120863E-03
      0.455000          0.120532E-03
      0.460000          0.120263E-03
      0.465000          0.120009E-03
      0.470000          0.119722E-03
      0.475000          0.119362E-03
      0.480000          0.118893E-03
      0.485000          0.118284E-03
      0.490000          0.117511E-03
      0.495000          0.116557E-03
      0.500000          0.115412E-03
