 I_abs(s)[cm^-1]/c[mg/ml]
       0.00000          0.137469E-01
      0.500000E-02      0.136795E-01
      0.100000E-01      0.134797E-01
      0.150000E-01      0.131539E-01
      0.200000E-01      0.127128E-01
      0.250000E-01      0.121702E-01
      0.300000E-01      0.115431E-01
      0.350000E-01      0.108501E-01
      0.400000E-01      0.101108E-01
      0.450000E-01      0.934507E-02
      0.500000E-01      0.857195E-02
      0.550000E-01      0.780895E-02
      0.600000E-01      0.707144E-02
      0.650000E-01      0.637214E-02
      0.700000E-01      0.572086E-02
      0.750000E-01      0.512436E-02
      0.800000E-01      0.458641E-02
      0.850000E-01      0.410806E-02
      0.900000E-01      0.368794E-02
      0.950000E-01      0.332271E-02
      0.100000          0.300758E-02
      0.105000          0.273677E-02
      0.110000          0.250404E-02
      0.115000          0.230309E-02
      0.120000          0.212795E-02
      0.125000          0.197326E-02
      0.130000          0.183442E-02
      0.135000          0.170774E-02
      0.140000          0.159038E-02
      0.145000          0.148037E-02
      0.150000          0.137644E-02
      0.155000          0.127792E-02
      0.160000          0.118456E-02
      0.165000          0.109637E-02
      0.170000          0.101350E-02
      0.175000          0.936120E-03
      0.180000          0.864329E-03
      0.185000          0.798108E-03
      0.190000          0.737297E-03
      0.195000          0.681605E-03
      0.200000          0.630630E-03
      0.205000          0.583902E-03
      0.210000          0.540920E-03
      0.215000          0.501201E-03
      0.220000          0.464310E-03
      0.225000          0.429891E-03
      0.230000          0.397679E-03
      0.235000          0.367499E-03
      0.240000          0.339267E-03
      0.245000          0.312962E-03
      0.250000          0.288615E-03
      0.255000          0.266278E-03
      0.260000          0.246004E-03
      0.265000          0.227826E-03
      0.270000          0.211742E-03
      0.275000          0.197708E-03
      0.280000          0.185632E-03
      0.285000          0.175380E-03
      0.290000          0.166779E-03
      0.295000          0.159631E-03
      0.300000          0.153725E-03
      0.305000          0.148848E-03
      0.310000          0.144796E-03
      0.315000          0.141384E-03
      0.320000          0.138452E-03
      0.325000          0.135871E-03
      0.330000          0.133539E-03
      0.335000          0.131384E-03
      0.340000          0.129360E-03
      0.345000          0.127440E-03
      0.350000          0.125613E-03
      0.355000          0.123878E-03
      0.360000          0.122238E-03
      0.365000          0.120697E-03
      0.370000          0.119260E-03
      0.375000          0.117924E-03
      0.380000          0.116685E-03
      0.385000          0.115531E-03
      0.390000          0.114448E-03
      0.395000          0.113418E-03
      0.400000          0.112421E-03
      0.405000          0.111439E-03
      0.410000          0.110451E-03
      0.415000          0.109442E-03
      0.420000          0.108399E-03
      0.425000          0.107313E-03
      0.430000          0.106179E-03
      0.435000          0.104997E-03
      0.440000          0.103769E-03
      0.445000          0.102504E-03
      0.450000          0.101209E-03
      0.455000          0.998971E-04
      0.460000          0.985793E-04
      0.465000          0.972678E-04
      0.470000          0.959735E-04
      0.475000          0.947055E-04
      0.480000          0.934707E-04
      0.485000          0.922732E-04
      0.490000          0.911144E-04
      0.495000          0.899931E-04
      0.500000          0.889059E-04
