 I_abs(s)[cm^-1]/c[mg/ml]
       0.00000          0.143707E-01
      0.500000E-02      0.143093E-01
      0.100000E-01      0.141269E-01
      0.150000E-01      0.138284E-01
      0.200000E-01      0.134219E-01
      0.250000E-01      0.129179E-01
      0.300000E-01      0.123295E-01
      0.350000E-01      0.116713E-01
      0.400000E-01      0.109591E-01
      0.450000E-01      0.102092E-01
      0.500000E-01      0.943772E-02
      0.550000E-01      0.866021E-02
      0.600000E-01      0.789094E-02
      0.650000E-01      0.714262E-02
      0.700000E-01      0.642603E-02
      0.750000E-01      0.574985E-02
      0.800000E-01      0.512054E-02
      0.850000E-01      0.454241E-02
      0.900000E-01      0.401769E-02
      0.950000E-01      0.354674E-02
      0.100000          0.312835E-02
      0.105000          0.275998E-02
      0.110000          0.243812E-02
      0.115000          0.215861E-02
      0.120000          0.191692E-02
      0.125000          0.170843E-02
      0.130000          0.152864E-02
      0.135000          0.137336E-02
      0.140000          0.123882E-02
      0.145000          0.112172E-02
      0.150000          0.101929E-02
      0.155000          0.929240E-03
      0.160000          0.849745E-03
      0.165000          0.779355E-03
      0.170000          0.716935E-03
      0.175000          0.661587E-03
      0.180000          0.612580E-03
      0.185000          0.569289E-03
      0.190000          0.531148E-03
      0.195000          0.497619E-03
      0.200000          0.468178E-03
      0.205000          0.442304E-03
      0.210000          0.419490E-03
      0.215000          0.399249E-03
      0.220000          0.381134E-03
      0.225000          0.364744E-03
      0.230000          0.349742E-03
      0.235000          0.335859E-03
      0.240000          0.322893E-03
      0.245000          0.310706E-03
      0.250000          0.299216E-03
      0.255000          0.288382E-03
      0.260000          0.278189E-03
      0.265000          0.268636E-03
      0.270000          0.259718E-03
      0.275000          0.251419E-03
      0.280000          0.243703E-03
      0.285000          0.236512E-03
      0.290000          0.229766E-03
      0.295000          0.223367E-03
      0.300000          0.217211E-03
      0.305000          0.211189E-03
      0.310000          0.205205E-03
      0.315000          0.199178E-03
      0.320000          0.193055E-03
      0.325000          0.186809E-03
      0.330000          0.180446E-03
      0.335000          0.174000E-03
      0.340000          0.167531E-03
      0.345000          0.161120E-03
      0.350000          0.154856E-03
      0.355000          0.148833E-03
      0.360000          0.143138E-03
      0.365000          0.137847E-03
      0.370000          0.133015E-03
      0.375000          0.128675E-03
      0.380000          0.124837E-03
      0.385000          0.121486E-03
      0.390000          0.118588E-03
      0.395000          0.116092E-03
      0.400000          0.113934E-03
      0.405000          0.112049E-03
      0.410000          0.110370E-03
      0.415000          0.108835E-03
      0.420000          0.107393E-03
      0.425000          0.106005E-03
      0.430000          0.104643E-03
      0.435000          0.103297E-03
      0.440000          0.101962E-03
      0.445000          0.100647E-03
      0.450000          0.993638E-04
      0.455000          0.981268E-04
      0.460000          0.969494E-04
      0.465000          0.958406E-04
      0.470000          0.948035E-04
      0.475000          0.938335E-04
      0.480000          0.929184E-04
      0.485000          0.920393E-04
      0.490000          0.911717E-04
      0.495000          0.902878E-04
      0.500000          0.893594E-04
