 I_abs(s)[cm^-1]/c[mg/ml]
       0.00000          0.146399E-01
      0.500000E-02      0.145877E-01
      0.100000E-01      0.144321E-01
      0.150000E-01      0.141764E-01
      0.200000E-01      0.138261E-01
      0.250000E-01      0.133887E-01
      0.300000E-01      0.128730E-01
      0.350000E-01      0.122896E-01
      0.400000E-01      0.116499E-01
      0.450000E-01      0.109661E-01
      0.500000E-01      0.102507E-01
      0.550000E-01      0.951618E-02
      0.600000E-01      0.877460E-02
      0.650000E-01      0.803734E-02
      0.700000E-01      0.731481E-02
      0.750000E-01      0.661619E-02
      0.800000E-01      0.594932E-02
      0.850000E-01      0.532054E-02
      0.900000E-01      0.473469E-02
      0.950000E-01      0.419504E-02
      0.100000          0.370344E-02
      0.105000          0.326035E-02
      0.110000          0.286505E-02
      0.115000          0.251576E-02
      0.120000          0.220985E-02
      0.125000          0.194405E-02
      0.130000          0.171465E-02
      0.135000          0.151769E-02
      0.140000          0.134913E-02
      0.145000          0.120500E-02
      0.150000          0.108156E-02
      0.155000          0.975369E-03
      0.160000          0.883361E-03
      0.165000          0.802898E-03
      0.170000          0.731777E-03
      0.175000          0.668225E-03
      0.180000          0.610871E-03
      0.185000          0.558703E-03
      0.190000          0.511016E-03
      0.195000          0.467354E-03
      0.200000          0.427445E-03
      0.205000          0.391148E-03
      0.210000          0.358398E-03
      0.215000          0.329158E-03
      0.220000          0.303385E-03
      0.225000          0.281002E-03
      0.230000          0.261880E-03
      0.235000          0.245831E-03
      0.240000          0.232605E-03
      0.245000          0.221903E-03
      0.250000          0.213381E-03
      0.255000          0.206669E-03
      0.260000          0.201388E-03
      0.265000          0.197166E-03
      0.270000          0.193651E-03
      0.275000          0.190530E-03
      0.280000          0.187532E-03
      0.285000          0.184440E-03
      0.290000          0.181094E-03
      0.295000          0.177388E-03
      0.300000          0.173270E-03
      0.305000          0.168735E-03
      0.310000          0.163818E-03
      0.315000          0.158589E-03
      0.320000          0.153136E-03
      0.325000          0.147565E-03
      0.330000          0.141985E-03
      0.335000          0.136505E-03
      0.340000          0.131224E-03
      0.345000          0.126232E-03
      0.350000          0.121599E-03
      0.355000          0.117381E-03
      0.360000          0.113613E-03
      0.365000          0.110316E-03
      0.370000          0.107492E-03
      0.375000          0.105131E-03
      0.380000          0.103211E-03
      0.385000          0.101702E-03
      0.390000          0.100568E-03
      0.395000          0.997674E-04
      0.400000          0.992580E-04
      0.405000          0.989973E-04
      0.410000          0.989432E-04
      0.415000          0.990557E-04
      0.420000          0.992966E-04
      0.425000          0.996301E-04
      0.430000          0.100023E-03
      0.435000          0.100443E-03
      0.440000          0.100860E-03
      0.445000          0.101248E-03
      0.450000          0.101579E-03
      0.455000          0.101828E-03
      0.460000          0.101972E-03
      0.465000          0.101991E-03
      0.470000          0.101865E-03
      0.475000          0.101579E-03
      0.480000          0.101121E-03
      0.485000          0.100483E-03
      0.490000          0.996602E-04
      0.495000          0.986551E-04
      0.500000          0.974737E-04
