 I_abs(s)[cm^-1]/c[mg/ml]
       0.00000          0.138551E-01
      0.500000E-02      0.137953E-01
      0.100000E-01      0.136176E-01
      0.150000E-01      0.133273E-01
      0.200000E-01      0.129325E-01
      0.250000E-01      0.124446E-01
      0.300000E-01      0.118768E-01
      0.350000E-01      0.112443E-01
      0.400000E-01      0.105632E-01
      0.450000E-01      0.985008E-02
      0.500000E-01      0.912118E-02
      0.550000E-01      0.839186E-02
      0.600000E-01      0.767604E-02
      0.650000E-01      0.698582E-02
      0.700000E-01      0.633112E-02
      0.750000E-01      0.571953E-02
      0.800000E-01      0.515626E-02
      0.850000E-01      0.464420E-02
      0.900000E-01      0.418411E-02
      0.950000E-01      0.377486E-02
      0.100000          0.341379E-02
      0.105000          0.309706E-02
      0.110000          0.282003E-02
      0.115000          0.257765E-02
      0.120000          0.236475E-02
      0.125000          0.217638E-02
      0.130000          0.200801E-02
      0.135000          0.185571E-02
      0.140000          0.171623E-02
      0.145000          0.158704E-02
      0.150000          0.146630E-02
      0.155000          0.135282E-02
      0.160000          0.124590E-02
      0.165000          0.114526E-02
      0.170000          0.105091E-02
      0.175000          0.962989E-03
      0.180000          0.881687E-03
      0.185000          0.807146E-03
      0.190000          0.739398E-03
      0.195000          0.678325E-03
      0.200000          0.623650E-03
      0.205000          0.574941E-03
      0.210000          0.531644E-03
      0.215000          0.493116E-03
      0.220000          0.458674E-03
      0.225000          0.427639E-03
      0.230000          0.399376E-03
      0.235000          0.373332E-03
      0.240000          0.349052E-03
      0.245000          0.326200E-03
      0.250000          0.304553E-03
      0.255000          0.283995E-03
      0.260000          0.264502E-03
      0.265000          0.246117E-03
      0.270000          0.228926E-03
      0.275000          0.213036E-03
      0.280000          0.198547E-03
      0.285000          0.185539E-03
      0.290000          0.174054E-03
      0.295000          0.164093E-03
      0.300000          0.155607E-03
      0.305000          0.148507E-03
      0.310000          0.142665E-03
      0.315000          0.137927E-03
      0.320000          0.134123E-03
      0.325000          0.131075E-03
      0.330000          0.128614E-03
      0.335000          0.126580E-03
      0.340000          0.124837E-03
      0.345000          0.123268E-03
      0.350000          0.121783E-03
      0.355000          0.120316E-03
      0.360000          0.118821E-03
      0.365000          0.117271E-03
      0.370000          0.115650E-03
      0.375000          0.113955E-03
      0.380000          0.112187E-03
      0.385000          0.110350E-03
      0.390000          0.108450E-03
      0.395000          0.106490E-03
      0.400000          0.104476E-03
      0.405000          0.102413E-03
      0.410000          0.100307E-03
      0.415000          0.981646E-04
      0.420000          0.959972E-04
      0.425000          0.938187E-04
      0.430000          0.916472E-04
      0.435000          0.895038E-04
      0.440000          0.874128E-04
      0.445000          0.853997E-04
      0.450000          0.834901E-04
      0.455000          0.817081E-04
      0.460000          0.800744E-04
      0.465000          0.786055E-04
      0.470000          0.773118E-04
      0.475000          0.761975E-04
      0.480000          0.752603E-04
      0.485000          0.744913E-04
      0.490000          0.738759E-04
      0.495000          0.733949E-04
      0.500000          0.730255E-04
