 I_abs(s)[cm^-1]/c[mg/ml]
       0.00000          0.141117E-01
      0.500000E-02      0.140538E-01
      0.100000E-01      0.138819E-01
      0.150000E-01      0.136010E-01
      0.200000E-01      0.132189E-01
      0.250000E-01      0.127463E-01
      0.300000E-01      0.121961E-01
      0.350000E-01      0.115826E-01
      0.400000E-01      0.109211E-01
      0.450000E-01      0.102270E-01
      0.500000E-01      0.951569E-02
      0.550000E-01      0.880137E-02
      0.600000E-01      0.809695E-02
      0.650000E-01      0.741358E-02
      0.700000E-01      0.676041E-02
      0.750000E-01      0.614443E-02
      0.800000E-01      0.557056E-02
      0.850000E-01      0.504166E-02
      0.900000E-01      0.455877E-02
      0.950000E-01      0.412140E-02
      0.100000          0.372777E-02
      0.105000          0.337517E-02
      0.110000          0.306028E-02
      0.115000          0.277942E-02
      0.120000          0.252885E-02
      0.125000          0.230493E-02
      0.130000          0.210427E-02
      0.135000          0.192384E-02
      0.140000          0.176100E-02
      0.145000          0.161350E-02
      0.150000          0.147944E-02
      0.155000          0.135727E-02
      0.160000          0.124565E-02
      0.165000          0.114348E-02
      0.170000          0.104976E-02
      0.175000          0.963630E-03
      0.180000          0.884274E-03
      0.185000          0.810951E-03
      0.190000          0.742976E-03
      0.195000          0.679731E-03
      0.200000          0.620677E-03
      0.205000          0.565371E-03
      0.210000          0.513475E-03
      0.215000          0.464759E-03
      0.220000          0.419107E-03
      0.225000          0.376497E-03
      0.230000          0.336989E-03
      0.235000          0.300699E-03
      0.240000          0.267769E-03
      0.245000          0.238338E-03
      0.250000          0.212513E-03
      0.255000          0.190347E-03
      0.260000          0.171816E-03
      0.265000          0.156812E-03
      0.270000          0.145138E-03
      0.275000          0.136515E-03
      0.280000          0.130592E-03
      0.285000          0.126964E-03
      0.290000          0.125193E-03
      0.295000          0.124833E-03
      0.300000          0.125449E-03
      0.305000          0.126639E-03
      0.310000          0.128050E-03
      0.315000          0.129391E-03
      0.320000          0.130436E-03
      0.325000          0.131030E-03
      0.330000          0.131084E-03
      0.335000          0.130568E-03
      0.340000          0.129501E-03
      0.345000          0.127942E-03
      0.350000          0.125974E-03
      0.355000          0.123694E-03
      0.360000          0.121204E-03
      0.365000          0.118599E-03
      0.370000          0.115966E-03
      0.375000          0.113374E-03
      0.380000          0.110876E-03
      0.385000          0.108509E-03
      0.390000          0.106294E-03
      0.395000          0.104240E-03
      0.400000          0.102346E-03
      0.405000          0.100608E-03
      0.410000          0.990164E-04
      0.415000          0.975649E-04
      0.420000          0.962471E-04
      0.425000          0.950599E-04
      0.430000          0.940034E-04
      0.435000          0.930804E-04
      0.440000          0.922949E-04
      0.445000          0.916515E-04
      0.450000          0.911534E-04
      0.455000          0.908013E-04
      0.460000          0.905924E-04
      0.465000          0.905195E-04
      0.470000          0.905706E-04
      0.475000          0.907290E-04
      0.480000          0.909737E-04
      0.485000          0.912801E-04
      0.490000          0.916208E-04
      0.495000          0.919667E-04
      0.500000          0.922884E-04
