 I_abs(s)[cm^-1]/c[mg/ml]
       0.00000          0.140025E-01
      0.500000E-02      0.139538E-01
      0.100000E-01      0.138086E-01
      0.150000E-01      0.135701E-01
      0.200000E-01      0.132435E-01
      0.250000E-01      0.128357E-01
      0.300000E-01      0.123551E-01
      0.350000E-01      0.118117E-01
      0.400000E-01      0.112162E-01
      0.450000E-01      0.105802E-01
      0.500000E-01      0.991530E-02
      0.550000E-01      0.923333E-02
      0.600000E-01      0.854561E-02
      0.650000E-01      0.786283E-02
      0.700000E-01      0.719474E-02
      0.750000E-01      0.654992E-02
      0.800000E-01      0.593564E-02
      0.850000E-01      0.535775E-02
      0.900000E-01      0.482062E-02
      0.950000E-01      0.432715E-02
      0.100000          0.387883E-02
      0.105000          0.347585E-02
      0.110000          0.311720E-02
      0.115000          0.280089E-02
      0.120000          0.252411E-02
      0.125000          0.228344E-02
      0.130000          0.207504E-02
      0.135000          0.189487E-02
      0.140000          0.173883E-02
      0.145000          0.160294E-02
      0.150000          0.148347E-02
      0.155000          0.137706E-02
      0.160000          0.128077E-02
      0.165000          0.119213E-02
      0.170000          0.110916E-02
      0.175000          0.103038E-02
      0.180000          0.954743E-03
      0.185000          0.881628E-03
      0.190000          0.810752E-03
      0.195000          0.742114E-03
      0.200000          0.675923E-03
      0.205000          0.612529E-03
      0.210000          0.552354E-03
      0.215000          0.495838E-03
      0.220000          0.443386E-03
      0.225000          0.395329E-03
      0.230000          0.351902E-03
      0.235000          0.313220E-03
      0.240000          0.279278E-03
      0.245000          0.249953E-03
      0.250000          0.225011E-03
      0.255000          0.204129E-03
      0.260000          0.186912E-03
      0.265000          0.172915E-03
      0.270000          0.161670E-03
      0.275000          0.152704E-03
      0.280000          0.145562E-03
      0.285000          0.139820E-03
      0.290000          0.135102E-03
      0.295000          0.131086E-03
      0.300000          0.127508E-03
      0.305000          0.124169E-03
      0.310000          0.120925E-03
      0.315000          0.117687E-03
      0.320000          0.114414E-03
      0.325000          0.111103E-03
      0.330000          0.107779E-03
      0.335000          0.104489E-03
      0.340000          0.101290E-03
      0.345000          0.982453E-04
      0.350000          0.954129E-04
      0.355000          0.928442E-04
      0.360000          0.905788E-04
      0.365000          0.886425E-04
      0.370000          0.870467E-04
      0.375000          0.857884E-04
      0.380000          0.848523E-04
      0.385000          0.842119E-04
      0.390000          0.838329E-04
      0.395000          0.836757E-04
      0.400000          0.836981E-04
      0.405000          0.838577E-04
      0.410000          0.841148E-04
      0.415000          0.844332E-04
      0.420000          0.847823E-04
      0.425000          0.851375E-04
      0.430000          0.854805E-04
      0.435000          0.857987E-04
      0.440000          0.860853E-04
      0.445000          0.863378E-04
      0.450000          0.865572E-04
      0.455000          0.867468E-04
      0.460000          0.869109E-04
      0.465000          0.870540E-04
      0.470000          0.871797E-04
      0.475000          0.872900E-04
      0.480000          0.873848E-04
      0.485000          0.874620E-04
      0.490000          0.875168E-04
      0.495000          0.875427E-04
      0.500000          0.875314E-04
