 I_abs(s)[cm^-1]/c[mg/ml]
       0.00000          0.142684E-01
      0.500000E-02      0.142136E-01
      0.100000E-01      0.140505E-01
      0.150000E-01      0.137832E-01
      0.200000E-01      0.134181E-01
      0.250000E-01      0.129638E-01
      0.300000E-01      0.124310E-01
      0.350000E-01      0.118316E-01
      0.400000E-01      0.111789E-01
      0.450000E-01      0.104864E-01
      0.500000E-01      0.976794E-02
      0.550000E-01      0.903687E-02
      0.600000E-01      0.830584E-02
      0.650000E-01      0.758636E-02
      0.700000E-01      0.688857E-02
      0.750000E-01      0.622098E-02
      0.800000E-01      0.559038E-02
      0.850000E-01      0.500183E-02
      0.900000E-01      0.445865E-02
      0.950000E-01      0.396254E-02
      0.100000          0.351376E-02
      0.105000          0.311131E-02
      0.110000          0.275319E-02
      0.115000          0.243659E-02
      0.120000          0.215819E-02
      0.125000          0.191435E-02
      0.130000          0.170132E-02
      0.135000          0.151541E-02
      0.140000          0.135316E-02
      0.145000          0.121135E-02
      0.150000          0.108718E-02
      0.155000          0.978188E-03
      0.160000          0.882316E-03
      0.165000          0.797858E-03
      0.170000          0.723423E-03
      0.175000          0.657880E-03
      0.180000          0.600305E-03
      0.185000          0.549920E-03
      0.190000          0.506050E-03
      0.195000          0.468076E-03
      0.200000          0.435408E-03
      0.205000          0.407463E-03
      0.210000          0.383658E-03
      0.215000          0.363410E-03
      0.220000          0.346141E-03
      0.225000          0.331293E-03
      0.230000          0.318341E-03
      0.235000          0.306808E-03
      0.240000          0.296278E-03
      0.245000          0.286408E-03
      0.250000          0.276928E-03
      0.255000          0.267649E-03
      0.260000          0.258456E-03
      0.265000          0.249299E-03
      0.270000          0.240186E-03
      0.275000          0.231167E-03
      0.280000          0.222322E-03
      0.285000          0.213748E-03
      0.290000          0.205543E-03
      0.295000          0.197800E-03
      0.300000          0.190592E-03
      0.305000          0.183974E-03
      0.310000          0.177972E-03
      0.315000          0.172590E-03
      0.320000          0.167805E-03
      0.325000          0.163575E-03
      0.330000          0.159840E-03
      0.335000          0.156531E-03
      0.340000          0.153572E-03
      0.345000          0.150887E-03
      0.350000          0.148406E-03
      0.355000          0.146063E-03
      0.360000          0.143807E-03
      0.365000          0.141594E-03
      0.370000          0.139395E-03
      0.375000          0.137194E-03
      0.380000          0.134984E-03
      0.385000          0.132767E-03
      0.390000          0.130554E-03
      0.395000          0.128361E-03
      0.400000          0.126205E-03
      0.405000          0.124107E-03
      0.410000          0.122085E-03
      0.415000          0.120157E-03
      0.420000          0.118334E-03
      0.425000          0.116628E-03
      0.430000          0.115043E-03
      0.435000          0.113579E-03
      0.440000          0.112232E-03
      0.445000          0.110994E-03
      0.450000          0.109854E-03
      0.455000          0.108796E-03
      0.460000          0.107804E-03
      0.465000          0.106859E-03
      0.470000          0.105942E-03
      0.475000          0.105035E-03
      0.480000          0.104119E-03
      0.485000          0.103179E-03
      0.490000          0.102200E-03
      0.495000          0.101172E-03
      0.500000          0.100084E-03
