 I_abs(s)[cm^-1]/c[mg/ml]
       0.00000          0.143707E-01
      0.500000E-02      0.143120E-01
      0.100000E-01      0.141378E-01
      0.150000E-01      0.138525E-01
      0.200000E-01      0.134637E-01
      0.250000E-01      0.129815E-01
      0.300000E-01      0.124181E-01
      0.350000E-01      0.117871E-01
      0.400000E-01      0.111035E-01
      0.450000E-01      0.103825E-01
      0.500000E-01      0.963940E-02
      0.550000E-01      0.888872E-02
      0.600000E-01      0.814396E-02
      0.650000E-01      0.741712E-02
      0.700000E-01      0.671846E-02
      0.750000E-01      0.605624E-02
      0.800000E-01      0.543674E-02
      0.850000E-01      0.486420E-02
      0.900000E-01      0.434096E-02
      0.950000E-01      0.386765E-02
      0.100000          0.344341E-02
      0.105000          0.306616E-02
      0.110000          0.273291E-02
      0.115000          0.244003E-02
      0.120000          0.218350E-02
      0.125000          0.195920E-02
      0.130000          0.176307E-02
      0.135000          0.159127E-02
      0.140000          0.144033E-02
      0.145000          0.130716E-02
      0.150000          0.118912E-02
      0.155000          0.108400E-02
      0.160000          0.989976E-03
      0.165000          0.905600E-03
      0.170000          0.829703E-03
      0.175000          0.761349E-03
      0.180000          0.699776E-03
      0.185000          0.644340E-03
      0.190000          0.594474E-03
      0.195000          0.549657E-03
      0.200000          0.509391E-03
      0.205000          0.473193E-03
      0.210000          0.440592E-03
      0.215000          0.411133E-03
      0.220000          0.384386E-03
      0.225000          0.359956E-03
      0.230000          0.337491E-03
      0.235000          0.316691E-03
      0.240000          0.297313E-03
      0.245000          0.279175E-03
      0.250000          0.262149E-03
      0.255000          0.246159E-03
      0.260000          0.231173E-03
      0.265000          0.217191E-03
      0.270000          0.204237E-03
      0.275000          0.192346E-03
      0.280000          0.181554E-03
      0.285000          0.171886E-03
      0.290000          0.163356E-03
      0.295000          0.155952E-03
      0.300000          0.149640E-03
      0.305000          0.144361E-03
      0.310000          0.140032E-03
      0.315000          0.136552E-03
      0.320000          0.133802E-03
      0.325000          0.131655E-03
      0.330000          0.129982E-03
      0.335000          0.128655E-03
      0.340000          0.127556E-03
      0.345000          0.126581E-03
      0.350000          0.125645E-03
      0.355000          0.124682E-03
      0.360000          0.123649E-03
      0.365000          0.122522E-03
      0.370000          0.121299E-03
      0.375000          0.119993E-03
      0.380000          0.118629E-03
      0.385000          0.117240E-03
      0.390000          0.115865E-03
      0.395000          0.114540E-03
      0.400000          0.113295E-03
      0.405000          0.112155E-03
      0.410000          0.111132E-03
      0.415000          0.110229E-03
      0.420000          0.109437E-03
      0.425000          0.108736E-03
      0.430000          0.108099E-03
      0.435000          0.107492E-03
      0.440000          0.106881E-03
      0.445000          0.106228E-03
      0.450000          0.105500E-03
      0.455000          0.104671E-03
      0.460000          0.103720E-03
      0.465000          0.102635E-03
      0.470000          0.101411E-03
      0.475000          0.100054E-03
      0.480000          0.985733E-04
      0.485000          0.969872E-04
      0.490000          0.953160E-04
      0.495000          0.935822E-04
      0.500000          0.918089E-04
