 I_abs(s)[cm^-1]/c[mg/ml]
       0.00000          0.140961E-01
      0.500000E-02      0.140442E-01
      0.100000E-01      0.138899E-01
      0.150000E-01      0.136368E-01
      0.200000E-01      0.132909E-01
      0.250000E-01      0.128599E-01
      0.300000E-01      0.123538E-01
      0.350000E-01      0.117837E-01
      0.400000E-01      0.111616E-01
      0.450000E-01      0.105004E-01
      0.500000E-01      0.981298E-02
      0.550000E-01      0.911195E-02
      0.600000E-01      0.840939E-02
      0.650000E-01      0.771639E-02
      0.700000E-01      0.704279E-02
      0.750000E-01      0.639700E-02
      0.800000E-01      0.578583E-02
      0.850000E-01      0.521444E-02
      0.900000E-01      0.468633E-02
      0.950000E-01      0.420344E-02
      0.100000          0.376624E-02
      0.105000          0.337391E-02
      0.110000          0.302458E-02
      0.115000          0.271550E-02
      0.120000          0.244332E-02
      0.125000          0.220427E-02
      0.130000          0.199443E-02
      0.135000          0.180990E-02
      0.140000          0.164693E-02
      0.145000          0.150209E-02
      0.150000          0.137235E-02
      0.155000          0.125513E-02
      0.160000          0.114831E-02
      0.165000          0.105024E-02
      0.170000          0.959685E-03
      0.175000          0.875811E-03
      0.180000          0.798077E-03
      0.185000          0.726185E-03
      0.190000          0.660001E-03
      0.195000          0.599487E-03
      0.200000          0.544636E-03
      0.205000          0.495427E-03
      0.210000          0.451778E-03
      0.215000          0.413528E-03
      0.220000          0.380419E-03
      0.225000          0.352099E-03
      0.230000          0.328127E-03
      0.235000          0.307997E-03
      0.240000          0.291153E-03
      0.245000          0.277019E-03
      0.250000          0.265025E-03
      0.255000          0.254630E-03
      0.260000          0.245343E-03
      0.265000          0.236744E-03
      0.270000          0.228489E-03
      0.275000          0.220324E-03
      0.280000          0.212078E-03
      0.285000          0.203667E-03
      0.290000          0.195077E-03
      0.295000          0.186360E-03
      0.300000          0.177616E-03
      0.305000          0.168978E-03
      0.310000          0.160599E-03
      0.315000          0.152637E-03
      0.320000          0.145239E-03
      0.325000          0.138536E-03
      0.330000          0.132630E-03
      0.335000          0.127592E-03
      0.340000          0.123455E-03
      0.345000          0.120218E-03
      0.350000          0.117845E-03
      0.355000          0.116268E-03
      0.360000          0.115395E-03
      0.365000          0.115113E-03
      0.370000          0.115297E-03
      0.375000          0.115814E-03
      0.380000          0.116530E-03
      0.385000          0.117317E-03
      0.390000          0.118058E-03
      0.395000          0.118649E-03
      0.400000          0.119004E-03
      0.405000          0.119055E-03
      0.410000          0.118756E-03
      0.415000          0.118080E-03
      0.420000          0.117020E-03
      0.425000          0.115589E-03
      0.430000          0.113813E-03
      0.435000          0.111734E-03
      0.440000          0.109404E-03
      0.445000          0.106884E-03
      0.450000          0.104239E-03
      0.455000          0.101537E-03
      0.460000          0.988457E-04
      0.465000          0.962287E-04
      0.470000          0.937450E-04
      0.475000          0.914462E-04
      0.480000          0.893752E-04
      0.485000          0.875652E-04
      0.490000          0.860384E-04
      0.495000          0.848066E-04
      0.500000          0.838708E-04
