 I_abs(s)[cm^-1]/c[mg/ml]
       0.00000          0.145050E-01
      0.500000E-02      0.144479E-01
      0.100000E-01      0.142780E-01
      0.150000E-01      0.139995E-01
      0.200000E-01      0.136192E-01
      0.250000E-01      0.131464E-01
      0.300000E-01      0.125922E-01
      0.350000E-01      0.119693E-01
      0.400000E-01      0.112914E-01
      0.450000E-01      0.105728E-01
      0.500000E-01      0.982779E-02
      0.550000E-01      0.907040E-02
      0.600000E-01      0.831364E-02
      0.650000E-01      0.756942E-02
      0.700000E-01      0.684815E-02
      0.750000E-01      0.615860E-02
      0.800000E-01      0.550778E-02
      0.850000E-01      0.490092E-02
      0.900000E-01      0.434152E-02
      0.950000E-01      0.383149E-02
      0.100000          0.337129E-02
      0.105000          0.296014E-02
      0.110000          0.259624E-02
      0.115000          0.227702E-02
      0.120000          0.199930E-02
      0.125000          0.175955E-02
      0.130000          0.155402E-02
      0.135000          0.137894E-02
      0.140000          0.123059E-02
      0.145000          0.110540E-02
      0.150000          0.100004E-02
      0.155000          0.911436E-03
      0.160000          0.836792E-03
      0.165000          0.773608E-03
      0.170000          0.719672E-03
      0.175000          0.673056E-03
      0.180000          0.632103E-03
      0.185000          0.595415E-03
      0.190000          0.561842E-03
      0.195000          0.530468E-03
      0.200000          0.500597E-03
      0.205000          0.471736E-03
      0.210000          0.443580E-03
      0.215000          0.415990E-03
      0.220000          0.388965E-03
      0.225000          0.362622E-03
      0.230000          0.337160E-03
      0.235000          0.312834E-03
      0.240000          0.289921E-03
      0.245000          0.268694E-03
      0.250000          0.249393E-03
      0.255000          0.232207E-03
      0.260000          0.217255E-03
      0.265000          0.204578E-03
      0.270000          0.194137E-03
      0.275000          0.185813E-03
      0.280000          0.179419E-03
      0.285000          0.174712E-03
      0.290000          0.171406E-03
      0.295000          0.169194E-03
      0.300000          0.167766E-03
      0.305000          0.166821E-03
      0.310000          0.166087E-03
      0.315000          0.165327E-03
      0.320000          0.164353E-03
      0.325000          0.163024E-03
      0.330000          0.161251E-03
      0.335000          0.158992E-03
      0.340000          0.156244E-03
      0.345000          0.153042E-03
      0.350000          0.149446E-03
      0.355000          0.145533E-03
      0.360000          0.141390E-03
      0.365000          0.137106E-03
      0.370000          0.132764E-03
      0.375000          0.128442E-03
      0.380000          0.124205E-03
      0.385000          0.120103E-03
      0.390000          0.116178E-03
      0.395000          0.112454E-03
      0.400000          0.108949E-03
      0.405000          0.105671E-03
      0.410000          0.102621E-03
      0.415000          0.997957E-04
      0.420000          0.971908E-04
      0.425000          0.947995E-04
      0.430000          0.926150E-04
      0.435000          0.906310E-04
      0.440000          0.888414E-04
      0.445000          0.872408E-04
      0.450000          0.858236E-04
      0.455000          0.845839E-04
      0.460000          0.835147E-04
      0.465000          0.826081E-04
      0.470000          0.818543E-04
      0.475000          0.812422E-04
      0.480000          0.807588E-04
      0.485000          0.803897E-04
      0.490000          0.801194E-04
      0.495000          0.799312E-04
      0.500000          0.798084E-04
