 I_abs(s)[cm^-1]/c[mg/ml]
       0.00000          0.141117E-01
      0.500000E-02      0.140572E-01
      0.100000E-01      0.138950E-01
      0.150000E-01      0.136292E-01
      0.200000E-01      0.132660E-01
      0.250000E-01      0.128142E-01
      0.300000E-01      0.122843E-01
      0.350000E-01      0.116883E-01
      0.400000E-01      0.110393E-01
      0.450000E-01      0.103511E-01
      0.500000E-01      0.963762E-02
      0.550000E-01      0.891246E-02
      0.600000E-01      0.818853E-02
      0.650000E-01      0.747766E-02
      0.700000E-01      0.679028E-02
      0.750000E-01      0.613525E-02
      0.800000E-01      0.551962E-02
      0.850000E-01      0.494866E-02
      0.900000E-01      0.442577E-02
      0.950000E-01      0.395263E-02
      0.100000          0.352932E-02
      0.105000          0.315449E-02
      0.110000          0.282564E-02
      0.115000          0.253933E-02
      0.120000          0.229143E-02
      0.125000          0.207744E-02
      0.130000          0.189268E-02
      0.135000          0.173254E-02
      0.140000          0.159261E-02
      0.145000          0.146889E-02
      0.150000          0.135788E-02
      0.155000          0.125660E-02
      0.160000          0.116266E-02
      0.165000          0.107425E-02
      0.170000          0.990103E-03
      0.175000          0.909405E-03
      0.180000          0.831763E-03
      0.185000          0.757099E-03
      0.190000          0.685570E-03
      0.195000          0.617485E-03
      0.200000          0.553226E-03
      0.205000          0.493187E-03
      0.210000          0.437715E-03
      0.215000          0.387080E-03
      0.220000          0.341441E-03
      0.225000          0.300841E-03
      0.230000          0.265201E-03
      0.235000          0.234335E-03
      0.240000          0.207961E-03
      0.245000          0.185724E-03
      0.250000          0.167218E-03
      0.255000          0.152010E-03
      0.260000          0.139661E-03
      0.265000          0.129748E-03
      0.270000          0.121874E-03
      0.275000          0.115682E-03
      0.280000          0.110864E-03
      0.285000          0.107161E-03
      0.290000          0.104360E-03
      0.295000          0.102296E-03
      0.300000          0.100844E-03
      0.305000          0.999101E-04
      0.310000          0.994244E-04
      0.315000          0.993358E-04
      0.320000          0.996029E-04
      0.325000          0.100189E-03
      0.330000          0.101056E-03
      0.335000          0.102164E-03
      0.340000          0.103466E-03
      0.345000          0.104912E-03
      0.350000          0.106444E-03
      0.355000          0.108001E-03
      0.360000          0.109522E-03
      0.365000          0.110946E-03
      0.370000          0.112215E-03
      0.375000          0.113280E-03
      0.380000          0.114097E-03
      0.385000          0.114634E-03
      0.390000          0.114868E-03
      0.395000          0.114792E-03
      0.400000          0.114406E-03
      0.405000          0.113725E-03
      0.410000          0.112770E-03
      0.415000          0.111574E-03
      0.420000          0.110175E-03
      0.425000          0.108616E-03
      0.430000          0.106942E-03
      0.435000          0.105199E-03
      0.440000          0.103431E-03
      0.445000          0.101681E-03
      0.450000          0.999842E-04
      0.455000          0.983717E-04
      0.460000          0.968678E-04
      0.465000          0.954897E-04
      0.470000          0.942472E-04
      0.475000          0.931435E-04
      0.480000          0.921748E-04
      0.485000          0.913321E-04
      0.490000          0.906009E-04
      0.495000          0.899632E-04
      0.500000          0.893982E-04
