 I_abs(s)[cm^-1]/c[mg/ml]
       0.00000          0.145129E-01
      0.500000E-02      0.144535E-01
      0.100000E-01      0.142766E-01
      0.150000E-01      0.139866E-01
      0.200000E-01      0.135906E-01
      0.250000E-01      0.130980E-01
      0.300000E-01      0.125204E-01
      0.350000E-01      0.118711E-01
      0.400000E-01      0.111644E-01
      0.450000E-01      0.104154E-01
      0.500000E-01      0.963934E-02
      0.550000E-01      0.885109E-02
      0.600000E-01      0.806477E-02
      0.650000E-01      0.729328E-02
      0.700000E-01      0.654808E-02
      0.750000E-01      0.583884E-02
      0.800000E-01      0.517336E-02
      0.850000E-01      0.455747E-02
      0.900000E-01      0.399507E-02
      0.950000E-01      0.348818E-02
      0.100000          0.303711E-02
      0.105000          0.264071E-02
      0.110000          0.229650E-02
      0.115000          0.200106E-02
      0.120000          0.175018E-02
      0.125000          0.153921E-02
      0.130000          0.136324E-02
      0.135000          0.121735E-02
      0.140000          0.109678E-02
      0.145000          0.997089E-03
      0.150000          0.914241E-03
      0.155000          0.844698E-03
      0.160000          0.785446E-03
      0.165000          0.733998E-03
      0.170000          0.688379E-03
      0.175000          0.647081E-03
      0.180000          0.609009E-03
      0.185000          0.573420E-03
      0.190000          0.539849E-03
      0.195000          0.508051E-03
      0.200000          0.477932E-03
      0.205000          0.449493E-03
      0.210000          0.422791E-03
      0.215000          0.397892E-03
      0.220000          0.374849E-03
      0.225000          0.353683E-03
      0.230000          0.334373E-03
      0.235000          0.316853E-03
      0.240000          0.301016E-03
      0.245000          0.286720E-03
      0.250000          0.273799E-03
      0.255000          0.262076E-03
      0.260000          0.251371E-03
      0.265000          0.241516E-03
      0.270000          0.232358E-03
      0.275000          0.223771E-03
      0.280000          0.215657E-03
      0.285000          0.207948E-03
      0.290000          0.200604E-03
      0.295000          0.193611E-03
      0.300000          0.186974E-03
      0.305000          0.180715E-03
      0.310000          0.174861E-03
      0.315000          0.169440E-03
      0.320000          0.164476E-03
      0.325000          0.159983E-03
      0.330000          0.155959E-03
      0.335000          0.152390E-03
      0.340000          0.149243E-03
      0.345000          0.146471E-03
      0.350000          0.144015E-03
      0.355000          0.141809E-03
      0.360000          0.139782E-03
      0.365000          0.137864E-03
      0.370000          0.135991E-03
      0.375000          0.134109E-03
      0.380000          0.132177E-03
      0.385000          0.130169E-03
      0.390000          0.128075E-03
      0.395000          0.125903E-03
      0.400000          0.123673E-03
      0.405000          0.121418E-03
      0.410000          0.119180E-03
      0.415000          0.117007E-03
      0.420000          0.114946E-03
      0.425000          0.113041E-03
      0.430000          0.111332E-03
      0.435000          0.109846E-03
      0.440000          0.108603E-03
      0.445000          0.107607E-03
      0.450000          0.106851E-03
      0.455000          0.106317E-03
      0.460000          0.105975E-03
      0.465000          0.105786E-03
      0.470000          0.105708E-03
      0.475000          0.105692E-03
      0.480000          0.105691E-03
      0.485000          0.105657E-03
      0.490000          0.105549E-03
      0.495000          0.105329E-03
      0.500000          0.104966E-03
