 I_abs(s)[cm^-1]/c[mg/ml]
       0.00000          0.141351E-01
      0.500000E-02      0.140784E-01
      0.100000E-01      0.139099E-01
      0.150000E-01      0.136339E-01
      0.200000E-01      0.132579E-01
      0.250000E-01      0.127914E-01
      0.300000E-01      0.122463E-01
      0.350000E-01      0.116358E-01
      0.400000E-01      0.109745E-01
      0.450000E-01      0.102769E-01
      0.500000E-01      0.955798E-02
      0.550000E-01      0.883174E-02
      0.600000E-01      0.811129E-02
      0.650000E-01      0.740825E-02
      0.700000E-01      0.673255E-02
      0.750000E-01      0.609222E-02
      0.800000E-01      0.549330E-02
      0.850000E-01      0.493988E-02
      0.900000E-01      0.443419E-02
      0.950000E-01      0.397679E-02
      0.100000          0.356677E-02
      0.105000          0.320203E-02
      0.110000          0.287961E-02
      0.115000          0.259588E-02
      0.120000          0.234688E-02
      0.125000          0.212855E-02
      0.130000          0.193686E-02
      0.135000          0.176807E-02
      0.140000          0.161873E-02
      0.145000          0.148582E-02
      0.150000          0.136674E-02
      0.155000          0.125932E-02
      0.160000          0.116174E-02
      0.165000          0.107258E-02
      0.170000          0.990653E-03
      0.175000          0.915022E-03
      0.180000          0.844917E-03
      0.185000          0.779696E-03
      0.190000          0.718812E-03
      0.195000          0.661792E-03
      0.200000          0.608224E-03
      0.205000          0.557754E-03
      0.210000          0.510090E-03
      0.215000          0.465008E-03
      0.220000          0.422356E-03
      0.225000          0.382058E-03
      0.230000          0.344116E-03
      0.235000          0.308595E-03
      0.240000          0.275619E-03
      0.245000          0.245349E-03
      0.250000          0.217960E-03
      0.255000          0.193622E-03
      0.260000          0.172473E-03
      0.265000          0.154601E-03
      0.270000          0.140023E-03
      0.275000          0.128678E-03
      0.280000          0.120416E-03
      0.285000          0.115006E-03
      0.290000          0.112138E-03
      0.295000          0.111442E-03
      0.300000          0.112503E-03
      0.305000          0.114881E-03
      0.310000          0.118139E-03
      0.315000          0.121858E-03
      0.320000          0.125658E-03
      0.325000          0.129217E-03
      0.330000          0.132280E-03
      0.335000          0.134662E-03
      0.340000          0.136255E-03
      0.345000          0.137020E-03
      0.350000          0.136981E-03
      0.355000          0.136212E-03
      0.360000          0.134826E-03
      0.365000          0.132959E-03
      0.370000          0.130756E-03
      0.375000          0.128360E-03
      0.380000          0.125898E-03
      0.385000          0.123478E-03
      0.390000          0.121178E-03
      0.395000          0.119049E-03
      0.400000          0.117112E-03
      0.405000          0.115362E-03
      0.410000          0.113776E-03
      0.415000          0.112313E-03
      0.420000          0.110927E-03
      0.425000          0.109568E-03
      0.430000          0.108192E-03
      0.435000          0.106763E-03
      0.440000          0.105259E-03
      0.445000          0.103671E-03
      0.450000          0.102004E-03
      0.455000          0.100277E-03
      0.460000          0.985190E-04
      0.465000          0.967670E-04
      0.470000          0.950619E-04
      0.475000          0.934446E-04
      0.480000          0.919528E-04
      0.485000          0.906175E-04
      0.490000          0.894614E-04
      0.495000          0.884967E-04
      0.500000          0.877256E-04
