 I_abs(s)[cm^-1]/c[mg/ml]
       0.00000          0.138473E-01
      0.500000E-02      0.137856E-01
      0.100000E-01      0.136025E-01
      0.150000E-01      0.133034E-01
      0.200000E-01      0.128974E-01
      0.250000E-01      0.123966E-01
      0.300000E-01      0.118152E-01
      0.350000E-01      0.111696E-01
      0.400000E-01      0.104768E-01
      0.450000E-01      0.975432E-02
      0.500000E-01      0.901918E-02
      0.550000E-01      0.828725E-02
      0.600000E-01      0.757275E-02
      0.650000E-01      0.688779E-02
      0.700000E-01      0.624206E-02
      0.750000E-01      0.564271E-02
      0.800000E-01      0.509429E-02
      0.850000E-01      0.459892E-02
      0.900000E-01      0.415652E-02
      0.950000E-01      0.376510E-02
      0.100000          0.342120E-02
      0.105000          0.312024E-02
      0.110000          0.285700E-02
      0.115000          0.262595E-02
      0.120000          0.242166E-02
      0.125000          0.223904E-02
      0.130000          0.207356E-02
      0.135000          0.192141E-02
      0.140000          0.177958E-02
      0.145000          0.164582E-02
      0.150000          0.151862E-02
      0.155000          0.139713E-02
      0.160000          0.128100E-02
      0.165000          0.117029E-02
      0.170000          0.106530E-02
      0.175000          0.966455E-03
      0.180000          0.874214E-03
      0.185000          0.788957E-03
      0.190000          0.710940E-03
      0.195000          0.640259E-03
      0.200000          0.576834E-03
      0.205000          0.520423E-03
      0.210000          0.470638E-03
      0.215000          0.426981E-03
      0.220000          0.388882E-03
      0.225000          0.355729E-03
      0.230000          0.326909E-03
      0.235000          0.301835E-03
      0.240000          0.279962E-03
      0.245000          0.260807E-03
      0.250000          0.243950E-03
      0.255000          0.229040E-03
      0.260000          0.215784E-03
      0.265000          0.203946E-03
      0.270000          0.193335E-03
      0.275000          0.183795E-03
      0.280000          0.175200E-03
      0.285000          0.167443E-03
      0.290000          0.160434E-03
      0.295000          0.154095E-03
      0.300000          0.148358E-03
      0.305000          0.143163E-03
      0.310000          0.138460E-03
      0.315000          0.134206E-03
      0.320000          0.130370E-03
      0.325000          0.126923E-03
      0.330000          0.123847E-03
      0.335000          0.121127E-03
      0.340000          0.118752E-03
      0.345000          0.116710E-03
      0.350000          0.114988E-03
      0.355000          0.113572E-03
      0.360000          0.112442E-03
      0.365000          0.111573E-03
      0.370000          0.110934E-03
      0.375000          0.110490E-03
      0.380000          0.110204E-03
      0.385000          0.110035E-03
      0.390000          0.109942E-03
      0.395000          0.109885E-03
      0.400000          0.109830E-03
      0.405000          0.109743E-03
      0.410000          0.109599E-03
      0.415000          0.109377E-03
      0.420000          0.109063E-03
      0.425000          0.108650E-03
      0.430000          0.108135E-03
      0.435000          0.107520E-03
      0.440000          0.106811E-03
      0.445000          0.106016E-03
      0.450000          0.105146E-03
      0.455000          0.104209E-03
      0.460000          0.103218E-03
      0.465000          0.102182E-03
      0.470000          0.101109E-03
      0.475000          0.100008E-03
      0.480000          0.988832E-04
      0.485000          0.977396E-04
      0.490000          0.965801E-04
      0.495000          0.954063E-04
      0.500000          0.942187E-04
