 I_abs(s)[cm^-1]/c[mg/ml]
       0.00000          0.139714E-01
      0.500000E-02      0.139116E-01
      0.100000E-01      0.137340E-01
      0.150000E-01      0.134434E-01
      0.200000E-01      0.130480E-01
      0.250000E-01      0.125584E-01
      0.300000E-01      0.119877E-01
      0.350000E-01      0.113506E-01
      0.400000E-01      0.106630E-01
      0.450000E-01      0.994097E-02
      0.500000E-01      0.920077E-02
      0.550000E-01      0.845773E-02
      0.600000E-01      0.772598E-02
      0.650000E-01      0.701797E-02
      0.700000E-01      0.634412E-02
      0.750000E-01      0.571269E-02
      0.800000E-01      0.512961E-02
      0.850000E-01      0.459857E-02
      0.900000E-01      0.412108E-02
      0.950000E-01      0.369676E-02
      0.100000          0.332354E-02
      0.105000          0.299804E-02
      0.110000          0.271589E-02
      0.115000          0.247207E-02
      0.120000          0.226126E-02
      0.125000          0.207813E-02
      0.130000          0.191761E-02
      0.135000          0.177504E-02
      0.140000          0.164638E-02
      0.145000          0.152826E-02
      0.150000          0.141800E-02
      0.155000          0.131365E-02
      0.160000          0.121388E-02
      0.165000          0.111794E-02
      0.170000          0.102555E-02
      0.175000          0.936779E-03
      0.180000          0.851956E-03
      0.185000          0.771543E-03
      0.190000          0.696054E-03
      0.195000          0.625979E-03
      0.200000          0.561715E-03
      0.205000          0.503536E-03
      0.210000          0.451558E-03
      0.215000          0.405741E-03
      0.220000          0.365890E-03
      0.225000          0.331672E-03
      0.230000          0.302643E-03
      0.235000          0.278275E-03
      0.240000          0.257989E-03
      0.245000          0.241183E-03
      0.250000          0.227263E-03
      0.255000          0.215665E-03
      0.260000          0.205877E-03
      0.265000          0.197451E-03
      0.270000          0.190011E-03
      0.275000          0.183261E-03
      0.280000          0.176979E-03
      0.285000          0.171013E-03
      0.290000          0.165276E-03
      0.295000          0.159731E-03
      0.300000          0.154382E-03
      0.305000          0.149263E-03
      0.310000          0.144423E-03
      0.315000          0.139916E-03
      0.320000          0.135795E-03
      0.325000          0.132099E-03
      0.330000          0.128853E-03
      0.335000          0.126063E-03
      0.340000          0.123715E-03
      0.345000          0.121776E-03
      0.350000          0.120199E-03
      0.355000          0.118924E-03
      0.360000          0.117882E-03
      0.365000          0.117006E-03
      0.370000          0.116226E-03
      0.375000          0.115483E-03
      0.380000          0.114724E-03
      0.385000          0.113910E-03
      0.390000          0.113015E-03
      0.395000          0.112025E-03
      0.400000          0.110937E-03
      0.405000          0.109760E-03
      0.410000          0.108508E-03
      0.415000          0.107203E-03
      0.420000          0.105864E-03
      0.425000          0.104515E-03
      0.430000          0.103171E-03
      0.435000          0.101848E-03
      0.440000          0.100553E-03
      0.445000          0.992875E-04
      0.450000          0.980495E-04
      0.455000          0.968313E-04
      0.460000          0.956227E-04
      0.465000          0.944122E-04
      0.470000          0.931891E-04
      0.475000          0.919447E-04
      0.480000          0.906738E-04
      0.485000          0.893760E-04
      0.490000          0.880559E-04
      0.495000          0.867234E-04
      0.500000          0.853931E-04
