 I_abs(s)[cm^-1]/c[mg/ml]
       0.00000          0.141429E-01
      0.500000E-02      0.140906E-01
      0.100000E-01      0.139348E-01
      0.150000E-01      0.136791E-01
      0.200000E-01      0.133292E-01
      0.250000E-01      0.128930E-01
      0.300000E-01      0.123798E-01
      0.350000E-01      0.118006E-01
      0.400000E-01      0.111673E-01
      0.450000E-01      0.104927E-01
      0.500000E-01      0.978943E-02
      0.550000E-01      0.907029E-02
      0.600000E-01      0.834743E-02
      0.650000E-01      0.763220E-02
      0.700000E-01      0.693482E-02
      0.750000E-01      0.626414E-02
      0.800000E-01      0.562754E-02
      0.850000E-01      0.503082E-02
      0.900000E-01      0.447816E-02
      0.950000E-01      0.397217E-02
      0.100000          0.351402E-02
      0.105000          0.310352E-02
      0.110000          0.273935E-02
      0.115000          0.241922E-02
      0.120000          0.214012E-02
      0.125000          0.189852E-02
      0.130000          0.169054E-02
      0.135000          0.151222E-02
      0.140000          0.135960E-02
      0.145000          0.122892E-02
      0.150000          0.111669E-02
      0.155000          0.101979E-02
      0.160000          0.935490E-03
      0.165000          0.861493E-03
      0.170000          0.795904E-03
      0.175000          0.737212E-03
      0.180000          0.684247E-03
      0.185000          0.636131E-03
      0.190000          0.592217E-03
      0.195000          0.552037E-03
      0.200000          0.515250E-03
      0.205000          0.481597E-03
      0.210000          0.450861E-03
      0.215000          0.422841E-03
      0.220000          0.397335E-03
      0.225000          0.374129E-03
      0.230000          0.352991E-03
      0.235000          0.333683E-03
      0.240000          0.315958E-03
      0.245000          0.299577E-03
      0.250000          0.284319E-03
      0.255000          0.269987E-03
      0.260000          0.256418E-03
      0.265000          0.243486E-03
      0.270000          0.231107E-03
      0.275000          0.219235E-03
      0.280000          0.207858E-03
      0.285000          0.196994E-03
      0.290000          0.186682E-03
      0.295000          0.176971E-03
      0.300000          0.167916E-03
      0.305000          0.159568E-03
      0.310000          0.151968E-03
      0.315000          0.145140E-03
      0.320000          0.139090E-03
      0.325000          0.133806E-03
      0.330000          0.129256E-03
      0.335000          0.125389E-03
      0.340000          0.122143E-03
      0.345000          0.119443E-03
      0.350000          0.117211E-03
      0.355000          0.115364E-03
      0.360000          0.113824E-03
      0.365000          0.112516E-03
      0.370000          0.111375E-03
      0.375000          0.110342E-03
      0.380000          0.109372E-03
      0.385000          0.108426E-03
      0.390000          0.107478E-03
      0.395000          0.106509E-03
      0.400000          0.105507E-03
      0.405000          0.104466E-03
      0.410000          0.103384E-03
      0.415000          0.102264E-03
      0.420000          0.101110E-03
      0.425000          0.999266E-04
      0.430000          0.987224E-04
      0.435000          0.975054E-04
      0.440000          0.962849E-04
      0.445000          0.950710E-04
      0.450000          0.938749E-04
      0.455000          0.927082E-04
      0.460000          0.915832E-04
      0.465000          0.905123E-04
      0.470000          0.895071E-04
      0.475000          0.885783E-04
      0.480000          0.877346E-04
      0.485000          0.869821E-04
      0.490000          0.863236E-04
      0.495000          0.857584E-04
      0.500000          0.852815E-04
