 I_abs(s)[cm^-1]/c[mg/ml]
       0.00000          0.139171E-01
      0.500000E-02      0.138601E-01
      0.100000E-01      0.136908E-01
      0.150000E-01      0.134136E-01
      0.200000E-01      0.130355E-01
      0.250000E-01      0.125661E-01
      0.300000E-01      0.120172E-01
      0.350000E-01      0.114020E-01
      0.400000E-01      0.107348E-01
      0.450000E-01      0.100307E-01
      0.500000E-01      0.930457E-02
      0.550000E-01      0.857111E-02
      0.600000E-01      0.784387E-02
      0.650000E-01      0.713518E-02
      0.700000E-01      0.645566E-02
      0.750000E-01      0.581409E-02
      0.800000E-01      0.521721E-02
      0.850000E-01      0.466972E-02
      0.900000E-01      0.417430E-02
      0.950000E-01      0.373176E-02
      0.100000          0.334122E-02
      0.105000          0.300035E-02
      0.110000          0.270569E-02
      0.115000          0.245292E-02
      0.120000          0.223715E-02
      0.125000          0.205324E-02
      0.130000          0.189602E-02
      0.135000          0.176057E-02
      0.140000          0.164231E-02
      0.145000          0.153723E-02
      0.150000          0.144190E-02
      0.155000          0.135353E-02
      0.160000          0.126999E-02
      0.165000          0.118976E-02
      0.170000          0.111183E-02
      0.175000          0.103569E-02
      0.180000          0.961185E-03
      0.185000          0.888444E-03
      0.190000          0.817778E-03
      0.195000          0.749606E-03
      0.200000          0.684379E-03
      0.205000          0.622529E-03
      0.210000          0.564424E-03
      0.215000          0.510341E-03
      0.220000          0.460458E-03
      0.225000          0.414849E-03
      0.230000          0.373490E-03
      0.235000          0.336275E-03
      0.240000          0.303031E-03
      0.245000          0.273533E-03
      0.250000          0.247529E-03
      0.255000          0.224746E-03
      0.260000          0.204909E-03
      0.265000          0.187744E-03
      0.270000          0.172990E-03
      0.275000          0.160399E-03
      0.280000          0.149734E-03
      0.285000          0.140775E-03
      0.290000          0.133311E-03
      0.295000          0.127145E-03
      0.300000          0.122086E-03
      0.305000          0.117956E-03
      0.310000          0.114584E-03
      0.315000          0.111813E-03
      0.320000          0.109499E-03
      0.325000          0.107512E-03
      0.330000          0.105744E-03
      0.335000          0.104103E-03
      0.340000          0.102521E-03
      0.345000          0.100952E-03
      0.350000          0.993707E-04
      0.355000          0.977704E-04
      0.360000          0.961620E-04
      0.365000          0.945691E-04
      0.370000          0.930244E-04
      0.375000          0.915654E-04
      0.380000          0.902298E-04
      0.385000          0.890520E-04
      0.390000          0.880595E-04
      0.395000          0.872706E-04
      0.400000          0.866929E-04
      0.405000          0.863223E-04
      0.410000          0.861440E-04
      0.415000          0.861332E-04
      0.420000          0.862571E-04
      0.425000          0.864770E-04
      0.430000          0.867514E-04
      0.435000          0.870382E-04
      0.440000          0.872973E-04
      0.445000          0.874929E-04
      0.450000          0.875951E-04
      0.455000          0.875813E-04
      0.460000          0.874368E-04
      0.465000          0.871549E-04
      0.470000          0.867368E-04
      0.475000          0.861905E-04
      0.480000          0.855296E-04
      0.485000          0.847725E-04
      0.490000          0.839404E-04
      0.495000          0.830560E-04
      0.500000          0.821421E-04
