 I_abs(s)[cm^-1]/c[mg/ml]
       0.00000          0.141742E-01
      0.500000E-02      0.141153E-01
      0.100000E-01      0.139401E-01
      0.150000E-01      0.136536E-01
      0.200000E-01      0.132639E-01
      0.250000E-01      0.127816E-01
      0.300000E-01      0.122198E-01
      0.350000E-01      0.115930E-01
      0.400000E-01      0.109168E-01
      0.450000E-01      0.102073E-01
      0.500000E-01      0.948017E-02
      0.550000E-01      0.875036E-02
      0.600000E-01      0.803148E-02
      0.650000E-01      0.733537E-02
      0.700000E-01      0.667184E-02
      0.750000E-01      0.604846E-02
      0.800000E-01      0.547055E-02
      0.850000E-01      0.494122E-02
      0.900000E-01      0.446151E-02
      0.950000E-01      0.403068E-02
      0.100000          0.364651E-02
      0.105000          0.330561E-02
      0.110000          0.300383E-02
      0.115000          0.273657E-02
      0.120000          0.249910E-02
      0.125000          0.228687E-02
      0.130000          0.209567E-02
      0.135000          0.192184E-02
      0.140000          0.176232E-02
      0.145000          0.161472E-02
      0.150000          0.147726E-02
      0.155000          0.134874E-02
      0.160000          0.122843E-02
      0.165000          0.111597E-02
      0.170000          0.101124E-02
      0.175000          0.914265E-03
      0.180000          0.825113E-03
      0.185000          0.743800E-03
      0.190000          0.670251E-03
      0.195000          0.604259E-03
      0.200000          0.545479E-03
      0.205000          0.493439E-03
      0.210000          0.447562E-03
      0.215000          0.407207E-03
      0.220000          0.371704E-03
      0.225000          0.340397E-03
      0.230000          0.312678E-03
      0.235000          0.288013E-03
      0.240000          0.265961E-03
      0.245000          0.246179E-03
      0.250000          0.228419E-03
      0.255000          0.212514E-03
      0.260000          0.198365E-03
      0.265000          0.185911E-03
      0.270000          0.175114E-03
      0.275000          0.165932E-03
      0.280000          0.158306E-03
      0.285000          0.152142E-03
      0.290000          0.147311E-03
      0.295000          0.143646E-03
      0.300000          0.140946E-03
      0.305000          0.138990E-03
      0.310000          0.137548E-03
      0.315000          0.136396E-03
      0.320000          0.135330E-03
      0.325000          0.134182E-03
      0.330000          0.132824E-03
      0.335000          0.131179E-03
      0.340000          0.129221E-03
      0.345000          0.126970E-03
      0.350000          0.124491E-03
      0.355000          0.121877E-03
      0.360000          0.119242E-03
      0.365000          0.116710E-03
      0.370000          0.114395E-03
      0.375000          0.112398E-03
      0.380000          0.110792E-03
      0.385000          0.109619E-03
      0.390000          0.108883E-03
      0.395000          0.108554E-03
      0.400000          0.108569E-03
      0.405000          0.108838E-03
      0.410000          0.109251E-03
      0.415000          0.109690E-03
      0.420000          0.110034E-03
      0.425000          0.110170E-03
      0.430000          0.110003E-03
      0.435000          0.109463E-03
      0.440000          0.108505E-03
      0.445000          0.107116E-03
      0.450000          0.105314E-03
      0.455000          0.103146E-03
      0.460000          0.100683E-03
      0.465000          0.980161E-04
      0.470000          0.952480E-04
      0.475000          0.924879E-04
      0.480000          0.898427E-04
      0.485000          0.874111E-04
      0.490000          0.852773E-04
      0.495000          0.835066E-04
      0.500000          0.821415E-04
