 I_abs(s)[cm^-1]/c[mg/ml]
       0.00000          0.143628E-01
      0.500000E-02      0.143127E-01
      0.100000E-01      0.141637E-01
      0.150000E-01      0.139188E-01
      0.200000E-01      0.135833E-01
      0.250000E-01      0.131641E-01
      0.300000E-01      0.126698E-01
      0.350000E-01      0.121102E-01
      0.400000E-01      0.114964E-01
      0.450000E-01      0.108398E-01
      0.500000E-01      0.101525E-01
      0.550000E-01      0.944618E-02
      0.600000E-01      0.873254E-02
      0.650000E-01      0.802244E-02
      0.700000E-01      0.732589E-02
      0.750000E-01      0.665176E-02
      0.800000E-01      0.600764E-02
      0.850000E-01      0.539974E-02
      0.900000E-01      0.483281E-02
      0.950000E-01      0.431016E-02
      0.100000          0.383368E-02
      0.105000          0.340398E-02
      0.110000          0.302047E-02
      0.115000          0.268153E-02
      0.120000          0.238472E-02
      0.125000          0.212692E-02
      0.130000          0.190453E-02
      0.135000          0.171367E-02
      0.140000          0.155036E-02
      0.145000          0.141061E-02
      0.150000          0.129062E-02
      0.155000          0.118684E-02
      0.160000          0.109609E-02
      0.165000          0.101556E-02
      0.170000          0.942881E-03
      0.175000          0.876127E-03
      0.180000          0.813785E-03
      0.185000          0.754738E-03
      0.190000          0.698226E-03
      0.195000          0.643792E-03
      0.200000          0.591235E-03
      0.205000          0.540548E-03
      0.210000          0.491871E-03
      0.215000          0.445436E-03
      0.220000          0.401525E-03
      0.225000          0.360430E-03
      0.230000          0.322422E-03
      0.235000          0.287727E-03
      0.240000          0.256511E-03
      0.245000          0.228866E-03
      0.250000          0.204812E-03
      0.255000          0.184289E-03
      0.260000          0.167170E-03
      0.265000          0.153264E-03
      0.270000          0.142329E-03
      0.275000          0.134081E-03
      0.280000          0.128207E-03
      0.285000          0.124375E-03
      0.290000          0.122249E-03
      0.295000          0.121494E-03
      0.300000          0.121790E-03
      0.305000          0.122836E-03
      0.310000          0.124357E-03
      0.315000          0.126110E-03
      0.320000          0.127883E-03
      0.325000          0.129501E-03
      0.330000          0.130825E-03
      0.335000          0.131749E-03
      0.340000          0.132203E-03
      0.345000          0.132145E-03
      0.350000          0.131563E-03
      0.355000          0.130466E-03
      0.360000          0.128887E-03
      0.365000          0.126872E-03
      0.370000          0.124481E-03
      0.375000          0.121782E-03
      0.380000          0.118848E-03
      0.385000          0.115754E-03
      0.390000          0.112572E-03
      0.395000          0.109371E-03
      0.400000          0.106216E-03
      0.405000          0.103161E-03
      0.410000          0.100255E-03
      0.415000          0.975356E-04
      0.420000          0.950332E-04
      0.425000          0.927678E-04
      0.430000          0.907509E-04
      0.435000          0.889864E-04
      0.440000          0.874707E-04
      0.445000          0.861942E-04
      0.450000          0.851421E-04
      0.455000          0.842956E-04
      0.460000          0.836331E-04
      0.465000          0.831308E-04
      0.470000          0.827643E-04
      0.475000          0.825089E-04
      0.480000          0.823406E-04
      0.485000          0.822370E-04
      0.490000          0.821771E-04
      0.495000          0.821426E-04
      0.500000          0.821174E-04
