 I_abs(s)[cm^-1]/c[mg/ml]
       0.00000          0.138318E-01
      0.500000E-02      0.137653E-01
      0.100000E-01      0.135678E-01
      0.150000E-01      0.132463E-01
      0.200000E-01      0.128113E-01
      0.250000E-01      0.122773E-01
      0.300000E-01      0.116609E-01
      0.350000E-01      0.109808E-01
      0.400000E-01      0.102563E-01
      0.450000E-01      0.950651E-02
      0.500000E-01      0.874958E-02
      0.550000E-01      0.800181E-02
      0.600000E-01      0.727720E-02
      0.650000E-01      0.658708E-02
      0.700000E-01      0.593991E-02
      0.750000E-01      0.534135E-02
      0.800000E-01      0.479443E-02
      0.850000E-01      0.429988E-02
      0.900000E-01      0.385652E-02
      0.950000E-01      0.346171E-02
      0.100000          0.311181E-02
      0.105000          0.280255E-02
      0.110000          0.252946E-02
      0.115000          0.228811E-02
      0.120000          0.207434E-02
      0.125000          0.188438E-02
      0.130000          0.171496E-02
      0.135000          0.156328E-02
      0.140000          0.142701E-02
      0.145000          0.130422E-02
      0.150000          0.119335E-02
      0.155000          0.109312E-02
      0.160000          0.100248E-02
      0.165000          0.920547E-03
      0.170000          0.846595E-03
      0.175000          0.779989E-03
      0.180000          0.720172E-03
      0.185000          0.666647E-03
      0.190000          0.618951E-03
      0.195000          0.576640E-03
      0.200000          0.539272E-03
      0.205000          0.506396E-03
      0.210000          0.477539E-03
      0.215000          0.452206E-03
      0.220000          0.429882E-03
      0.225000          0.410039E-03
      0.230000          0.392154E-03
      0.235000          0.375728E-03
      0.240000          0.360306E-03
      0.245000          0.345499E-03
      0.250000          0.330998E-03
      0.255000          0.316591E-03
      0.260000          0.302159E-03
      0.265000          0.287677E-03
      0.270000          0.273199E-03
      0.275000          0.258845E-03
      0.280000          0.244772E-03
      0.285000          0.231157E-03
      0.290000          0.218172E-03
      0.295000          0.205965E-03
      0.300000          0.194650E-03
      0.305000          0.184296E-03
      0.310000          0.174924E-03
      0.315000          0.166516E-03
      0.320000          0.159019E-03
      0.325000          0.152355E-03
      0.330000          0.146431E-03
      0.335000          0.141154E-03
      0.340000          0.136432E-03
      0.345000          0.132183E-03
      0.350000          0.128338E-03
      0.355000          0.124839E-03
      0.360000          0.121638E-03
      0.365000          0.118694E-03
      0.370000          0.115970E-03
      0.375000          0.113433E-03
      0.380000          0.111047E-03
      0.385000          0.108778E-03
      0.390000          0.106596E-03
      0.395000          0.104471E-03
      0.400000          0.102382E-03
      0.405000          0.100315E-03
      0.410000          0.982672E-04
      0.415000          0.962449E-04
      0.420000          0.942645E-04
      0.425000          0.923492E-04
      0.430000          0.905267E-04
      0.435000          0.888252E-04
      0.440000          0.872702E-04
      0.445000          0.858809E-04
      0.450000          0.846681E-04
      0.455000          0.836329E-04
      0.460000          0.827662E-04
      0.465000          0.820502E-04
      0.470000          0.814597E-04
      0.475000          0.809647E-04
      0.480000          0.805327E-04
      0.485000          0.801313E-04
      0.490000          0.797301E-04
      0.495000          0.793022E-04
      0.500000          0.788249E-04
