 I_abs(s)[cm^-1]/c[mg/ml]
       0.00000          0.141977E-01
      0.500000E-02      0.141401E-01
      0.100000E-01      0.139687E-01
      0.150000E-01      0.136882E-01
      0.200000E-01      0.133058E-01
      0.250000E-01      0.128315E-01
      0.300000E-01      0.122773E-01
      0.350000E-01      0.116569E-01
      0.400000E-01      0.109849E-01
      0.450000E-01      0.102767E-01
      0.500000E-01      0.954730E-02
      0.550000E-01      0.881147E-02
      0.600000E-01      0.808277E-02
      0.650000E-01      0.737333E-02
      0.700000E-01      0.669353E-02
      0.750000E-01      0.605176E-02
      0.800000E-01      0.545433E-02
      0.850000E-01      0.490545E-02
      0.900000E-01      0.440732E-02
      0.950000E-01      0.396027E-02
      0.100000          0.356303E-02
      0.105000          0.321297E-02
      0.110000          0.290644E-02
      0.115000          0.263906E-02
      0.120000          0.240603E-02
      0.125000          0.220244E-02
      0.130000          0.202349E-02
      0.135000          0.186471E-02
      0.140000          0.172211E-02
      0.145000          0.159228E-02
      0.150000          0.147245E-02
      0.155000          0.136048E-02
      0.160000          0.125484E-02
      0.165000          0.115455E-02
      0.170000          0.105907E-02
      0.175000          0.968242E-03
      0.180000          0.882145E-03
      0.185000          0.801025E-03
      0.190000          0.725193E-03
      0.195000          0.654952E-03
      0.200000          0.590540E-03
      0.205000          0.532088E-03
      0.210000          0.479596E-03
      0.215000          0.432933E-03
      0.220000          0.391835E-03
      0.225000          0.355931E-03
      0.230000          0.324764E-03
      0.235000          0.297820E-03
      0.240000          0.274561E-03
      0.245000          0.254449E-03
      0.250000          0.236974E-03
      0.255000          0.221670E-03
      0.260000          0.208131E-03
      0.265000          0.196020E-03
      0.270000          0.185066E-03
      0.275000          0.175065E-03
      0.280000          0.165874E-03
      0.285000          0.157397E-03
      0.290000          0.149581E-03
      0.295000          0.142399E-03
      0.300000          0.135842E-03
      0.305000          0.129909E-03
      0.310000          0.124600E-03
      0.315000          0.119908E-03
      0.320000          0.115817E-03
      0.325000          0.112301E-03
      0.330000          0.109320E-03
      0.335000          0.106827E-03
      0.340000          0.104763E-03
      0.345000          0.103067E-03
      0.350000          0.101674E-03
      0.355000          0.100520E-03
      0.360000          0.995441E-04
      0.365000          0.986915E-04
      0.370000          0.979142E-04
      0.375000          0.971723E-04
      0.380000          0.964345E-04
      0.385000          0.956781E-04
      0.390000          0.948880E-04
      0.395000          0.940560E-04
      0.400000          0.931795E-04
      0.405000          0.922605E-04
      0.410000          0.913040E-04
      0.415000          0.903171E-04
      0.420000          0.893077E-04
      0.425000          0.882837E-04
      0.430000          0.872526E-04
      0.435000          0.862208E-04
      0.440000          0.851936E-04
      0.445000          0.841752E-04
      0.450000          0.831688E-04
      0.455000          0.821769E-04
      0.460000          0.812018E-04
      0.465000          0.802458E-04
      0.470000          0.793115E-04
      0.475000          0.784027E-04
      0.480000          0.775239E-04
      0.485000          0.766806E-04
      0.490000          0.758799E-04
      0.495000          0.751296E-04
      0.500000          0.744382E-04
