 I_abs(s)[cm^-1]/c[mg/ml]
       0.00000          0.144971E-01
      0.500000E-02      0.144317E-01
      0.100000E-01      0.142372E-01
      0.150000E-01      0.139187E-01
      0.200000E-01      0.134843E-01
      0.250000E-01      0.129448E-01
      0.300000E-01      0.123136E-01
      0.350000E-01      0.116058E-01
      0.400000E-01      0.108380E-01
      0.450000E-01      0.100274E-01
      0.500000E-01      0.919125E-02
      0.550000E-01      0.834652E-02
      0.600000E-01      0.750913E-02
      0.650000E-01      0.669354E-02
      0.700000E-01      0.591245E-02
      0.750000E-01      0.517647E-02
      0.800000E-01      0.449395E-02
      0.850000E-01      0.387095E-02
      0.900000E-01      0.331120E-02
      0.950000E-01      0.281630E-02
      0.100000          0.238584E-02
      0.105000          0.201768E-02
      0.110000          0.170825E-02
      0.115000          0.145286E-02
      0.120000          0.124600E-02
      0.125000          0.108170E-02
      0.130000          0.953782E-03
      0.135000          0.856118E-03
      0.140000          0.782872E-03
      0.145000          0.728656E-03
      0.150000          0.688653E-03
      0.155000          0.658703E-03
      0.160000          0.635337E-03
      0.165000          0.615776E-03
      0.170000          0.597901E-03
      0.175000          0.580201E-03
      0.180000          0.561693E-03
      0.185000          0.541851E-03
      0.190000          0.520511E-03
      0.195000          0.497789E-03
      0.200000          0.474000E-03
      0.205000          0.449584E-03
      0.210000          0.425047E-03
      0.215000          0.400904E-03
      0.220000          0.377641E-03
      0.225000          0.355683E-03
      0.230000          0.335375E-03
      0.235000          0.316969E-03
      0.240000          0.300621E-03
      0.245000          0.286391E-03
      0.250000          0.274249E-03
      0.255000          0.264089E-03
      0.260000          0.255735E-03
      0.265000          0.248963E-03
      0.270000          0.243509E-03
      0.275000          0.239090E-03
      0.280000          0.235414E-03
      0.285000          0.232199E-03
      0.290000          0.229181E-03
      0.295000          0.226126E-03
      0.300000          0.222842E-03
      0.305000          0.219176E-03
      0.310000          0.215030E-03
      0.315000          0.210349E-03
      0.320000          0.205130E-03
      0.325000          0.199412E-03
      0.330000          0.193271E-03
      0.335000          0.186817E-03
      0.340000          0.180178E-03
      0.345000          0.173499E-03
      0.350000          0.166925E-03
      0.355000          0.160599E-03
      0.360000          0.154650E-03
      0.365000          0.149189E-03
      0.370000          0.144302E-03
      0.375000          0.140046E-03
      0.380000          0.136452E-03
      0.385000          0.133520E-03
      0.390000          0.131225E-03
      0.395000          0.129517E-03
      0.400000          0.128326E-03
      0.405000          0.127569E-03
      0.410000          0.127154E-03
      0.415000          0.126983E-03
      0.420000          0.126962E-03
      0.425000          0.127001E-03
      0.430000          0.127019E-03
      0.435000          0.126949E-03
      0.440000          0.126737E-03
      0.445000          0.126345E-03
      0.450000          0.125749E-03
      0.455000          0.124941E-03
      0.460000          0.123925E-03
      0.465000          0.122718E-03
      0.470000          0.121342E-03
      0.475000          0.119830E-03
      0.480000          0.118215E-03
      0.485000          0.116535E-03
      0.490000          0.114825E-03
      0.495000          0.113117E-03
      0.500000          0.111443E-03
