 I_abs(s)[cm^-1]/c[mg/ml]
       0.00000          0.141742E-01
      0.500000E-02      0.141175E-01
      0.100000E-01      0.139487E-01
      0.150000E-01      0.136726E-01
      0.200000E-01      0.132966E-01
      0.250000E-01      0.128307E-01
      0.300000E-01      0.122869E-01
      0.350000E-01      0.116789E-01
      0.400000E-01      0.110212E-01
      0.450000E-01      0.103288E-01
      0.500000E-01      0.961650E-02
      0.550000E-01      0.889827E-02
      0.600000E-01      0.818698E-02
      0.650000E-01      0.749393E-02
      0.700000E-01      0.682857E-02
      0.750000E-01      0.619835E-02
      0.800000E-01      0.560869E-02
      0.850000E-01      0.506302E-02
      0.900000E-01      0.456292E-02
      0.950000E-01      0.410835E-02
      0.100000          0.369789E-02
      0.105000          0.332909E-02
      0.110000          0.299874E-02
      0.115000          0.270318E-02
      0.120000          0.243858E-02
      0.125000          0.220116E-02
      0.130000          0.198739E-02
      0.135000          0.179413E-02
      0.140000          0.161866E-02
      0.145000          0.145878E-02
      0.150000          0.131274E-02
      0.155000          0.117923E-02
      0.160000          0.105729E-02
      0.165000          0.946235E-03
      0.170000          0.845581E-03
      0.175000          0.754935E-03
      0.180000          0.673938E-03
      0.185000          0.602209E-03
      0.190000          0.539301E-03
      0.195000          0.484681E-03
      0.200000          0.437726E-03
      0.205000          0.397732E-03
      0.210000          0.363934E-03
      0.215000          0.335534E-03
      0.220000          0.311734E-03
      0.225000          0.291763E-03
      0.230000          0.274905E-03
      0.235000          0.260520E-03
      0.240000          0.248062E-03
      0.245000          0.237080E-03
      0.250000          0.227224E-03
      0.255000          0.218236E-03
      0.260000          0.209943E-03
      0.265000          0.202236E-03
      0.270000          0.195064E-03
      0.275000          0.188411E-03
      0.280000          0.182284E-03
      0.285000          0.176701E-03
      0.290000          0.171679E-03
      0.295000          0.167228E-03
      0.300000          0.163345E-03
      0.305000          0.160012E-03
      0.310000          0.157196E-03
      0.315000          0.154852E-03
      0.320000          0.152923E-03
      0.325000          0.151343E-03
      0.330000          0.150043E-03
      0.335000          0.148950E-03
      0.340000          0.147993E-03
      0.345000          0.147103E-03
      0.350000          0.146216E-03
      0.355000          0.145274E-03
      0.360000          0.144223E-03
      0.365000          0.143019E-03
      0.370000          0.141624E-03
      0.375000          0.140007E-03
      0.380000          0.138149E-03
      0.385000          0.136035E-03
      0.390000          0.133663E-03
      0.395000          0.131037E-03
      0.400000          0.128172E-03
      0.405000          0.125090E-03
      0.410000          0.121823E-03
      0.415000          0.118409E-03
      0.420000          0.114890E-03
      0.425000          0.111315E-03
      0.430000          0.107733E-03
      0.435000          0.104196E-03
      0.440000          0.100750E-03
      0.445000          0.974398E-04
      0.450000          0.943048E-04
      0.455000          0.913765E-04
      0.460000          0.886783E-04
      0.465000          0.862253E-04
      0.470000          0.840238E-04
      0.475000          0.820717E-04
      0.480000          0.803598E-04
      0.485000          0.788727E-04
      0.490000          0.775905E-04
      0.495000          0.764904E-04
      0.500000          0.755486E-04
