 I_abs(s)[cm^-1]/c[mg/ml]
       0.00000          0.141664E-01
      0.500000E-02      0.141143E-01
      0.100000E-01      0.139591E-01
      0.150000E-01      0.137044E-01
      0.200000E-01      0.133558E-01
      0.250000E-01      0.129212E-01
      0.300000E-01      0.124099E-01
      0.350000E-01      0.118329E-01
      0.400000E-01      0.112020E-01
      0.450000E-01      0.105298E-01
      0.500000E-01      0.982916E-02
      0.550000E-01      0.911266E-02
      0.600000E-01      0.839247E-02
      0.650000E-01      0.767992E-02
      0.700000E-01      0.698520E-02
      0.750000E-01      0.631719E-02
      0.800000E-01      0.568327E-02
      0.850000E-01      0.508927E-02
      0.900000E-01      0.453939E-02
      0.950000E-01      0.403629E-02
      0.100000          0.358117E-02
      0.105000          0.317387E-02
      0.110000          0.281308E-02
      0.115000          0.249653E-02
      0.120000          0.222116E-02
      0.125000          0.198340E-02
      0.130000          0.177931E-02
      0.135000          0.160480E-02
      0.140000          0.145580E-02
      0.145000          0.132839E-02
      0.150000          0.121894E-02
      0.155000          0.112414E-02
      0.160000          0.104113E-02
      0.165000          0.967441E-03
      0.170000          0.901076E-03
      0.175000          0.840441E-03
      0.180000          0.784327E-03
      0.185000          0.731870E-03
      0.190000          0.682486E-03
      0.195000          0.635826E-03
      0.200000          0.591714E-03
      0.205000          0.550094E-03
      0.210000          0.510988E-03
      0.215000          0.474455E-03
      0.220000          0.440555E-03
      0.225000          0.409329E-03
      0.230000          0.380785E-03
      0.235000          0.354881E-03
      0.240000          0.331533E-03
      0.245000          0.310607E-03
      0.250000          0.291933E-03
      0.255000          0.275308E-03
      0.260000          0.260509E-03
      0.265000          0.247304E-03
      0.270000          0.235460E-03
      0.275000          0.224752E-03
      0.280000          0.214976E-03
      0.285000          0.205949E-03
      0.290000          0.197515E-03
      0.295000          0.189551E-03
      0.300000          0.181962E-03
      0.305000          0.174685E-03
      0.310000          0.167684E-03
      0.315000          0.160945E-03
      0.320000          0.154475E-03
      0.325000          0.148295E-03
      0.330000          0.142437E-03
      0.335000          0.136936E-03
      0.340000          0.131828E-03
      0.345000          0.127143E-03
      0.350000          0.122905E-03
      0.355000          0.119129E-03
      0.360000          0.115816E-03
      0.365000          0.112954E-03
      0.370000          0.110521E-03
      0.375000          0.108482E-03
      0.380000          0.106792E-03
      0.385000          0.105399E-03
      0.390000          0.104244E-03
      0.395000          0.103268E-03
      0.400000          0.102411E-03
      0.405000          0.101616E-03
      0.410000          0.100834E-03
      0.415000          0.100021E-03
      0.420000          0.991423E-04
      0.425000          0.981750E-04
      0.430000          0.971057E-04
      0.435000          0.959313E-04
      0.440000          0.946588E-04
      0.445000          0.933032E-04
      0.450000          0.918869E-04
      0.455000          0.904371E-04
      0.460000          0.889845E-04
      0.465000          0.875607E-04
      0.470000          0.861971E-04
      0.475000          0.849223E-04
      0.480000          0.837611E-04
      0.485000          0.827331E-04
      0.490000          0.818519E-04
      0.495000          0.811246E-04
      0.500000          0.805513E-04
