 I_abs(s)[cm^-1]/c[mg/ml]
       0.00000          0.151536E-01
      0.500000E-02      0.151073E-01
      0.100000E-01      0.149691E-01
      0.150000E-01      0.147414E-01
      0.200000E-01      0.144279E-01
      0.250000E-01      0.140338E-01
      0.300000E-01      0.135656E-01
      0.350000E-01      0.130307E-01
      0.400000E-01      0.124376E-01
      0.450000E-01      0.117954E-01
      0.500000E-01      0.111138E-01
      0.550000E-01      0.104026E-01
      0.600000E-01      0.967183E-02
      0.650000E-01      0.893121E-02
      0.700000E-01      0.819019E-02
      0.750000E-01      0.745762E-02
      0.800000E-01      0.674169E-02
      0.850000E-01      0.604972E-02
      0.900000E-01      0.538807E-02
      0.950000E-01      0.476211E-02
      0.100000          0.417612E-02
      0.105000          0.363333E-02
      0.110000          0.313588E-02
      0.115000          0.268490E-02
      0.120000          0.228059E-02
      0.125000          0.192224E-02
      0.130000          0.160841E-02
      0.135000          0.133698E-02
      0.140000          0.110531E-02
      0.145000          0.910340E-03
      0.150000          0.748730E-03
      0.155000          0.616956E-03
      0.160000          0.511430E-03
      0.165000          0.428595E-03
      0.170000          0.365013E-03
      0.175000          0.317435E-03
      0.180000          0.282856E-03
      0.185000          0.258560E-03
      0.190000          0.242145E-03
      0.195000          0.231539E-03
      0.200000          0.224999E-03
      0.205000          0.221105E-03
      0.210000          0.218739E-03
      0.215000          0.217063E-03
      0.220000          0.215482E-03
      0.225000          0.213618E-03
      0.230000          0.211265E-03
      0.235000          0.208362E-03
      0.240000          0.204952E-03
      0.245000          0.201153E-03
      0.250000          0.197126E-03
      0.255000          0.193053E-03
      0.260000          0.189117E-03
      0.265000          0.185482E-03
      0.270000          0.182282E-03
      0.275000          0.179617E-03
      0.280000          0.177546E-03
      0.285000          0.176086E-03
      0.290000          0.175216E-03
      0.295000          0.174880E-03
      0.300000          0.174994E-03
      0.305000          0.175453E-03
      0.310000          0.176136E-03
      0.315000          0.176917E-03
      0.320000          0.177669E-03
      0.325000          0.178272E-03
      0.330000          0.178618E-03
      0.335000          0.178614E-03
      0.340000          0.178186E-03
      0.345000          0.177282E-03
      0.350000          0.175871E-03
      0.355000          0.173942E-03
      0.360000          0.171506E-03
      0.365000          0.168589E-03
      0.370000          0.165235E-03
      0.375000          0.161498E-03
      0.380000          0.157443E-03
      0.385000          0.153139E-03
      0.390000          0.148659E-03
      0.395000          0.144074E-03
      0.400000          0.139454E-03
      0.405000          0.134864E-03
      0.410000          0.130360E-03
      0.415000          0.125991E-03
      0.420000          0.121800E-03
      0.425000          0.117816E-03
      0.430000          0.114063E-03
      0.435000          0.110554E-03
      0.440000          0.107296E-03
      0.445000          0.104288E-03
      0.450000          0.101524E-03
      0.455000          0.989929E-04
      0.460000          0.966807E-04
      0.465000          0.945716E-04
      0.470000          0.926493E-04
      0.475000          0.908971E-04
      0.480000          0.892998E-04
      0.485000          0.878437E-04
      0.490000          0.865173E-04
      0.495000          0.853116E-04
      0.500000          0.842199E-04
