 I_abs(s)[cm^-1]/c[mg/ml]
       0.00000          0.142056E-01
      0.500000E-02      0.141392E-01
      0.100000E-01      0.139421E-01
      0.150000E-01      0.136207E-01
      0.200000E-01      0.131851E-01
      0.250000E-01      0.126488E-01
      0.300000E-01      0.120278E-01
      0.350000E-01      0.113401E-01
      0.400000E-01      0.106044E-01
      0.450000E-01      0.983956E-02
      0.500000E-01      0.906372E-02
      0.550000E-01      0.829351E-02
      0.600000E-01      0.754348E-02
      0.650000E-01      0.682575E-02
      0.700000E-01      0.614971E-02
      0.750000E-01      0.552198E-02
      0.800000E-01      0.494650E-02
      0.850000E-01      0.442479E-02
      0.900000E-01      0.395625E-02
      0.950000E-01      0.353862E-02
      0.100000          0.316839E-02
      0.105000          0.284124E-02
      0.110000          0.255247E-02
      0.115000          0.229735E-02
      0.120000          0.207137E-02
      0.125000          0.187048E-02
      0.130000          0.169116E-02
      0.135000          0.153051E-02
      0.140000          0.138617E-02
      0.145000          0.125634E-02
      0.150000          0.113960E-02
      0.155000          0.103485E-02
      0.160000          0.941205E-03
      0.165000          0.857864E-03
      0.170000          0.784068E-03
      0.175000          0.719036E-03
      0.180000          0.661942E-03
      0.185000          0.611910E-03
      0.190000          0.568031E-03
      0.195000          0.529388E-03
      0.200000          0.495091E-03
      0.205000          0.464312E-03
      0.210000          0.436311E-03
      0.215000          0.410463E-03
      0.220000          0.386265E-03
      0.225000          0.363343E-03
      0.230000          0.341445E-03
      0.235000          0.320426E-03
      0.240000          0.300228E-03
      0.245000          0.280864E-03
      0.250000          0.262390E-03
      0.255000          0.244891E-03
      0.260000          0.228460E-03
      0.265000          0.213186E-03
      0.270000          0.199147E-03
      0.275000          0.186399E-03
      0.280000          0.174978E-03
      0.285000          0.164896E-03
      0.290000          0.156141E-03
      0.295000          0.148681E-03
      0.300000          0.142463E-03
      0.305000          0.137412E-03
      0.310000          0.133441E-03
      0.315000          0.130441E-03
      0.320000          0.128295E-03
      0.325000          0.126871E-03
      0.330000          0.126034E-03
      0.335000          0.125645E-03
      0.340000          0.125567E-03
      0.345000          0.125674E-03
      0.350000          0.125852E-03
      0.355000          0.126007E-03
      0.360000          0.126068E-03
      0.365000          0.125985E-03
      0.370000          0.125739E-03
      0.375000          0.125329E-03
      0.380000          0.124778E-03
      0.385000          0.124122E-03
      0.390000          0.123407E-03
      0.395000          0.122682E-03
      0.400000          0.121992E-03
      0.405000          0.121371E-03
      0.410000          0.120842E-03
      0.415000          0.120408E-03
      0.420000          0.120055E-03
      0.425000          0.119753E-03
      0.430000          0.119458E-03
      0.435000          0.119114E-03
      0.440000          0.118664E-03
      0.445000          0.118048E-03
      0.450000          0.117216E-03
      0.455000          0.116129E-03
      0.460000          0.114761E-03
      0.465000          0.113105E-03
      0.470000          0.111171E-03
      0.475000          0.108987E-03
      0.480000          0.106595E-03
      0.485000          0.104048E-03
      0.490000          0.101405E-03
      0.495000          0.987291E-04
      0.500000          0.960804E-04
