 I_abs(s)[cm^-1]/c[mg/ml]
       0.00000          0.147915E-01
      0.500000E-02      0.147472E-01
      0.100000E-01      0.146151E-01
      0.150000E-01      0.143974E-01
      0.200000E-01      0.140979E-01
      0.250000E-01      0.137216E-01
      0.300000E-01      0.132749E-01
      0.350000E-01      0.127650E-01
      0.400000E-01      0.122003E-01
      0.450000E-01      0.115896E-01
      0.500000E-01      0.109421E-01
      0.550000E-01      0.102674E-01
      0.600000E-01      0.957497E-02
      0.650000E-01      0.887413E-02
      0.700000E-01      0.817371E-02
      0.750000E-01      0.748201E-02
      0.800000E-01      0.680655E-02
      0.850000E-01      0.615401E-02
      0.900000E-01      0.553012E-02
      0.950000E-01      0.493960E-02
      0.100000          0.438615E-02
      0.105000          0.387244E-02
      0.110000          0.340014E-02
      0.115000          0.296999E-02
      0.120000          0.258188E-02
      0.125000          0.223494E-02
      0.130000          0.192765E-02
      0.135000          0.165794E-02
      0.140000          0.142334E-02
      0.145000          0.122107E-02
      0.150000          0.104817E-02
      0.155000          0.901581E-03
      0.160000          0.778256E-03
      0.165000          0.675231E-03
      0.170000          0.589694E-03
      0.175000          0.519030E-03
      0.180000          0.460861E-03
      0.185000          0.413065E-03
      0.190000          0.373787E-03
      0.195000          0.341439E-03
      0.200000          0.314684E-03
      0.205000          0.292422E-03
      0.210000          0.273765E-03
      0.215000          0.258010E-03
      0.220000          0.244609E-03
      0.225000          0.233144E-03
      0.230000          0.223297E-03
      0.235000          0.214825E-03
      0.240000          0.207543E-03
      0.245000          0.201298E-03
      0.250000          0.195963E-03
      0.255000          0.191423E-03
      0.260000          0.187567E-03
      0.265000          0.184287E-03
      0.270000          0.181474E-03
      0.275000          0.179020E-03
      0.280000          0.176823E-03
      0.285000          0.174783E-03
      0.290000          0.172812E-03
      0.295000          0.170831E-03
      0.300000          0.168777E-03
      0.305000          0.166603E-03
      0.310000          0.164277E-03
      0.315000          0.161785E-03
      0.320000          0.159125E-03
      0.325000          0.156312E-03
      0.330000          0.153368E-03
      0.335000          0.150326E-03
      0.340000          0.147222E-03
      0.345000          0.144094E-03
      0.350000          0.140982E-03
      0.355000          0.137919E-03
      0.360000          0.134936E-03
      0.365000          0.132057E-03
      0.370000          0.129301E-03
      0.375000          0.126677E-03
      0.380000          0.124191E-03
      0.385000          0.121842E-03
      0.390000          0.119626E-03
      0.395000          0.117534E-03
      0.400000          0.115557E-03
      0.405000          0.113686E-03
      0.410000          0.111912E-03
      0.415000          0.110228E-03
      0.420000          0.108630E-03
      0.425000          0.107116E-03
      0.430000          0.105686E-03
      0.435000          0.104344E-03
      0.440000          0.103095E-03
      0.445000          0.101942E-03
      0.450000          0.100891E-03
      0.455000          0.999465E-04
      0.460000          0.991088E-04
      0.465000          0.983768E-04
      0.470000          0.977453E-04
      0.475000          0.972052E-04
      0.480000          0.967432E-04
      0.485000          0.963422E-04
      0.490000          0.959814E-04
      0.495000          0.956376E-04
      0.500000          0.952856E-04
