 I_abs(s)[cm^-1]/c[mg/ml]
       0.00000          0.147755E-01
      0.500000E-02      0.147151E-01
      0.100000E-01      0.145353E-01
      0.150000E-01      0.142406E-01
      0.200000E-01      0.138381E-01
      0.250000E-01      0.133375E-01
      0.300000E-01      0.127505E-01
      0.350000E-01      0.120905E-01
      0.400000E-01      0.113721E-01
      0.450000E-01      0.106106E-01
      0.500000E-01      0.982145E-02
      0.550000E-01      0.901964E-02
      0.600000E-01      0.821946E-02
      0.650000E-01      0.743393E-02
      0.700000E-01      0.667459E-02
      0.750000E-01      0.595116E-02
      0.800000E-01      0.527146E-02
      0.850000E-01      0.464134E-02
      0.900000E-01      0.406466E-02
      0.950000E-01      0.354345E-02
      0.100000          0.307801E-02
      0.105000          0.266717E-02
      0.110000          0.230854E-02
      0.115000          0.199871E-02
      0.120000          0.173363E-02
      0.125000          0.150875E-02
      0.130000          0.131938E-02
      0.135000          0.116081E-02
      0.140000          0.102851E-02
      0.145000          0.918300E-03
      0.150000          0.826398E-03
      0.155000          0.749500E-03
      0.160000          0.684793E-03
      0.165000          0.629950E-03
      0.170000          0.583095E-03
      0.175000          0.542754E-03
      0.180000          0.507797E-03
      0.185000          0.477367E-03
      0.190000          0.450823E-03
      0.195000          0.427675E-03
      0.200000          0.407536E-03
      0.205000          0.390079E-03
      0.210000          0.375005E-03
      0.215000          0.362022E-03
      0.220000          0.350835E-03
      0.225000          0.341144E-03
      0.230000          0.332642E-03
      0.235000          0.325028E-03
      0.240000          0.318015E-03
      0.245000          0.311336E-03
      0.250000          0.304760E-03
      0.255000          0.298096E-03
      0.260000          0.291200E-03
      0.265000          0.283974E-03
      0.270000          0.276369E-03
      0.275000          0.268381E-03
      0.280000          0.260045E-03
      0.285000          0.251427E-03
      0.290000          0.242620E-03
      0.295000          0.233730E-03
      0.300000          0.224875E-03
      0.305000          0.216169E-03
      0.310000          0.207723E-03
      0.315000          0.199637E-03
      0.320000          0.191995E-03
      0.325000          0.184862E-03
      0.330000          0.178285E-03
      0.335000          0.172290E-03
      0.340000          0.166886E-03
      0.345000          0.162062E-03
      0.350000          0.157792E-03
      0.355000          0.154037E-03
      0.360000          0.150745E-03
      0.365000          0.147859E-03
      0.370000          0.145313E-03
      0.375000          0.143042E-03
      0.380000          0.140979E-03
      0.385000          0.139058E-03
      0.390000          0.137220E-03
      0.395000          0.135409E-03
      0.400000          0.133580E-03
      0.405000          0.131693E-03
      0.410000          0.129721E-03
      0.415000          0.127645E-03
      0.420000          0.125456E-03
      0.425000          0.123155E-03
      0.430000          0.120753E-03
      0.435000          0.118266E-03
      0.440000          0.115718E-03
      0.445000          0.113140E-03
      0.450000          0.110561E-03
      0.455000          0.108016E-03
      0.460000          0.105537E-03
      0.465000          0.103156E-03
      0.470000          0.100899E-03
      0.475000          0.987888E-04
      0.480000          0.968429E-04
      0.485000          0.950721E-04
      0.490000          0.934812E-04
      0.495000          0.920688E-04
      0.500000          0.908280E-04
