 I_abs(s)[cm^-1]/c[mg/ml]
       0.00000          0.143391E-01
      0.500000E-02      0.142952E-01
      0.100000E-01      0.141643E-01
      0.150000E-01      0.139487E-01
      0.200000E-01      0.136525E-01
      0.250000E-01      0.132808E-01
      0.300000E-01      0.128404E-01
      0.350000E-01      0.123388E-01
      0.400000E-01      0.117846E-01
      0.450000E-01      0.111869E-01
      0.500000E-01      0.105553E-01
      0.550000E-01      0.989955E-02
      0.600000E-01      0.922923E-02
      0.650000E-01      0.855368E-02
      0.700000E-01      0.788170E-02
      0.750000E-01      0.722140E-02
      0.800000E-01      0.658005E-02
      0.850000E-01      0.596394E-02
      0.900000E-01      0.537833E-02
      0.950000E-01      0.482740E-02
      0.100000          0.431421E-02
      0.105000          0.384077E-02
      0.110000          0.340805E-02
      0.115000          0.301611E-02
      0.120000          0.266416E-02
      0.125000          0.235069E-02
      0.130000          0.207362E-02
      0.135000          0.183038E-02
      0.140000          0.161812E-02
      0.145000          0.143376E-02
      0.150000          0.127417E-02
      0.155000          0.113624E-02
      0.160000          0.101696E-02
      0.165000          0.913543E-03
      0.170000          0.823437E-03
      0.175000          0.744379E-03
      0.180000          0.674414E-03
      0.185000          0.611904E-03
      0.190000          0.555517E-03
      0.195000          0.504206E-03
      0.200000          0.457188E-03
      0.205000          0.413901E-03
      0.210000          0.373972E-03
      0.215000          0.337175E-03
      0.220000          0.303394E-03
      0.225000          0.272583E-03
      0.230000          0.244738E-03
      0.235000          0.219864E-03
      0.240000          0.197960E-03
      0.245000          0.178996E-03
      0.250000          0.162906E-03
      0.255000          0.149580E-03
      0.260000          0.138867E-03
      0.265000          0.130574E-03
      0.270000          0.124475E-03
      0.275000          0.120316E-03
      0.280000          0.117828E-03
      0.285000          0.116735E-03
      0.290000          0.116763E-03
      0.295000          0.117649E-03
      0.300000          0.119148E-03
      0.305000          0.121041E-03
      0.310000          0.123136E-03
      0.315000          0.125271E-03
      0.320000          0.127317E-03
      0.325000          0.129174E-03
      0.330000          0.130771E-03
      0.335000          0.132061E-03
      0.340000          0.133022E-03
      0.345000          0.133646E-03
      0.350000          0.133944E-03
      0.355000          0.133935E-03
      0.360000          0.133645E-03
      0.365000          0.133104E-03
      0.370000          0.132347E-03
      0.375000          0.131405E-03
      0.380000          0.130311E-03
      0.385000          0.129092E-03
      0.390000          0.127777E-03
      0.395000          0.126387E-03
      0.400000          0.124945E-03
      0.405000          0.123468E-03
      0.410000          0.121972E-03
      0.415000          0.120470E-03
      0.420000          0.118974E-03
      0.425000          0.117494E-03
      0.430000          0.116037E-03
      0.435000          0.114609E-03
      0.440000          0.113215E-03
      0.445000          0.111855E-03
      0.450000          0.110531E-03
      0.455000          0.109239E-03
      0.460000          0.107975E-03
      0.465000          0.106734E-03
      0.470000          0.105507E-03
      0.475000          0.104285E-03
      0.480000          0.103058E-03
      0.485000          0.101818E-03
      0.490000          0.100554E-03
      0.495000          0.992578E-04
      0.500000          0.979233E-04
