 I_abs(s)[cm^-1]/c[mg/ml]
       0.00000          0.144259E-01
      0.500000E-02      0.143780E-01
      0.100000E-01      0.142355E-01
      0.150000E-01      0.140011E-01
      0.200000E-01      0.136798E-01
      0.250000E-01      0.132779E-01
      0.300000E-01      0.128034E-01
      0.350000E-01      0.122654E-01
      0.400000E-01      0.116741E-01
      0.450000E-01      0.110402E-01
      0.500000E-01      0.103748E-01
      0.550000E-01      0.968891E-02
      0.600000E-01      0.899334E-02
      0.650000E-01      0.829830E-02
      0.700000E-01      0.761318E-02
      0.750000E-01      0.694642E-02
      0.800000E-01      0.630528E-02
      0.850000E-01      0.569579E-02
      0.900000E-01      0.512268E-02
      0.950000E-01      0.458939E-02
      0.100000          0.409810E-02
      0.105000          0.364981E-02
      0.110000          0.324446E-02
      0.115000          0.288104E-02
      0.120000          0.255779E-02
      0.125000          0.227229E-02
      0.130000          0.202168E-02
      0.135000          0.180278E-02
      0.140000          0.161227E-02
      0.145000          0.144677E-02
      0.150000          0.130300E-02
      0.155000          0.117784E-02
      0.160000          0.106841E-02
      0.165000          0.972142E-03
      0.170000          0.886761E-03
      0.175000          0.810337E-03
      0.180000          0.741266E-03
      0.185000          0.678259E-03
      0.190000          0.620308E-03
      0.195000          0.566662E-03
      0.200000          0.516783E-03
      0.205000          0.470310E-03
      0.210000          0.427021E-03
      0.215000          0.386794E-03
      0.220000          0.349574E-03
      0.225000          0.315345E-03
      0.230000          0.284109E-03
      0.235000          0.255859E-03
      0.240000          0.230572E-03
      0.245000          0.208197E-03
      0.250000          0.188651E-03
      0.255000          0.171814E-03
      0.260000          0.157536E-03
      0.265000          0.145634E-03
      0.270000          0.135905E-03
      0.275000          0.128127E-03
      0.280000          0.122066E-03
      0.285000          0.117487E-03
      0.290000          0.114158E-03
      0.295000          0.111854E-03
      0.300000          0.110367E-03
      0.305000          0.109505E-03
      0.310000          0.109101E-03
      0.315000          0.109007E-03
      0.320000          0.109102E-03
      0.325000          0.109286E-03
      0.330000          0.109485E-03
      0.335000          0.109644E-03
      0.340000          0.109728E-03
      0.345000          0.109718E-03
      0.350000          0.109607E-03
      0.355000          0.109403E-03
      0.360000          0.109116E-03
      0.365000          0.108766E-03
      0.370000          0.108374E-03
      0.375000          0.107961E-03
      0.380000          0.107548E-03
      0.385000          0.107153E-03
      0.390000          0.106789E-03
      0.395000          0.106466E-03
      0.400000          0.106189E-03
      0.405000          0.105957E-03
      0.410000          0.105765E-03
      0.415000          0.105601E-03
      0.420000          0.105450E-03
      0.425000          0.105295E-03
      0.430000          0.105113E-03
      0.435000          0.104882E-03
      0.440000          0.104576E-03
      0.445000          0.104172E-03
      0.450000          0.103647E-03
      0.455000          0.102980E-03
      0.460000          0.102153E-03
      0.465000          0.101154E-03
      0.470000          0.999739E-04
      0.475000          0.986107E-04
      0.480000          0.970682E-04
      0.485000          0.953562E-04
      0.490000          0.934912E-04
      0.495000          0.914955E-04
      0.500000          0.893967E-04
