 I_abs(s)[cm^-1]/c[mg/ml]
       0.00000          0.147276E-01
      0.500000E-02      0.146720E-01
      0.100000E-01      0.145064E-01
      0.150000E-01      0.142346E-01
      0.200000E-01      0.138625E-01
      0.250000E-01      0.133983E-01
      0.300000E-01      0.128520E-01
      0.350000E-01      0.122350E-01
      0.400000E-01      0.115598E-01
      0.450000E-01      0.108398E-01
      0.500000E-01      0.100883E-01
      0.550000E-01      0.931882E-02
      0.600000E-01      0.854424E-02
      0.650000E-01      0.777659E-02
      0.700000E-01      0.702678E-02
      0.750000E-01      0.630436E-02
      0.800000E-01      0.561736E-02
      0.850000E-01      0.497221E-02
      0.900000E-01      0.437369E-02
      0.950000E-01      0.382497E-02
      0.100000          0.332774E-02
      0.105000          0.288227E-02
      0.110000          0.248762E-02
      0.115000          0.214185E-02
      0.120000          0.184216E-02
      0.125000          0.158517E-02
      0.130000          0.136706E-02
      0.135000          0.118378E-02
      0.140000          0.103121E-02
      0.145000          0.905301E-03
      0.150000          0.802186E-03
      0.155000          0.718258E-03
      0.160000          0.650233E-03
      0.165000          0.595187E-03
      0.170000          0.550567E-03
      0.175000          0.514187E-03
      0.180000          0.484212E-03
      0.185000          0.459129E-03
      0.190000          0.437717E-03
      0.195000          0.419010E-03
      0.200000          0.402260E-03
      0.205000          0.386904E-03
      0.210000          0.372530E-03
      0.215000          0.358848E-03
      0.220000          0.345669E-03
      0.225000          0.332878E-03
      0.230000          0.320418E-03
      0.235000          0.308276E-03
      0.240000          0.296469E-03
      0.245000          0.285032E-03
      0.250000          0.274010E-03
      0.255000          0.263451E-03
      0.260000          0.253397E-03
      0.265000          0.243879E-03
      0.270000          0.234916E-03
      0.275000          0.226510E-03
      0.280000          0.218646E-03
      0.285000          0.211293E-03
      0.290000          0.204407E-03
      0.295000          0.197930E-03
      0.300000          0.191799E-03
      0.305000          0.185949E-03
      0.310000          0.180319E-03
      0.315000          0.174853E-03
      0.320000          0.169509E-03
      0.325000          0.164257E-03
      0.330000          0.159088E-03
      0.335000          0.154005E-03
      0.340000          0.149031E-03
      0.345000          0.144202E-03
      0.350000          0.139562E-03
      0.355000          0.135164E-03
      0.360000          0.131060E-03
      0.365000          0.127301E-03
      0.370000          0.123927E-03
      0.375000          0.120968E-03
      0.380000          0.118437E-03
      0.385000          0.116332E-03
      0.390000          0.114633E-03
      0.395000          0.113303E-03
      0.400000          0.112289E-03
      0.405000          0.111528E-03
      0.410000          0.110949E-03
      0.415000          0.110476E-03
      0.420000          0.110035E-03
      0.425000          0.109555E-03
      0.430000          0.108975E-03
      0.435000          0.108247E-03
      0.440000          0.107336E-03
      0.445000          0.106222E-03
      0.450000          0.104902E-03
      0.455000          0.103390E-03
      0.460000          0.101710E-03
      0.465000          0.999029E-04
      0.470000          0.980140E-04
      0.475000          0.960964E-04
      0.480000          0.942054E-04
      0.485000          0.923952E-04
      0.490000          0.907164E-04
      0.495000          0.892129E-04
      0.500000          0.879204E-04
