 I_abs(s)[cm^-1]/c[mg/ml]
       0.00000          0.146002E-01
      0.500000E-02      0.145567E-01
      0.100000E-01      0.144271E-01
      0.150000E-01      0.142136E-01
      0.200000E-01      0.139198E-01
      0.250000E-01      0.135507E-01
      0.300000E-01      0.131124E-01
      0.350000E-01      0.126122E-01
      0.400000E-01      0.120581E-01
      0.450000E-01      0.114588E-01
      0.500000E-01      0.108234E-01
      0.550000E-01      0.101612E-01
      0.600000E-01      0.948172E-02
      0.650000E-01      0.879400E-02
      0.700000E-01      0.810681E-02
      0.750000E-01      0.742834E-02
      0.800000E-01      0.676603E-02
      0.850000E-01      0.612652E-02
      0.900000E-01      0.551547E-02
      0.950000E-01      0.493758E-02
      0.100000          0.439651E-02
      0.105000          0.389490E-02
      0.110000          0.343440E-02
      0.115000          0.301569E-02
      0.120000          0.263862E-02
      0.125000          0.230224E-02
      0.130000          0.200496E-02
      0.135000          0.174460E-02
      0.140000          0.151859E-02
      0.145000          0.132401E-02
      0.150000          0.115778E-02
      0.155000          0.101670E-02
      0.160000          0.897604E-03
      0.165000          0.797403E-03
      0.170000          0.713186E-03
      0.175000          0.642262E-03
      0.180000          0.582206E-03
      0.185000          0.530884E-03
      0.190000          0.486469E-03
      0.195000          0.447436E-03
      0.200000          0.412558E-03
      0.205000          0.380880E-03
      0.210000          0.351698E-03
      0.215000          0.324523E-03
      0.220000          0.299051E-03
      0.225000          0.275122E-03
      0.230000          0.252692E-03
      0.235000          0.231792E-03
      0.240000          0.212503E-03
      0.245000          0.194930E-03
      0.250000          0.179175E-03
      0.255000          0.165327E-03
      0.260000          0.153442E-03
      0.265000          0.143541E-03
      0.270000          0.135602E-03
      0.275000          0.129560E-03
      0.280000          0.125310E-03
      0.285000          0.122713E-03
      0.290000          0.121600E-03
      0.295000          0.121779E-03
      0.300000          0.123044E-03
      0.305000          0.125186E-03
      0.310000          0.127991E-03
      0.315000          0.131258E-03
      0.320000          0.134795E-03
      0.325000          0.138428E-03
      0.330000          0.142002E-03
      0.335000          0.145387E-03
      0.340000          0.148473E-03
      0.345000          0.151174E-03
      0.350000          0.153425E-03
      0.355000          0.155183E-03
      0.360000          0.156422E-03
      0.365000          0.157135E-03
      0.370000          0.157325E-03
      0.375000          0.157011E-03
      0.380000          0.156218E-03
      0.385000          0.154980E-03
      0.390000          0.153336E-03
      0.395000          0.151330E-03
      0.400000          0.149006E-03
      0.405000          0.146412E-03
      0.410000          0.143593E-03
      0.415000          0.140597E-03
      0.420000          0.137468E-03
      0.425000          0.134249E-03
      0.430000          0.130982E-03
      0.435000          0.127703E-03
      0.440000          0.124448E-03
      0.445000          0.121248E-03
      0.450000          0.118131E-03
      0.455000          0.115120E-03
      0.460000          0.112233E-03
      0.465000          0.109486E-03
      0.470000          0.106889E-03
      0.475000          0.104448E-03
      0.480000          0.102162E-03
      0.485000          0.100030E-03
      0.490000          0.980449E-04
      0.495000          0.961960E-04
      0.500000          0.944705E-04
