 I_abs(s)[cm^-1]/c[mg/ml]
       0.00000          0.144812E-01
      0.500000E-02      0.144265E-01
      0.100000E-01      0.142637E-01
      0.150000E-01      0.139967E-01
      0.200000E-01      0.136321E-01
      0.250000E-01      0.131786E-01
      0.300000E-01      0.126468E-01
      0.350000E-01      0.120489E-01
      0.400000E-01      0.113978E-01
      0.450000E-01      0.107072E-01
      0.500000E-01      0.999104E-02
      0.550000E-01      0.926251E-02
      0.600000E-01      0.853421E-02
      0.650000E-01      0.781759E-02
      0.700000E-01      0.712264E-02
      0.750000E-01      0.645774E-02
      0.800000E-01      0.582956E-02
      0.850000E-01      0.524298E-02
      0.900000E-01      0.470114E-02
      0.950000E-01      0.420560E-02
      0.100000          0.375646E-02
      0.105000          0.335258E-02
      0.110000          0.299182E-02
      0.115000          0.267128E-02
      0.120000          0.238755E-02
      0.125000          0.213694E-02
      0.130000          0.191567E-02
      0.135000          0.172005E-02
      0.140000          0.154663E-02
      0.145000          0.139227E-02
      0.150000          0.125422E-02
      0.155000          0.113017E-02
      0.160000          0.101818E-02
      0.165000          0.916721E-03
      0.170000          0.824601E-03
      0.175000          0.740908E-03
      0.180000          0.664959E-03
      0.185000          0.596233E-03
      0.190000          0.534319E-03
      0.195000          0.478867E-03
      0.200000          0.429551E-03
      0.205000          0.386036E-03
      0.210000          0.347968E-03
      0.215000          0.314958E-03
      0.220000          0.286589E-03
      0.225000          0.262418E-03
      0.230000          0.241989E-03
      0.235000          0.224842E-03
      0.240000          0.210530E-03
      0.245000          0.198630E-03
      0.250000          0.188749E-03
      0.255000          0.180540E-03
      0.260000          0.173699E-03
      0.265000          0.167966E-03
      0.270000          0.163131E-03
      0.275000          0.159023E-03
      0.280000          0.155508E-03
      0.285000          0.152484E-03
      0.290000          0.149872E-03
      0.295000          0.147611E-03
      0.300000          0.145654E-03
      0.305000          0.143961E-03
      0.310000          0.142496E-03
      0.315000          0.141225E-03
      0.320000          0.140113E-03
      0.325000          0.139125E-03
      0.330000          0.138226E-03
      0.335000          0.137380E-03
      0.340000          0.136552E-03
      0.345000          0.135709E-03
      0.350000          0.134820E-03
      0.355000          0.133859E-03
      0.360000          0.132803E-03
      0.365000          0.131633E-03
      0.370000          0.130337E-03
      0.375000          0.128907E-03
      0.380000          0.127337E-03
      0.385000          0.125630E-03
      0.390000          0.123787E-03
      0.395000          0.121817E-03
      0.400000          0.119730E-03
      0.405000          0.117539E-03
      0.410000          0.115257E-03
      0.415000          0.112903E-03
      0.420000          0.110494E-03
      0.425000          0.108049E-03
      0.430000          0.105590E-03
      0.435000          0.103138E-03
      0.440000          0.100715E-03
      0.445000          0.983432E-04
      0.450000          0.960457E-04
      0.455000          0.938441E-04
      0.460000          0.917595E-04
      0.465000          0.898111E-04
      0.470000          0.880166E-04
      0.475000          0.863909E-04
      0.480000          0.849458E-04
      0.485000          0.836898E-04
      0.490000          0.826273E-04
      0.495000          0.817588E-04
      0.500000          0.810802E-04
