 I_abs(s)[cm^-1]/c[mg/ml]
       0.00000          0.142998E-01
      0.500000E-02      0.142419E-01
      0.100000E-01      0.140695E-01
      0.150000E-01      0.137867E-01
      0.200000E-01      0.134005E-01
      0.250000E-01      0.129197E-01
      0.300000E-01      0.123556E-01
      0.350000E-01      0.117209E-01
      0.400000E-01      0.110293E-01
      0.450000E-01      0.102956E-01
      0.500000E-01      0.953437E-02
      0.550000E-01      0.876019E-02
      0.600000E-01      0.798682E-02
      0.650000E-01      0.722697E-02
      0.700000E-01      0.649196E-02
      0.750000E-01      0.579147E-02
      0.800000E-01      0.513337E-02
      0.850000E-01      0.452366E-02
      0.900000E-01      0.396644E-02
      0.950000E-01      0.346403E-02
      0.100000          0.301702E-02
      0.105000          0.262453E-02
      0.110000          0.228436E-02
      0.115000          0.199329E-02
      0.120000          0.174730E-02
      0.125000          0.154180E-02
      0.130000          0.137192E-02
      0.135000          0.123268E-02
      0.140000          0.111921E-02
      0.145000          0.102688E-02
      0.150000          0.951418E-03
      0.155000          0.889040E-03
      0.160000          0.836449E-03
      0.165000          0.790886E-03
      0.170000          0.750118E-03
      0.175000          0.712418E-03
      0.180000          0.676518E-03
      0.185000          0.641558E-03
      0.190000          0.607026E-03
      0.195000          0.572697E-03
      0.200000          0.538567E-03
      0.205000          0.504796E-03
      0.210000          0.471654E-03
      0.215000          0.439475E-03
      0.220000          0.408616E-03
      0.225000          0.379424E-03
      0.230000          0.352211E-03
      0.235000          0.327237E-03
      0.240000          0.304699E-03
      0.245000          0.284720E-03
      0.250000          0.267351E-03
      0.255000          0.252571E-03
      0.260000          0.240292E-03
      0.265000          0.230366E-03
      0.270000          0.222595E-03
      0.275000          0.216740E-03
      0.280000          0.212532E-03
      0.285000          0.209682E-03
      0.290000          0.207895E-03
      0.295000          0.206876E-03
      0.300000          0.206345E-03
      0.305000          0.206037E-03
      0.310000          0.205719E-03
      0.315000          0.205187E-03
      0.320000          0.204275E-03
      0.325000          0.202857E-03
      0.330000          0.200842E-03
      0.335000          0.198182E-03
      0.340000          0.194862E-03
      0.345000          0.190901E-03
      0.350000          0.186345E-03
      0.355000          0.181266E-03
      0.360000          0.175750E-03
      0.365000          0.169898E-03
      0.370000          0.163816E-03
      0.375000          0.157613E-03
      0.380000          0.151392E-03
      0.385000          0.145254E-03
      0.390000          0.139284E-03
      0.395000          0.133558E-03
      0.400000          0.128137E-03
      0.405000          0.123069E-03
      0.410000          0.118383E-03
      0.415000          0.114098E-03
      0.420000          0.110218E-03
      0.425000          0.106737E-03
      0.430000          0.103638E-03
      0.435000          0.100898E-03
      0.440000          0.984866E-04
      0.445000          0.963721E-04
      0.450000          0.945196E-04
      0.455000          0.928945E-04
      0.460000          0.914635E-04
      0.465000          0.901954E-04
      0.470000          0.890621E-04
      0.475000          0.880391E-04
      0.480000          0.871056E-04
      0.485000          0.862448E-04
      0.490000          0.854436E-04
      0.495000          0.846924E-04
      0.500000          0.839845E-04
