 I_abs(s)[cm^-1]/c[mg/ml]
       0.00000          0.139326E-01
      0.500000E-02      0.138814E-01
      0.100000E-01      0.137291E-01
      0.150000E-01      0.134791E-01
      0.200000E-01      0.131371E-01
      0.250000E-01      0.127108E-01
      0.300000E-01      0.122097E-01
      0.350000E-01      0.116444E-01
      0.400000E-01      0.110270E-01
      0.450000E-01      0.103698E-01
      0.500000E-01      0.968548E-02
      0.550000E-01      0.898674E-02
      0.600000E-01      0.828558E-02
      0.650000E-01      0.759318E-02
      0.700000E-01      0.691961E-02
      0.750000E-01      0.627357E-02
      0.800000E-01      0.566225E-02
      0.850000E-01      0.509120E-02
      0.900000E-01      0.456437E-02
      0.950000E-01      0.408408E-02
      0.100000          0.365118E-02
      0.105000          0.326512E-02
      0.110000          0.292420E-02
      0.115000          0.262572E-02
      0.120000          0.236625E-02
      0.125000          0.214183E-02
      0.130000          0.194821E-02
      0.135000          0.178104E-02
      0.140000          0.163607E-02
      0.145000          0.150930E-02
      0.150000          0.139709E-02
      0.155000          0.129626E-02
      0.160000          0.120414E-02
      0.165000          0.111859E-02
      0.170000          0.103798E-02
      0.175000          0.961189E-03
      0.180000          0.887511E-03
      0.185000          0.816614E-03
      0.190000          0.748456E-03
      0.195000          0.683210E-03
      0.200000          0.621182E-03
      0.205000          0.562750E-03
      0.210000          0.508293E-03
      0.215000          0.458146E-03
      0.220000          0.412563E-03
      0.225000          0.371689E-03
      0.230000          0.335550E-03
      0.235000          0.304049E-03
      0.240000          0.276976E-03
      0.245000          0.254022E-03
      0.250000          0.234801E-03
      0.255000          0.218871E-03
      0.260000          0.205761E-03
      0.265000          0.194992E-03
      0.270000          0.186101E-03
      0.275000          0.178659E-03
      0.280000          0.172281E-03
      0.285000          0.166643E-03
      0.290000          0.161478E-03
      0.295000          0.156586E-03
      0.300000          0.151824E-03
      0.305000          0.147106E-03
      0.310000          0.142393E-03
      0.315000          0.137681E-03
      0.320000          0.132998E-03
      0.325000          0.128390E-03
      0.330000          0.123911E-03
      0.335000          0.119619E-03
      0.340000          0.115568E-03
      0.345000          0.111803E-03
      0.350000          0.108357E-03
      0.355000          0.105248E-03
      0.360000          0.102483E-03
      0.365000          0.100054E-03
      0.370000          0.979425E-04
      0.375000          0.961223E-04
      0.380000          0.945600E-04
      0.385000          0.932196E-04
      0.390000          0.920640E-04
      0.395000          0.910580E-04
      0.400000          0.901700E-04
      0.405000          0.893727E-04
      0.410000          0.886448E-04
      0.415000          0.879706E-04
      0.420000          0.873400E-04
      0.425000          0.867483E-04
      0.430000          0.861948E-04
      0.435000          0.856819E-04
      0.440000          0.852145E-04
      0.445000          0.847982E-04
      0.450000          0.844385E-04
      0.455000          0.841403E-04
      0.460000          0.839065E-04
      0.465000          0.837381E-04
      0.470000          0.836338E-04
      0.475000          0.835896E-04
      0.480000          0.835995E-04
      0.485000          0.836555E-04
      0.490000          0.837477E-04
      0.495000          0.838656E-04
      0.500000          0.839980E-04
