 I_abs(s)[cm^-1]/c[mg/ml]
       0.00000          0.139636E-01
      0.500000E-02      0.139088E-01
      0.100000E-01      0.137456E-01
      0.150000E-01      0.134783E-01
      0.200000E-01      0.131137E-01
      0.250000E-01      0.126611E-01
      0.300000E-01      0.121315E-01
      0.350000E-01      0.115377E-01
      0.400000E-01      0.108933E-01
      0.450000E-01      0.102126E-01
      0.500000E-01      0.950982E-02
      0.550000E-01      0.879874E-02
      0.600000E-01      0.809220E-02
      0.650000E-01      0.740175E-02
      0.700000E-01      0.673735E-02
      0.750000E-01      0.610718E-02
      0.800000E-01      0.551750E-02
      0.850000E-01      0.497266E-02
      0.900000E-01      0.447513E-02
      0.950000E-01      0.402568E-02
      0.100000          0.362354E-02
      0.105000          0.326667E-02
      0.110000          0.295202E-02
      0.115000          0.267583E-02
      0.120000          0.243388E-02
      0.125000          0.222179E-02
      0.130000          0.203519E-02
      0.135000          0.186997E-02
      0.140000          0.172239E-02
      0.145000          0.158918E-02
      0.150000          0.146762E-02
      0.155000          0.135551E-02
      0.160000          0.125120E-02
      0.165000          0.115351E-02
      0.170000          0.106167E-02
      0.175000          0.975225E-03
      0.180000          0.893975E-03
      0.185000          0.817877E-03
      0.190000          0.746968E-03
      0.195000          0.681312E-03
      0.200000          0.620940E-03
      0.205000          0.565826E-03
      0.210000          0.515859E-03
      0.215000          0.470846E-03
      0.220000          0.430509E-03
      0.225000          0.394506E-03
      0.230000          0.362446E-03
      0.235000          0.333911E-03
      0.240000          0.308480E-03
      0.245000          0.285746E-03
      0.250000          0.265336E-03
      0.255000          0.246916E-03
      0.260000          0.230207E-03
      0.265000          0.214978E-03
      0.270000          0.201049E-03
      0.275000          0.188285E-03
      0.280000          0.176587E-03
      0.285000          0.165884E-03
      0.290000          0.156125E-03
      0.295000          0.147266E-03
      0.300000          0.139271E-03
      0.305000          0.132100E-03
      0.310000          0.125707E-03
      0.315000          0.120041E-03
      0.320000          0.115045E-03
      0.325000          0.110654E-03
      0.330000          0.106803E-03
      0.335000          0.103426E-03
      0.340000          0.100461E-03
      0.345000          0.978496E-04
      0.350000          0.955431E-04
      0.355000          0.935004E-04
      0.360000          0.916900E-04
      0.365000          0.900890E-04
      0.370000          0.886827E-04
      0.375000          0.874623E-04
      0.380000          0.864238E-04
      0.385000          0.855651E-04
      0.390000          0.848847E-04
      0.395000          0.843795E-04
      0.400000          0.840433E-04
      0.405000          0.838662E-04
      0.410000          0.838335E-04
      0.415000          0.839261E-04
      0.420000          0.841204E-04
      0.425000          0.843892E-04
      0.430000          0.847030E-04
      0.435000          0.850304E-04
      0.440000          0.853402E-04
      0.445000          0.856023E-04
      0.450000          0.857890E-04
      0.455000          0.858759E-04
      0.460000          0.858431E-04
      0.465000          0.856758E-04
      0.470000          0.853645E-04
      0.475000          0.849055E-04
      0.480000          0.843007E-04
      0.485000          0.835572E-04
      0.490000          0.826869E-04
      0.495000          0.817061E-04
      0.500000          0.806342E-04
