 I_abs(s)[cm^-1]/c[mg/ml]
       0.00000          0.145446E-01
      0.500000E-02      0.144831E-01
      0.100000E-01      0.143003E-01
      0.150000E-01      0.140008E-01
      0.200000E-01      0.135924E-01
      0.250000E-01      0.130851E-01
      0.300000E-01      0.124917E-01
      0.350000E-01      0.118262E-01
      0.400000E-01      0.111042E-01
      0.450000E-01      0.103417E-01
      0.500000E-01      0.955471E-02
      0.550000E-01      0.875901E-02
      0.600000E-01      0.796921E-02
      0.650000E-01      0.719858E-02
      0.700000E-01      0.645865E-02
      0.750000E-01      0.575894E-02
      0.800000E-01      0.510686E-02
      0.850000E-01      0.450762E-02
      0.900000E-01      0.396435E-02
      0.950000E-01      0.347815E-02
      0.100000          0.304837E-02
      0.105000          0.267282E-02
      0.110000          0.234809E-02
      0.115000          0.206989E-02
      0.120000          0.183328E-02
      0.125000          0.163307E-02
      0.130000          0.146400E-02
      0.135000          0.132103E-02
      0.140000          0.119949E-02
      0.145000          0.109522E-02
      0.150000          0.100465E-02
      0.155000          0.924843E-03
      0.160000          0.853479E-03
      0.165000          0.788823E-03
      0.170000          0.729656E-03
      0.175000          0.675184E-03
      0.180000          0.624952E-03
      0.185000          0.578746E-03
      0.190000          0.536498E-03
      0.195000          0.498216E-03
      0.200000          0.463912E-03
      0.205000          0.433552E-03
      0.210000          0.407032E-03
      0.215000          0.384155E-03
      0.220000          0.364635E-03
      0.225000          0.348102E-03
      0.230000          0.334129E-03
      0.235000          0.322252E-03
      0.240000          0.311996E-03
      0.245000          0.302907E-03
      0.250000          0.294569E-03
      0.255000          0.286630E-03
      0.260000          0.278810E-03
      0.265000          0.270907E-03
      0.270000          0.262804E-03
      0.275000          0.254458E-03
      0.280000          0.245893E-03
      0.285000          0.237185E-03
      0.290000          0.228453E-03
      0.295000          0.219834E-03
      0.300000          0.211476E-03
      0.305000          0.203520E-03
      0.310000          0.196089E-03
      0.315000          0.189278E-03
      0.320000          0.183152E-03
      0.325000          0.177738E-03
      0.330000          0.173031E-03
      0.335000          0.168992E-03
      0.340000          0.165555E-03
      0.345000          0.162632E-03
      0.350000          0.160121E-03
      0.355000          0.157912E-03
      0.360000          0.155897E-03
      0.365000          0.153971E-03
      0.370000          0.152042E-03
      0.375000          0.150034E-03
      0.380000          0.147888E-03
      0.385000          0.145566E-03
      0.390000          0.143048E-03
      0.395000          0.140335E-03
      0.400000          0.137441E-03
      0.405000          0.134399E-03
      0.410000          0.131248E-03
      0.415000          0.128036E-03
      0.420000          0.124815E-03
      0.425000          0.121638E-03
      0.430000          0.118553E-03
      0.435000          0.115605E-03
      0.440000          0.112831E-03
      0.445000          0.110257E-03
      0.450000          0.107904E-03
      0.455000          0.105781E-03
      0.460000          0.103886E-03
      0.465000          0.102212E-03
      0.470000          0.100741E-03
      0.475000          0.994517E-04
      0.480000          0.983171E-04
      0.485000          0.973075E-04
      0.490000          0.963922E-04
      0.495000          0.955407E-04
      0.500000          0.947241E-04
