 I_abs(s)[cm^-1]/c[mg/ml]
       0.00000          0.141508E-01
      0.500000E-02      0.140957E-01
      0.100000E-01      0.139318E-01
      0.150000E-01      0.136631E-01
      0.200000E-01      0.132962E-01
      0.250000E-01      0.128400E-01
      0.300000E-01      0.123052E-01
      0.350000E-01      0.117042E-01
      0.400000E-01      0.110504E-01
      0.450000E-01      0.103578E-01
      0.500000E-01      0.964071E-02
      0.550000E-01      0.891282E-02
      0.600000E-01      0.818724E-02
      0.650000E-01      0.747590E-02
      0.700000E-01      0.678928E-02
      0.750000E-01      0.613617E-02
      0.800000E-01      0.552355E-02
      0.850000E-01      0.495649E-02
      0.900000E-01      0.443821E-02
      0.950000E-01      0.397012E-02
      0.100000          0.355203E-02
      0.105000          0.318234E-02
      0.110000          0.285826E-02
      0.115000          0.257612E-02
      0.120000          0.233164E-02
      0.125000          0.212017E-02
      0.130000          0.193696E-02
      0.135000          0.177740E-02
      0.140000          0.163715E-02
      0.145000          0.151233E-02
      0.150000          0.139961E-02
      0.155000          0.129622E-02
      0.160000          0.120001E-02
      0.165000          0.110941E-02
      0.170000          0.102337E-02
      0.175000          0.941294E-03
      0.180000          0.862947E-03
      0.185000          0.788373E-03
      0.190000          0.717789E-03
      0.195000          0.651503E-03
      0.200000          0.589839E-03
      0.205000          0.533078E-03
      0.210000          0.481409E-03
      0.215000          0.434904E-03
      0.220000          0.393505E-03
      0.225000          0.357029E-03
      0.230000          0.325177E-03
      0.235000          0.297561E-03
      0.240000          0.273729E-03
      0.245000          0.253195E-03
      0.250000          0.235469E-03
      0.255000          0.220082E-03
      0.260000          0.206610E-03
      0.265000          0.194684E-03
      0.270000          0.184006E-03
      0.275000          0.174344E-03
      0.280000          0.165535E-03
      0.285000          0.157476E-03
      0.290000          0.150111E-03
      0.295000          0.143420E-03
      0.300000          0.137404E-03
      0.305000          0.132072E-03
      0.310000          0.127433E-03
      0.315000          0.123482E-03
      0.320000          0.120198E-03
      0.325000          0.117538E-03
      0.330000          0.115439E-03
      0.335000          0.113823E-03
      0.340000          0.112593E-03
      0.345000          0.111651E-03
      0.350000          0.110893E-03
      0.355000          0.110224E-03
      0.360000          0.109558E-03
      0.365000          0.108828E-03
      0.370000          0.107983E-03
      0.375000          0.106995E-03
      0.380000          0.105858E-03
      0.385000          0.104582E-03
      0.390000          0.103195E-03
      0.395000          0.101736E-03
      0.400000          0.100253E-03
      0.405000          0.987962E-04
      0.410000          0.974127E-04
      0.415000          0.961450E-04
      0.420000          0.950262E-04
      0.425000          0.940778E-04
      0.430000          0.933092E-04
      0.435000          0.927171E-04
      0.440000          0.922865E-04
      0.445000          0.919926E-04
      0.450000          0.918033E-04
      0.455000          0.916816E-04
      0.460000          0.915892E-04
      0.465000          0.914888E-04
      0.470000          0.913469E-04
      0.475000          0.911361E-04
      0.480000          0.908364E-04
      0.485000          0.904365E-04
      0.490000          0.899334E-04
      0.495000          0.893325E-04
      0.500000          0.886465E-04
