 I_abs(s)[cm^-1]/c[mg/ml]
       0.00000          0.146320E-01
      0.500000E-02      0.145809E-01
      0.100000E-01      0.144288E-01
      0.150000E-01      0.141790E-01
      0.200000E-01      0.138367E-01
      0.250000E-01      0.134093E-01
      0.300000E-01      0.129054E-01
      0.350000E-01      0.123353E-01
      0.400000E-01      0.117099E-01
      0.450000E-01      0.110409E-01
      0.500000E-01      0.103402E-01
      0.550000E-01      0.961961E-02
      0.600000E-01      0.889034E-02
      0.650000E-01      0.816302E-02
      0.700000E-01      0.744726E-02
      0.750000E-01      0.675156E-02
      0.800000E-01      0.608316E-02
      0.850000E-01      0.544798E-02
      0.900000E-01      0.485062E-02
      0.950000E-01      0.429439E-02
      0.100000          0.378142E-02
      0.105000          0.331272E-02
      0.110000          0.288835E-02
      0.115000          0.250755E-02
      0.120000          0.216889E-02
      0.125000          0.187041E-02
      0.130000          0.160974E-02
      0.135000          0.138425E-02
      0.140000          0.119113E-02
      0.145000          0.102748E-02
      0.150000          0.890375E-03
      0.155000          0.776935E-03
      0.160000          0.684354E-03
      0.165000          0.609933E-03
      0.170000          0.551107E-03
      0.175000          0.505461E-03
      0.180000          0.470741E-03
      0.185000          0.444872E-03
      0.190000          0.425962E-03
      0.195000          0.412316E-03
      0.200000          0.402437E-03
      0.205000          0.395036E-03
      0.210000          0.389030E-03
      0.215000          0.383541E-03
      0.220000          0.377891E-03
      0.225000          0.371588E-03
      0.230000          0.364315E-03
      0.235000          0.355908E-03
      0.240000          0.346335E-03
      0.245000          0.335670E-03
      0.250000          0.324069E-03
      0.255000          0.311740E-03
      0.260000          0.298924E-03
      0.265000          0.285870E-03
      0.270000          0.272816E-03
      0.275000          0.259977E-03
      0.280000          0.247532E-03
      0.285000          0.235621E-03
      0.290000          0.224341E-03
      0.295000          0.213749E-03
      0.300000          0.203865E-03
      0.305000          0.194680E-03
      0.310000          0.186165E-03
      0.315000          0.178272E-03
      0.320000          0.170952E-03
      0.325000          0.164150E-03
      0.330000          0.157818E-03
      0.335000          0.151915E-03
      0.340000          0.146408E-03
      0.345000          0.141275E-03
      0.350000          0.136501E-03
      0.355000          0.132076E-03
      0.360000          0.127996E-03
      0.365000          0.124255E-03
      0.370000          0.120849E-03
      0.375000          0.117768E-03
      0.380000          0.114997E-03
      0.385000          0.112518E-03
      0.390000          0.110305E-03
      0.395000          0.108329E-03
      0.400000          0.106558E-03
      0.405000          0.104958E-03
      0.410000          0.103494E-03
      0.415000          0.102134E-03
      0.420000          0.100849E-03
      0.425000          0.996157E-04
      0.430000          0.984139E-04
      0.435000          0.972304E-04
      0.440000          0.960570E-04
      0.445000          0.948901E-04
      0.450000          0.937304E-04
      0.455000          0.925812E-04
      0.460000          0.914475E-04
      0.465000          0.903349E-04
      0.470000          0.892486E-04
      0.475000          0.881924E-04
      0.480000          0.871684E-04
      0.485000          0.861766E-04
      0.490000          0.852153E-04
      0.495000          0.842806E-04
      0.500000          0.833678E-04
