 I_abs(s)[cm^-1]/c[mg/ml]
       0.00000          0.141586E-01
      0.500000E-02      0.141114E-01
      0.100000E-01      0.139709E-01
      0.150000E-01      0.137400E-01
      0.200000E-01      0.134236E-01
      0.250000E-01      0.130282E-01
      0.300000E-01      0.125619E-01
      0.350000E-01      0.120338E-01
      0.400000E-01      0.114542E-01
      0.450000E-01      0.108339E-01
      0.500000E-01      0.101839E-01
      0.550000E-01      0.951531E-02
      0.600000E-01      0.883879E-02
      0.650000E-01      0.816440E-02
      0.700000E-01      0.750136E-02
      0.750000E-01      0.685781E-02
      0.800000E-01      0.624070E-02
      0.850000E-01      0.565567E-02
      0.900000E-01      0.510704E-02
      0.950000E-01      0.459780E-02
      0.100000          0.412965E-02
      0.105000          0.370315E-02
      0.110000          0.331778E-02
      0.115000          0.297216E-02
      0.120000          0.266417E-02
      0.125000          0.239112E-02
      0.130000          0.214996E-02
      0.135000          0.193744E-02
      0.140000          0.175021E-02
      0.145000          0.158501E-02
      0.150000          0.143875E-02
      0.155000          0.130859E-02
      0.160000          0.119199E-02
      0.165000          0.108679E-02
      0.170000          0.991170E-03
      0.175000          0.903656E-03
      0.180000          0.823112E-03
      0.185000          0.748691E-03
      0.190000          0.679794E-03
      0.195000          0.616023E-03
      0.200000          0.557128E-03
      0.205000          0.502964E-03
      0.210000          0.453446E-03
      0.215000          0.408511E-03
      0.220000          0.368089E-03
      0.225000          0.332082E-03
      0.230000          0.300349E-03
      0.235000          0.272698E-03
      0.240000          0.248889E-03
      0.245000          0.228635E-03
      0.250000          0.211614E-03
      0.255000          0.197476E-03
      0.260000          0.185861E-03
      0.265000          0.176407E-03
      0.270000          0.168766E-03
      0.275000          0.162609E-03
      0.280000          0.157640E-03
      0.285000          0.153597E-03
      0.290000          0.150259E-03
      0.295000          0.147441E-03
      0.300000          0.145000E-03
      0.305000          0.142823E-03
      0.310000          0.140832E-03
      0.315000          0.138971E-03
      0.320000          0.137203E-03
      0.325000          0.135506E-03
      0.330000          0.133866E-03
      0.335000          0.132274E-03
      0.340000          0.130721E-03
      0.345000          0.129198E-03
      0.350000          0.127694E-03
      0.355000          0.126193E-03
      0.360000          0.124681E-03
      0.365000          0.123139E-03
      0.370000          0.121553E-03
      0.375000          0.119907E-03
      0.380000          0.118193E-03
      0.385000          0.116405E-03
      0.390000          0.114546E-03
      0.395000          0.112624E-03
      0.400000          0.110656E-03
      0.405000          0.108664E-03
      0.410000          0.106675E-03
      0.415000          0.104721E-03
      0.420000          0.102835E-03
      0.425000          0.101050E-03
      0.430000          0.993980E-04
      0.435000          0.979065E-04
      0.440000          0.965973E-04
      0.445000          0.954853E-04
      0.450000          0.945778E-04
      0.455000          0.938734E-04
      0.460000          0.933624E-04
      0.465000          0.930271E-04
      0.470000          0.928427E-04
      0.475000          0.927784E-04
      0.480000          0.927992E-04
      0.485000          0.928671E-04
      0.490000          0.929434E-04
      0.495000          0.929898E-04
      0.500000          0.929708E-04
