 I_abs(s)[cm^-1]/c[mg/ml]
       0.00000          0.143785E-01
      0.500000E-02      0.143246E-01
      0.100000E-01      0.141641E-01
      0.150000E-01      0.139009E-01
      0.200000E-01      0.135412E-01
      0.250000E-01      0.130935E-01
      0.300000E-01      0.125681E-01
      0.350000E-01      0.119766E-01
      0.400000E-01      0.113320E-01
      0.450000E-01      0.106475E-01
      0.500000E-01      0.993672E-02
      0.550000E-01      0.921283E-02
      0.600000E-01      0.848839E-02
      0.650000E-01      0.777488E-02
      0.700000E-01      0.708246E-02
      0.750000E-01      0.641976E-02
      0.800000E-01      0.579371E-02
      0.850000E-01      0.520956E-02
      0.900000E-01      0.467081E-02
      0.950000E-01      0.417934E-02
      0.100000          0.373555E-02
      0.105000          0.333852E-02
      0.110000          0.298623E-02
      0.115000          0.267582E-02
      0.120000          0.240380E-02
      0.125000          0.216627E-02
      0.130000          0.195917E-02
      0.135000          0.177841E-02
      0.140000          0.162011E-02
      0.145000          0.148063E-02
      0.150000          0.135674E-02
      0.155000          0.124560E-02
      0.160000          0.114486E-02
      0.165000          0.105259E-02
      0.170000          0.967303E-03
      0.175000          0.887877E-03
      0.180000          0.813529E-03
      0.185000          0.743745E-03
      0.190000          0.678221E-03
      0.195000          0.616806E-03
      0.200000          0.559450E-03
      0.205000          0.506159E-03
      0.210000          0.456955E-03
      0.215000          0.411854E-03
      0.220000          0.370841E-03
      0.225000          0.333860E-03
      0.230000          0.300811E-03
      0.235000          0.271547E-03
      0.240000          0.245879E-03
      0.245000          0.223583E-03
      0.250000          0.204409E-03
      0.255000          0.188088E-03
      0.260000          0.174342E-03
      0.265000          0.162890E-03
      0.270000          0.153455E-03
      0.275000          0.145772E-03
      0.280000          0.139589E-03
      0.285000          0.134670E-03
      0.290000          0.130799E-03
      0.295000          0.127778E-03
      0.300000          0.125433E-03
      0.305000          0.123605E-03
      0.310000          0.122159E-03
      0.315000          0.120977E-03
      0.320000          0.119960E-03
      0.325000          0.119026E-03
      0.330000          0.118110E-03
      0.335000          0.117162E-03
      0.340000          0.116147E-03
      0.345000          0.115041E-03
      0.350000          0.113833E-03
      0.355000          0.112522E-03
      0.360000          0.111115E-03
      0.365000          0.109626E-03
      0.370000          0.108074E-03
      0.375000          0.106483E-03
      0.380000          0.104877E-03
      0.385000          0.103282E-03
      0.390000          0.101723E-03
      0.395000          0.100224E-03
      0.400000          0.988044E-04
      0.405000          0.974820E-04
      0.410000          0.962699E-04
      0.415000          0.951769E-04
      0.420000          0.942076E-04
      0.425000          0.933618E-04
      0.430000          0.926354E-04
      0.435000          0.920201E-04
      0.440000          0.915040E-04
      0.445000          0.910722E-04
      0.450000          0.907073E-04
      0.455000          0.903898E-04
      0.460000          0.900990E-04
      0.465000          0.898137E-04
      0.470000          0.895126E-04
      0.475000          0.891756E-04
      0.480000          0.887840E-04
      0.485000          0.883214E-04
      0.490000          0.877746E-04
      0.495000          0.871339E-04
      0.500000          0.863938E-04
