 I_abs(s)[cm^-1]/c[mg/ml]
       0.00000          0.143234E-01
      0.500000E-02      0.142542E-01
      0.100000E-01      0.140485E-01
      0.150000E-01      0.137123E-01
      0.200000E-01      0.132552E-01
      0.250000E-01      0.126903E-01
      0.300000E-01      0.120329E-01
      0.350000E-01      0.113008E-01
      0.400000E-01      0.105129E-01
      0.450000E-01      0.968848E-02
      0.500000E-01      0.884682E-02
      0.550000E-01      0.800613E-02
      0.600000E-01      0.718310E-02
      0.650000E-01      0.639234E-02
      0.700000E-01      0.564603E-02
      0.750000E-01      0.495365E-02
      0.800000E-01      0.432191E-02
      0.850000E-01      0.375476E-02
      0.900000E-01      0.325359E-02
      0.950000E-01      0.281745E-02
      0.100000          0.244344E-02
      0.105000          0.212708E-02
      0.110000          0.186275E-02
      0.115000          0.164408E-02
      0.120000          0.146441E-02
      0.125000          0.131709E-02
      0.130000          0.119583E-02
      0.135000          0.109491E-02
      0.140000          0.100934E-02
      0.145000          0.934998E-03
      0.150000          0.868610E-03
      0.155000          0.807767E-03
      0.160000          0.750836E-03
      0.165000          0.696861E-03
      0.170000          0.645435E-03
      0.175000          0.596564E-03
      0.180000          0.550530E-03
      0.185000          0.507766E-03
      0.190000          0.468745E-03
      0.195000          0.433889E-03
      0.200000          0.403501E-03
      0.205000          0.377726E-03
      0.210000          0.356527E-03
      0.215000          0.339685E-03
      0.220000          0.326817E-03
      0.225000          0.317404E-03
      0.230000          0.310827E-03
      0.235000          0.306411E-03
      0.240000          0.303466E-03
      0.245000          0.301327E-03
      0.250000          0.299389E-03
      0.255000          0.297139E-03
      0.260000          0.294168E-03
      0.265000          0.290191E-03
      0.270000          0.285048E-03
      0.275000          0.278696E-03
      0.280000          0.271205E-03
      0.285000          0.262734E-03
      0.290000          0.253517E-03
      0.295000          0.243838E-03
      0.300000          0.234003E-03
      0.305000          0.224324E-03
      0.310000          0.215092E-03
      0.315000          0.206561E-03
      0.320000          0.198932E-03
      0.325000          0.192344E-03
      0.330000          0.186869E-03
      0.335000          0.182508E-03
      0.340000          0.179198E-03
      0.345000          0.176819E-03
      0.350000          0.175204E-03
      0.355000          0.174152E-03
      0.360000          0.173443E-03
      0.365000          0.172857E-03
      0.370000          0.172179E-03
      0.375000          0.171223E-03
      0.380000          0.169835E-03
      0.385000          0.167903E-03
      0.390000          0.165362E-03
      0.395000          0.162196E-03
      0.400000          0.158434E-03
      0.405000          0.154148E-03
      0.410000          0.149442E-03
      0.415000          0.144445E-03
      0.420000          0.139303E-03
      0.425000          0.134162E-03
      0.430000          0.129164E-03
      0.435000          0.124436E-03
      0.440000          0.120080E-03
      0.445000          0.116170E-03
      0.450000          0.112750E-03
      0.455000          0.109829E-03
      0.460000          0.107389E-03
      0.465000          0.105382E-03
      0.470000          0.103742E-03
      0.475000          0.102387E-03
      0.480000          0.101228E-03
      0.485000          0.100175E-03
      0.490000          0.991471E-04
      0.495000          0.980754E-04
      0.500000          0.969078E-04
