 I_abs(s)[cm^-1]/c[mg/ml]
       0.00000          0.139015E-01
      0.500000E-02      0.138451E-01
      0.100000E-01      0.136772E-01
      0.150000E-01      0.134024E-01
      0.200000E-01      0.130281E-01
      0.250000E-01      0.125641E-01
      0.300000E-01      0.120223E-01
      0.350000E-01      0.114162E-01
      0.400000E-01      0.107603E-01
      0.450000E-01      0.100696E-01
      0.500000E-01      0.935906E-02
      0.550000E-01      0.864304E-02
      0.600000E-01      0.793475E-02
      0.650000E-01      0.724595E-02
      0.700000E-01      0.658662E-02
      0.750000E-01      0.596478E-02
      0.800000E-01      0.538636E-02
      0.850000E-01      0.485523E-02
      0.900000E-01      0.437329E-02
      0.950000E-01      0.394066E-02
      0.100000          0.355591E-02
      0.105000          0.321633E-02
      0.110000          0.291826E-02
      0.115000          0.265741E-02
      0.120000          0.242911E-02
      0.125000          0.222866E-02
      0.130000          0.205148E-02
      0.135000          0.189338E-02
      0.140000          0.175063E-02
      0.145000          0.162009E-02
      0.150000          0.149921E-02
      0.155000          0.138606E-02
      0.160000          0.127927E-02
      0.165000          0.117796E-02
      0.170000          0.108166E-02
      0.175000          0.990208E-03
      0.180000          0.903665E-03
      0.185000          0.822212E-03
      0.190000          0.746078E-03
      0.195000          0.675477E-03
      0.200000          0.610556E-03
      0.205000          0.551371E-03
      0.210000          0.497867E-03
      0.215000          0.449882E-03
      0.220000          0.407154E-03
      0.225000          0.369342E-03
      0.230000          0.336048E-03
      0.235000          0.306841E-03
      0.240000          0.281282E-03
      0.245000          0.258943E-03
      0.250000          0.239425E-03
      0.255000          0.222368E-03
      0.260000          0.207458E-03
      0.265000          0.194427E-03
      0.270000          0.183052E-03
      0.275000          0.173149E-03
      0.280000          0.164566E-03
      0.285000          0.157174E-03
      0.290000          0.150857E-03
      0.295000          0.145510E-03
      0.300000          0.141027E-03
      0.305000          0.137303E-03
      0.310000          0.134230E-03
      0.315000          0.131695E-03
      0.320000          0.129584E-03
      0.325000          0.127787E-03
      0.330000          0.126196E-03
      0.335000          0.124713E-03
      0.340000          0.123254E-03
      0.345000          0.121750E-03
      0.350000          0.120149E-03
      0.355000          0.118419E-03
      0.360000          0.116548E-03
      0.365000          0.114542E-03
      0.370000          0.112422E-03
      0.375000          0.110224E-03
      0.380000          0.107994E-03
      0.385000          0.105782E-03
      0.390000          0.103642E-03
      0.395000          0.101626E-03
      0.400000          0.997792E-04
      0.405000          0.981410E-04
      0.410000          0.967393E-04
      0.415000          0.955909E-04
      0.420000          0.947002E-04
      0.425000          0.940599E-04
      0.430000          0.936517E-04
      0.435000          0.934475E-04
      0.440000          0.934121E-04
      0.445000          0.935046E-04
      0.450000          0.936813E-04
      0.455000          0.938981E-04
      0.460000          0.941122E-04
      0.465000          0.942845E-04
      0.470000          0.943808E-04
      0.475000          0.943730E-04
      0.480000          0.942397E-04
      0.485000          0.939665E-04
      0.490000          0.935457E-04
      0.495000          0.929760E-04
      0.500000          0.922614E-04
