 I_abs(s)[cm^-1]/c[mg/ml]
       0.00000          0.145684E-01
      0.500000E-02      0.145202E-01
      0.100000E-01      0.143764E-01
      0.150000E-01      0.141399E-01
      0.200000E-01      0.138152E-01
      0.250000E-01      0.134086E-01
      0.300000E-01      0.129278E-01
      0.350000E-01      0.123817E-01
      0.400000E-01      0.117801E-01
      0.450000E-01      0.111336E-01
      0.500000E-01      0.104531E-01
      0.550000E-01      0.974963E-02
      0.600000E-01      0.903395E-02
      0.650000E-01      0.831645E-02
      0.700000E-01      0.760679E-02
      0.750000E-01      0.691374E-02
      0.800000E-01      0.624502E-02
      0.850000E-01      0.560718E-02
      0.900000E-01      0.500553E-02
      0.950000E-01      0.444412E-02
      0.100000          0.392577E-02
      0.105000          0.345207E-02
      0.110000          0.302353E-02
      0.115000          0.263965E-02
      0.120000          0.229909E-02
      0.125000          0.199977E-02
      0.130000          0.173907E-02
      0.135000          0.151394E-02
      0.140000          0.132107E-02
      0.145000          0.115703E-02
      0.150000          0.101837E-02
      0.155000          0.901723E-03
      0.160000          0.803918E-03
      0.165000          0.722012E-03
      0.170000          0.653344E-03
      0.175000          0.595566E-03
      0.180000          0.546646E-03
      0.185000          0.504865E-03
      0.190000          0.468801E-03
      0.195000          0.437304E-03
      0.200000          0.409466E-03
      0.205000          0.384581E-03
      0.210000          0.362120E-03
      0.215000          0.341685E-03
      0.220000          0.322987E-03
      0.225000          0.305811E-03
      0.230000          0.289996E-03
      0.235000          0.275415E-03
      0.240000          0.261959E-03
      0.245000          0.249531E-03
      0.250000          0.238035E-03
      0.255000          0.227377E-03
      0.260000          0.217466E-03
      0.265000          0.208209E-03
      0.270000          0.199521E-03
      0.275000          0.191325E-03
      0.280000          0.183554E-03
      0.285000          0.176155E-03
      0.290000          0.169091E-03
      0.295000          0.162340E-03
      0.300000          0.155893E-03
      0.305000          0.149756E-03
      0.310000          0.143946E-03
      0.315000          0.138489E-03
      0.320000          0.133412E-03
      0.325000          0.128746E-03
      0.330000          0.124517E-03
      0.335000          0.120746E-03
      0.340000          0.117445E-03
      0.345000          0.114614E-03
      0.350000          0.112243E-03
      0.355000          0.110308E-03
      0.360000          0.108773E-03
      0.365000          0.107592E-03
      0.370000          0.106709E-03
      0.375000          0.106061E-03
      0.380000          0.105582E-03
      0.385000          0.105203E-03
      0.390000          0.104859E-03
      0.395000          0.104489E-03
      0.400000          0.104037E-03
      0.405000          0.103460E-03
      0.410000          0.102722E-03
      0.415000          0.101800E-03
      0.420000          0.100685E-03
      0.425000          0.993770E-04
      0.430000          0.978888E-04
      0.435000          0.962423E-04
      0.440000          0.944678E-04
      0.445000          0.926015E-04
      0.450000          0.906835E-04
      0.455000          0.887558E-04
      0.460000          0.868598E-04
      0.465000          0.850344E-04
      0.470000          0.833146E-04
      0.475000          0.817298E-04
      0.480000          0.803028E-04
      0.485000          0.790494E-04
      0.490000          0.779783E-04
      0.495000          0.770909E-04
      0.500000          0.763821E-04
