 I_abs(s)[cm^-1]/c[mg/ml]
       0.00000          0.142684E-01
      0.500000E-02      0.142124E-01
      0.100000E-01      0.140459E-01
      0.150000E-01      0.137734E-01
      0.200000E-01      0.134019E-01
      0.250000E-01      0.129410E-01
      0.300000E-01      0.124021E-01
      0.350000E-01      0.117983E-01
      0.400000E-01      0.111436E-01
      0.450000E-01      0.104525E-01
      0.500000E-01      0.973931E-02
      0.550000E-01      0.901792E-02
      0.600000E-01      0.830104E-02
      0.650000E-01      0.760004E-02
      0.700000E-01      0.692461E-02
      0.750000E-01      0.628263E-02
      0.800000E-01      0.568006E-02
      0.850000E-01      0.512098E-02
      0.900000E-01      0.460769E-02
      0.950000E-01      0.414088E-02
      0.100000          0.371987E-02
      0.105000          0.334282E-02
      0.110000          0.300704E-02
      0.115000          0.270926E-02
      0.120000          0.244583E-02
      0.125000          0.221300E-02
      0.130000          0.200704E-02
      0.135000          0.182445E-02
      0.140000          0.166200E-02
      0.145000          0.151681E-02
      0.150000          0.138639E-02
      0.155000          0.126862E-02
      0.160000          0.116173E-02
      0.165000          0.106426E-02
      0.170000          0.975023E-03
      0.175000          0.893038E-03
      0.180000          0.817504E-03
      0.185000          0.747755E-03
      0.190000          0.683234E-03
      0.195000          0.623468E-03
      0.200000          0.568054E-03
      0.205000          0.516656E-03
      0.210000          0.468993E-03
      0.215000          0.424845E-03
      0.220000          0.384042E-03
      0.225000          0.346465E-03
      0.230000          0.312035E-03
      0.235000          0.280709E-03
      0.240000          0.252459E-03
      0.245000          0.227269E-03
      0.250000          0.205109E-03
      0.255000          0.185931E-03
      0.260000          0.169653E-03
      0.265000          0.156150E-03
      0.270000          0.145252E-03
      0.275000          0.136741E-03
      0.280000          0.130357E-03
      0.285000          0.125806E-03
      0.290000          0.122771E-03
      0.295000          0.120923E-03
      0.300000          0.119937E-03
      0.305000          0.119508E-03
      0.310000          0.119359E-03
      0.315000          0.119253E-03
      0.320000          0.119004E-03
      0.325000          0.118474E-03
      0.330000          0.117580E-03
      0.335000          0.116287E-03
      0.340000          0.114606E-03
      0.345000          0.112583E-03
      0.350000          0.110294E-03
      0.355000          0.107831E-03
      0.360000          0.105295E-03
      0.365000          0.102786E-03
      0.370000          0.100397E-03
      0.375000          0.982069E-04
      0.380000          0.962741E-04
      0.385000          0.946382E-04
      0.390000          0.933170E-04
      0.395000          0.923083E-04
      0.400000          0.915922E-04
      0.405000          0.911344E-04
      0.410000          0.908900E-04
      0.415000          0.908078E-04
      0.420000          0.908341E-04
      0.425000          0.909164E-04
      0.430000          0.910062E-04
      0.435000          0.910619E-04
      0.440000          0.910500E-04
      0.445000          0.909462E-04
      0.450000          0.907352E-04
      0.455000          0.904109E-04
      0.460000          0.899751E-04
      0.465000          0.894363E-04
      0.470000          0.888082E-04
      0.475000          0.881081E-04
      0.480000          0.873555E-04
      0.485000          0.865706E-04
      0.490000          0.857725E-04
      0.495000          0.849789E-04
      0.500000          0.842046E-04
