 I_abs(s)[cm^-1]/c[mg/ml]
       0.00000          0.142762E-01
      0.500000E-02      0.142046E-01
      0.100000E-01      0.139921E-01
      0.150000E-01      0.136456E-01
      0.200000E-01      0.131761E-01
      0.250000E-01      0.125982E-01
      0.300000E-01      0.119296E-01
      0.350000E-01      0.111896E-01
      0.400000E-01      0.103990E-01
      0.450000E-01      0.957848E-02
      0.500000E-01      0.874800E-02
      0.550000E-01      0.792606E-02
      0.600000E-01      0.712891E-02
      0.650000E-01      0.637014E-02
      0.700000E-01      0.566037E-02
      0.750000E-01      0.500714E-02
      0.800000E-01      0.441495E-02
      0.850000E-01      0.388552E-02
      0.900000E-01      0.341811E-02
      0.950000E-01      0.300995E-02
      0.100000          0.265673E-02
      0.105000          0.235308E-02
      0.110000          0.209306E-02
      0.115000          0.187055E-02
      0.120000          0.167963E-02
      0.125000          0.151484E-02
      0.130000          0.137136E-02
      0.135000          0.124515E-02
      0.140000          0.113294E-02
      0.145000          0.103220E-02
      0.150000          0.941081E-03
      0.155000          0.858314E-03
      0.160000          0.783056E-03
      0.165000          0.714789E-03
      0.170000          0.653194E-03
      0.175000          0.598054E-03
      0.180000          0.549177E-03
      0.185000          0.506338E-03
      0.190000          0.469249E-03
      0.195000          0.437543E-03
      0.200000          0.410776E-03
      0.205000          0.388439E-03
      0.210000          0.369983E-03
      0.215000          0.354836E-03
      0.220000          0.342432E-03
      0.225000          0.332230E-03
      0.230000          0.323733E-03
      0.235000          0.316500E-03
      0.240000          0.310155E-03
      0.245000          0.304391E-03
      0.250000          0.298966E-03
      0.255000          0.293705E-03
      0.260000          0.288488E-03
      0.265000          0.283244E-03
      0.270000          0.277941E-03
      0.275000          0.272574E-03
      0.280000          0.267157E-03
      0.285000          0.261712E-03
      0.290000          0.256262E-03
      0.295000          0.250823E-03
      0.300000          0.245403E-03
      0.305000          0.239996E-03
      0.310000          0.234585E-03
      0.315000          0.229143E-03
      0.320000          0.223636E-03
      0.325000          0.218029E-03
      0.330000          0.212291E-03
      0.335000          0.206399E-03
      0.340000          0.200344E-03
      0.345000          0.194132E-03
      0.350000          0.187791E-03
      0.355000          0.181362E-03
      0.360000          0.174904E-03
      0.365000          0.168490E-03
      0.370000          0.162198E-03
      0.375000          0.156109E-03
      0.380000          0.150301E-03
      0.385000          0.144842E-03
      0.390000          0.139790E-03
      0.395000          0.135183E-03
      0.400000          0.131042E-03
      0.405000          0.127371E-03
      0.410000          0.124154E-03
      0.415000          0.121362E-03
      0.420000          0.118949E-03
      0.425000          0.116863E-03
      0.430000          0.115045E-03
      0.435000          0.113431E-03
      0.440000          0.111959E-03
      0.445000          0.110569E-03
      0.450000          0.109206E-03
      0.455000          0.107820E-03
      0.460000          0.106369E-03
      0.465000          0.104818E-03
      0.470000          0.103140E-03
      0.475000          0.101318E-03
      0.480000          0.993430E-04
      0.485000          0.972162E-04
      0.490000          0.949475E-04
      0.495000          0.925563E-04
      0.500000          0.900705E-04
