 I_abs(s)[cm^-1]/c[mg/ml]
       0.00000          0.146957E-01
      0.500000E-02      0.146369E-01
      0.100000E-01      0.144618E-01
      0.150000E-01      0.141745E-01
      0.200000E-01      0.137819E-01
      0.250000E-01      0.132929E-01
      0.300000E-01      0.127186E-01
      0.350000E-01      0.120717E-01
      0.400000E-01      0.113662E-01
      0.450000E-01      0.106165E-01
      0.500000E-01      0.983750E-02
      0.550000E-01      0.904376E-02
      0.600000E-01      0.824918E-02
      0.650000E-01      0.746663E-02
      0.700000E-01      0.670762E-02
      0.750000E-01      0.598205E-02
      0.800000E-01      0.529804E-02
      0.850000E-01      0.466186E-02
      0.900000E-01      0.407790E-02
      0.950000E-01      0.354877E-02
      0.100000          0.307536E-02
      0.105000          0.265707E-02
      0.110000          0.229202E-02
      0.115000          0.197724E-02
      0.120000          0.170899E-02
      0.125000          0.148294E-02
      0.130000          0.129445E-02
      0.135000          0.113875E-02
      0.140000          0.101115E-02
      0.145000          0.907188E-03
      0.150000          0.822725E-03
      0.155000          0.754047E-03
      0.160000          0.697901E-03
      0.165000          0.651516E-03
      0.170000          0.612592E-03
      0.175000          0.579273E-03
      0.180000          0.550104E-03
      0.185000          0.523979E-03
      0.190000          0.500081E-03
      0.195000          0.477831E-03
      0.200000          0.456832E-03
      0.205000          0.436824E-03
      0.210000          0.417641E-03
      0.215000          0.399183E-03
      0.220000          0.381389E-03
      0.225000          0.364223E-03
      0.230000          0.347663E-03
      0.235000          0.331694E-03
      0.240000          0.316307E-03
      0.245000          0.301497E-03
      0.250000          0.287265E-03
      0.255000          0.273620E-03
      0.260000          0.260575E-03
      0.265000          0.248148E-03
      0.270000          0.236363E-03
      0.275000          0.225243E-03
      0.280000          0.214808E-03
      0.285000          0.205075E-03
      0.290000          0.196050E-03
      0.295000          0.187731E-03
      0.300000          0.180101E-03
      0.305000          0.173133E-03
      0.310000          0.166788E-03
      0.315000          0.161018E-03
      0.320000          0.155768E-03
      0.325000          0.150981E-03
      0.330000          0.146597E-03
      0.335000          0.142563E-03
      0.340000          0.138829E-03
      0.345000          0.135358E-03
      0.350000          0.132119E-03
      0.355000          0.129095E-03
      0.360000          0.126274E-03
      0.365000          0.123659E-03
      0.370000          0.121253E-03
      0.375000          0.119067E-03
      0.380000          0.117112E-03
      0.385000          0.115396E-03
      0.390000          0.113922E-03
      0.395000          0.112689E-03
      0.400000          0.111685E-03
      0.405000          0.110891E-03
      0.410000          0.110280E-03
      0.415000          0.109816E-03
      0.420000          0.109458E-03
      0.425000          0.109161E-03
      0.430000          0.108880E-03
      0.435000          0.108570E-03
      0.440000          0.108192E-03
      0.445000          0.107713E-03
      0.450000          0.107108E-03
      0.455000          0.106363E-03
      0.460000          0.105473E-03
      0.465000          0.104446E-03
      0.470000          0.103300E-03
      0.475000          0.102059E-03
      0.480000          0.100756E-03
      0.485000          0.994276E-04
      0.490000          0.981133E-04
      0.495000          0.968507E-04
      0.500000          0.956749E-04
