 I_abs(s)[cm^-1]/c[mg/ml]
       0.00000          0.142919E-01
      0.500000E-02      0.142340E-01
      0.100000E-01      0.140617E-01
      0.150000E-01      0.137799E-01
      0.200000E-01      0.133963E-01
      0.250000E-01      0.129212E-01
      0.300000E-01      0.123671E-01
      0.350000E-01      0.117479E-01
      0.400000E-01      0.110786E-01
      0.450000E-01      0.103747E-01
      0.500000E-01      0.965115E-02
      0.550000E-01      0.892242E-02
      0.600000E-01      0.820159E-02
      0.650000E-01      0.750012E-02
      0.700000E-01      0.682761E-02
      0.750000E-01      0.619158E-02
      0.800000E-01      0.559749E-02
      0.850000E-01      0.504878E-02
      0.900000E-01      0.454701E-02
      0.950000E-01      0.409210E-02
      0.100000          0.368261E-02
      0.105000          0.331601E-02
      0.110000          0.298903E-02
      0.115000          0.269794E-02
      0.120000          0.243880E-02
      0.125000          0.220770E-02
      0.130000          0.200095E-02
      0.135000          0.181519E-02
      0.140000          0.164750E-02
      0.145000          0.149541E-02
      0.150000          0.135688E-02
      0.155000          0.123033E-02
      0.160000          0.111452E-02
      0.165000          0.100852E-02
      0.170000          0.911616E-03
      0.175000          0.823259E-03
      0.180000          0.742991E-03
      0.185000          0.670403E-03
      0.190000          0.605087E-03
      0.195000          0.546616E-03
      0.200000          0.494535E-03
      0.205000          0.448349E-03
      0.210000          0.407542E-03
      0.215000          0.371575E-03
      0.220000          0.339915E-03
      0.225000          0.312037E-03
      0.230000          0.287452E-03
      0.235000          0.265709E-03
      0.240000          0.246409E-03
      0.245000          0.229212E-03
      0.250000          0.213835E-03
      0.255000          0.200050E-03
      0.260000          0.187684E-03
      0.265000          0.176606E-03
      0.270000          0.166725E-03
      0.275000          0.157973E-03
      0.280000          0.150302E-03
      0.285000          0.143673E-03
      0.290000          0.138048E-03
      0.295000          0.133382E-03
      0.300000          0.129623E-03
      0.305000          0.126703E-03
      0.310000          0.124543E-03
      0.315000          0.123050E-03
      0.320000          0.122118E-03
      0.325000          0.121635E-03
      0.330000          0.121486E-03
      0.335000          0.121554E-03
      0.340000          0.121731E-03
      0.345000          0.121916E-03
      0.350000          0.122023E-03
      0.355000          0.121981E-03
      0.360000          0.121738E-03
      0.365000          0.121261E-03
      0.370000          0.120535E-03
      0.375000          0.119560E-03
      0.380000          0.118352E-03
      0.385000          0.116939E-03
      0.390000          0.115356E-03
      0.395000          0.113644E-03
      0.400000          0.111844E-03
      0.405000          0.109997E-03
      0.410000          0.108143E-03
      0.415000          0.106314E-03
      0.420000          0.104538E-03
      0.425000          0.102835E-03
      0.430000          0.101221E-03
      0.435000          0.997048E-04
      0.440000          0.982916E-04
      0.445000          0.969819E-04
      0.450000          0.957734E-04
      0.455000          0.946621E-04
      0.460000          0.936428E-04
      0.465000          0.927093E-04
      0.470000          0.918554E-04
      0.475000          0.910744E-04
      0.480000          0.903595E-04
      0.485000          0.897035E-04
      0.490000          0.890986E-04
      0.495000          0.885362E-04
      0.500000          0.880069E-04
