 I_abs(s)[cm^-1]/c[mg/ml]
       0.00000          0.139326E-01
      0.500000E-02      0.138809E-01
      0.100000E-01      0.137270E-01
      0.150000E-01      0.134744E-01
      0.200000E-01      0.131289E-01
      0.250000E-01      0.126982E-01
      0.300000E-01      0.121917E-01
      0.350000E-01      0.116205E-01
      0.400000E-01      0.109964E-01
      0.450000E-01      0.103320E-01
      0.500000E-01      0.964040E-02
      0.550000E-01      0.893420E-02
      0.600000E-01      0.822570E-02
      0.650000E-01      0.752633E-02
      0.700000E-01      0.684636E-02
      0.750000E-01      0.619472E-02
      0.800000E-01      0.557878E-02
      0.850000E-01      0.500427E-02
      0.900000E-01      0.447528E-02
      0.950000E-01      0.399421E-02
      0.100000          0.356192E-02
      0.105000          0.317786E-02
      0.110000          0.284021E-02
      0.115000          0.254615E-02
      0.120000          0.229205E-02
      0.125000          0.207371E-02
      0.130000          0.188661E-02
      0.135000          0.172611E-02
      0.140000          0.158766E-02
      0.145000          0.146699E-02
      0.150000          0.136019E-02
      0.155000          0.126386E-02
      0.160000          0.117517E-02
      0.165000          0.109185E-02
      0.170000          0.101224E-02
      0.175000          0.935199E-03
      0.180000          0.860114E-03
      0.185000          0.786774E-03
      0.190000          0.715312E-03
      0.195000          0.646113E-03
      0.200000          0.579722E-03
      0.205000          0.516767E-03
      0.210000          0.457875E-03
      0.215000          0.403619E-03
      0.220000          0.354463E-03
      0.225000          0.310731E-03
      0.230000          0.272588E-03
      0.235000          0.240032E-03
      0.240000          0.212900E-03
      0.245000          0.190888E-03
      0.250000          0.173571E-03
      0.255000          0.160432E-03
      0.260000          0.150895E-03
      0.265000          0.144354E-03
      0.270000          0.140204E-03
      0.275000          0.137866E-03
      0.280000          0.136808E-03
      0.285000          0.136562E-03
      0.290000          0.136736E-03
      0.295000          0.137014E-03
      0.300000          0.137164E-03
      0.305000          0.137024E-03
      0.310000          0.136504E-03
      0.315000          0.135570E-03
      0.320000          0.134235E-03
      0.325000          0.132546E-03
      0.330000          0.130575E-03
      0.335000          0.128405E-03
      0.340000          0.126121E-03
      0.345000          0.123807E-03
      0.350000          0.121534E-03
      0.355000          0.119363E-03
      0.360000          0.117337E-03
      0.365000          0.115486E-03
      0.370000          0.113825E-03
      0.375000          0.112354E-03
      0.380000          0.111068E-03
      0.385000          0.109948E-03
      0.390000          0.108975E-03
      0.395000          0.108126E-03
      0.400000          0.107374E-03
      0.405000          0.106698E-03
      0.410000          0.106073E-03
      0.415000          0.105482E-03
      0.420000          0.104905E-03
      0.425000          0.104327E-03
      0.430000          0.103735E-03
      0.435000          0.103116E-03
      0.440000          0.102458E-03
      0.445000          0.101752E-03
      0.450000          0.100987E-03
      0.455000          0.100154E-03
      0.460000          0.992440E-04
      0.465000          0.982507E-04
      0.470000          0.971686E-04
      0.475000          0.959949E-04
      0.480000          0.947299E-04
      0.485000          0.933774E-04
      0.490000          0.919448E-04
      0.495000          0.904438E-04
      0.500000          0.888900E-04
