 I_abs(s)[cm^-1]/c[mg/ml]
       0.00000          0.145684E-01
      0.500000E-02      0.145268E-01
      0.100000E-01      0.144026E-01
      0.150000E-01      0.141980E-01
      0.200000E-01      0.139162E-01
      0.250000E-01      0.135619E-01
      0.300000E-01      0.131407E-01
      0.350000E-01      0.126592E-01
      0.400000E-01      0.121250E-01
      0.450000E-01      0.115461E-01
      0.500000E-01      0.109311E-01
      0.550000E-01      0.102885E-01
      0.600000E-01      0.962732E-02
      0.650000E-01      0.895604E-02
      0.700000E-01      0.828301E-02
      0.750000E-01      0.761601E-02
      0.800000E-01      0.696223E-02
      0.850000E-01      0.632810E-02
      0.900000E-01      0.571923E-02
      0.950000E-01      0.514033E-02
      0.100000          0.459516E-02
      0.105000          0.408659E-02
      0.110000          0.361652E-02
      0.115000          0.318601E-02
      0.120000          0.279528E-02
      0.125000          0.244381E-02
      0.130000          0.213045E-02
      0.135000          0.185347E-02
      0.140000          0.161073E-02
      0.145000          0.139972E-02
      0.150000          0.121771E-02
      0.155000          0.106184E-02
      0.160000          0.929199E-03
      0.165000          0.816902E-03
      0.170000          0.722184E-03
      0.175000          0.642437E-03
      0.180000          0.575261E-03
      0.185000          0.518494E-03
      0.190000          0.470227E-03
      0.195000          0.428820E-03
      0.200000          0.392889E-03
      0.205000          0.361304E-03
      0.210000          0.333164E-03
      0.215000          0.307778E-03
      0.220000          0.284637E-03
      0.225000          0.263385E-03
      0.230000          0.243790E-03
      0.235000          0.225716E-03
      0.240000          0.209097E-03
      0.245000          0.193913E-03
      0.250000          0.180170E-03
      0.255000          0.167882E-03
      0.260000          0.157060E-03
      0.265000          0.147701E-03
      0.270000          0.139781E-03
      0.275000          0.133255E-03
      0.280000          0.128053E-03
      0.285000          0.124086E-03
      0.290000          0.121243E-03
      0.295000          0.119401E-03
      0.300000          0.118428E-03
      0.305000          0.118185E-03
      0.310000          0.118535E-03
      0.315000          0.119345E-03
      0.320000          0.120490E-03
      0.325000          0.121857E-03
      0.330000          0.123343E-03
      0.335000          0.124862E-03
      0.340000          0.126341E-03
      0.345000          0.127722E-03
      0.350000          0.128957E-03
      0.355000          0.130015E-03
      0.360000          0.130872E-03
      0.365000          0.131514E-03
      0.370000          0.131934E-03
      0.375000          0.132130E-03
      0.380000          0.132106E-03
      0.385000          0.131867E-03
      0.390000          0.131422E-03
      0.395000          0.130778E-03
      0.400000          0.129948E-03
      0.405000          0.128942E-03
      0.410000          0.127770E-03
      0.415000          0.126447E-03
      0.420000          0.124984E-03
      0.425000          0.123395E-03
      0.430000          0.121695E-03
      0.435000          0.119900E-03
      0.440000          0.118027E-03
      0.445000          0.116094E-03
      0.450000          0.114119E-03
      0.455000          0.112121E-03
      0.460000          0.110119E-03
      0.465000          0.108132E-03
      0.470000          0.106179E-03
      0.475000          0.104275E-03
      0.480000          0.102437E-03
      0.485000          0.100676E-03
      0.490000          0.990035E-04
      0.495000          0.974272E-04
      0.500000          0.959521E-04
