 I_abs(s)[cm^-1]/c[mg/ml]
       0.00000          0.144417E-01
      0.500000E-02      0.143977E-01
      0.100000E-01      0.142665E-01
      0.150000E-01      0.140505E-01
      0.200000E-01      0.137535E-01
      0.250000E-01      0.133808E-01
      0.300000E-01      0.129389E-01
      0.350000E-01      0.124352E-01
      0.400000E-01      0.118783E-01
      0.450000E-01      0.112772E-01
      0.500000E-01      0.106412E-01
      0.550000E-01      0.998003E-02
      0.600000E-01      0.930317E-02
      0.650000E-01      0.861987E-02
      0.700000E-01      0.793889E-02
      0.750000E-01      0.726831E-02
      0.800000E-01      0.661543E-02
      0.850000E-01      0.598663E-02
      0.900000E-01      0.538728E-02
      0.950000E-01      0.482174E-02
      0.100000          0.429331E-02
      0.105000          0.380426E-02
      0.110000          0.335591E-02
      0.115000          0.294863E-02
      0.120000          0.258203E-02
      0.125000          0.225495E-02
      0.130000          0.196570E-02
      0.135000          0.171206E-02
      0.140000          0.149147E-02
      0.145000          0.130112E-02
      0.150000          0.113808E-02
      0.155000          0.999345E-03
      0.160000          0.881967E-03
      0.165000          0.783104E-03
      0.170000          0.700077E-03
      0.175000          0.630415E-03
      0.180000          0.571885E-03
      0.185000          0.522501E-03
      0.190000          0.480538E-03
      0.195000          0.444523E-03
      0.200000          0.413223E-03
      0.205000          0.385631E-03
      0.210000          0.360944E-03
      0.215000          0.338537E-03
      0.220000          0.317938E-03
      0.225000          0.298806E-03
      0.230000          0.280906E-03
      0.235000          0.264082E-03
      0.240000          0.248245E-03
      0.245000          0.233350E-03
      0.250000          0.219381E-03
      0.255000          0.206341E-03
      0.260000          0.194243E-03
      0.265000          0.183100E-03
      0.270000          0.172921E-03
      0.275000          0.163706E-03
      0.280000          0.155446E-03
      0.285000          0.148122E-03
      0.290000          0.141703E-03
      0.295000          0.136148E-03
      0.300000          0.131406E-03
      0.305000          0.127420E-03
      0.310000          0.124125E-03
      0.315000          0.121453E-03
      0.320000          0.119332E-03
      0.325000          0.117689E-03
      0.330000          0.116452E-03
      0.335000          0.115549E-03
      0.340000          0.114912E-03
      0.345000          0.114478E-03
      0.350000          0.114184E-03
      0.355000          0.113978E-03
      0.360000          0.113810E-03
      0.365000          0.113638E-03
      0.370000          0.113425E-03
      0.375000          0.113143E-03
      0.380000          0.112768E-03
      0.385000          0.112283E-03
      0.390000          0.111679E-03
      0.395000          0.110951E-03
      0.400000          0.110099E-03
      0.405000          0.109129E-03
      0.410000          0.108052E-03
      0.415000          0.106880E-03
      0.420000          0.105630E-03
      0.425000          0.104321E-03
      0.430000          0.102973E-03
      0.435000          0.101607E-03
      0.440000          0.100245E-03
      0.445000          0.989067E-04
      0.450000          0.976122E-04
      0.455000          0.963788E-04
      0.460000          0.952215E-04
      0.465000          0.941523E-04
      0.470000          0.931799E-04
      0.475000          0.923093E-04
      0.480000          0.915416E-04
      0.485000          0.908742E-04
      0.490000          0.903005E-04
      0.495000          0.898104E-04
      0.500000          0.893909E-04
