 I_abs(s)[cm^-1]/c[mg/ml]
       0.00000          0.144417E-01
      0.500000E-02      0.143800E-01
      0.100000E-01      0.141967E-01
      0.150000E-01      0.138970E-01
      0.200000E-01      0.134896E-01
      0.250000E-01      0.129859E-01
      0.300000E-01      0.123995E-01
      0.350000E-01      0.117458E-01
      0.400000E-01      0.110410E-01
      0.450000E-01      0.103019E-01
      0.500000E-01      0.954463E-02
      0.550000E-01      0.878441E-02
      0.600000E-01      0.803503E-02
      0.650000E-01      0.730839E-02
      0.700000E-01      0.661428E-02
      0.750000E-01      0.596026E-02
      0.800000E-01      0.535164E-02
      0.850000E-01      0.479163E-02
      0.900000E-01      0.428150E-02
      0.950000E-01      0.382089E-02
      0.100000          0.340808E-02
      0.105000          0.304033E-02
      0.110000          0.271419E-02
      0.115000          0.242581E-02
      0.120000          0.217116E-02
      0.125000          0.194627E-02
      0.130000          0.174740E-02
      0.135000          0.157110E-02
      0.140000          0.141432E-02
      0.145000          0.127440E-02
      0.150000          0.114911E-02
      0.155000          0.103658E-02
      0.160000          0.935276E-03
      0.165000          0.843954E-03
      0.170000          0.761595E-03
      0.175000          0.687362E-03
      0.180000          0.620555E-03
      0.185000          0.560569E-03
      0.190000          0.506866E-03
      0.195000          0.458951E-03
      0.200000          0.416354E-03
      0.205000          0.378621E-03
      0.210000          0.345309E-03
      0.215000          0.315985E-03
      0.220000          0.290230E-03
      0.225000          0.267644E-03
      0.230000          0.247854E-03
      0.235000          0.230522E-03
      0.240000          0.215350E-03
      0.245000          0.202091E-03
      0.250000          0.190545E-03
      0.255000          0.180565E-03
      0.260000          0.172050E-03
      0.265000          0.164938E-03
      0.270000          0.159197E-03
      0.275000          0.154810E-03
      0.280000          0.151762E-03
      0.285000          0.150026E-03
      0.290000          0.149548E-03
      0.295000          0.150239E-03
      0.300000          0.151967E-03
      0.305000          0.154559E-03
      0.310000          0.157800E-03
      0.315000          0.161442E-03
      0.320000          0.165219E-03
      0.325000          0.168858E-03
      0.330000          0.172099E-03
      0.335000          0.174708E-03
      0.340000          0.176493E-03
      0.345000          0.177315E-03
      0.350000          0.177096E-03
      0.355000          0.175823E-03
      0.360000          0.173543E-03
      0.365000          0.170359E-03
      0.370000          0.166420E-03
      0.375000          0.161906E-03
      0.380000          0.157017E-03
      0.385000          0.151954E-03
      0.390000          0.146912E-03
      0.395000          0.142059E-03
      0.400000          0.137537E-03
      0.405000          0.133448E-03
      0.410000          0.129856E-03
      0.415000          0.126787E-03
      0.420000          0.124231E-03
      0.425000          0.122147E-03
      0.430000          0.120473E-03
      0.435000          0.119130E-03
      0.440000          0.118029E-03
      0.445000          0.117081E-03
      0.450000          0.116201E-03
      0.455000          0.115314E-03
      0.460000          0.114354E-03
      0.465000          0.113272E-03
      0.470000          0.112033E-03
      0.475000          0.110616E-03
      0.480000          0.109014E-03
      0.485000          0.107230E-03
      0.490000          0.105281E-03
      0.495000          0.103187E-03
      0.500000          0.100976E-03
