 I_abs(s)[cm^-1]/c[mg/ml]
       0.00000          0.139015E-01
      0.500000E-02      0.138389E-01
      0.100000E-01      0.136531E-01
      0.150000E-01      0.133499E-01
      0.200000E-01      0.129389E-01
      0.250000E-01      0.124325E-01
      0.300000E-01      0.118457E-01
      0.350000E-01      0.111952E-01
      0.400000E-01      0.104985E-01
      0.450000E-01      0.977320E-02
      0.500000E-01      0.903630E-02
      0.550000E-01      0.830337E-02
      0.600000E-01      0.758812E-02
      0.650000E-01      0.690200E-02
      0.700000E-01      0.625398E-02
      0.750000E-01      0.565048E-02
      0.800000E-01      0.509545E-02
      0.850000E-01      0.459059E-02
      0.900000E-01      0.413566E-02
      0.950000E-01      0.372886E-02
      0.100000          0.336720E-02
      0.105000          0.304692E-02
      0.110000          0.276386E-02
      0.115000          0.251372E-02
      0.120000          0.229239E-02
      0.125000          0.209606E-02
      0.130000          0.192135E-02
      0.135000          0.176533E-02
      0.140000          0.162555E-02
      0.145000          0.149993E-02
      0.150000          0.138675E-02
      0.155000          0.128455E-02
      0.160000          0.119204E-02
      0.165000          0.110804E-02
      0.170000          0.103147E-02
      0.175000          0.961302E-03
      0.180000          0.896558E-03
      0.185000          0.836332E-03
      0.190000          0.779807E-03
      0.195000          0.726283E-03
      0.200000          0.675202E-03
      0.205000          0.626162E-03
      0.210000          0.578922E-03
      0.215000          0.533399E-03
      0.220000          0.489650E-03
      0.225000          0.447837E-03
      0.230000          0.408199E-03
      0.235000          0.371009E-03
      0.240000          0.336537E-03
      0.245000          0.305016E-03
      0.250000          0.276610E-03
      0.255000          0.251403E-03
      0.260000          0.229386E-03
      0.265000          0.210456E-03
      0.270000          0.194429E-03
      0.275000          0.181053E-03
      0.280000          0.170028E-03
      0.285000          0.161027E-03
      0.290000          0.153717E-03
      0.295000          0.147777E-03
      0.300000          0.142914E-03
      0.305000          0.138871E-03
      0.310000          0.135436E-03
      0.315000          0.132439E-03
      0.320000          0.129754E-03
      0.325000          0.127292E-03
      0.330000          0.124995E-03
      0.335000          0.122827E-03
      0.340000          0.120770E-03
      0.345000          0.118813E-03
      0.350000          0.116952E-03
      0.355000          0.115180E-03
      0.360000          0.113491E-03
      0.365000          0.111871E-03
      0.370000          0.110307E-03
      0.375000          0.108778E-03
      0.380000          0.107265E-03
      0.385000          0.105746E-03
      0.390000          0.104201E-03
      0.395000          0.102613E-03
      0.400000          0.100971E-03
      0.405000          0.992682E-04
      0.410000          0.975066E-04
      0.415000          0.956948E-04
      0.420000          0.938499E-04
      0.425000          0.919959E-04
      0.430000          0.901632E-04
      0.435000          0.883870E-04
      0.440000          0.867052E-04
      0.445000          0.851556E-04
      0.450000          0.837737E-04
      0.455000          0.825899E-04
      0.460000          0.816273E-04
      0.465000          0.808992E-04
      0.470000          0.804087E-04
      0.475000          0.801472E-04
      0.480000          0.800957E-04
      0.485000          0.802252E-04
      0.490000          0.804993E-04
      0.495000          0.808763E-04
      0.500000          0.813120E-04
