 I_abs(s)[cm^-1]/c[mg/ml]
       0.00000          0.143943E-01
      0.500000E-02      0.143356E-01
      0.100000E-01      0.141608E-01
      0.150000E-01      0.138743E-01
      0.200000E-01      0.134828E-01
      0.250000E-01      0.129957E-01
      0.300000E-01      0.124243E-01
      0.350000E-01      0.117815E-01
      0.400000E-01      0.110815E-01
      0.450000E-01      0.103392E-01
      0.500000E-01      0.956968E-02
      0.550000E-01      0.878762E-02
      0.600000E-01      0.800712E-02
      0.650000E-01      0.724110E-02
      0.700000E-01      0.650105E-02
      0.750000E-01      0.579673E-02
      0.800000E-01      0.513603E-02
      0.850000E-01      0.452489E-02
      0.900000E-01      0.396727E-02
      0.950000E-01      0.346524E-02
      0.100000          0.301910E-02
      0.105000          0.262764E-02
      0.110000          0.228829E-02
      0.115000          0.199745E-02
      0.120000          0.175075E-02
      0.125000          0.154331E-02
      0.130000          0.137003E-02
      0.135000          0.122581E-02
      0.140000          0.110573E-02
      0.145000          0.100527E-02
      0.150000          0.920365E-03
      0.155000          0.847538E-03
      0.160000          0.783902E-03
      0.165000          0.727172E-03
      0.170000          0.675632E-03
      0.175000          0.628081E-03
      0.180000          0.583755E-03
      0.185000          0.542243E-03
      0.190000          0.503402E-03
      0.195000          0.467264E-03
      0.200000          0.433963E-03
      0.205000          0.403660E-03
      0.210000          0.376494E-03
      0.215000          0.352540E-03
      0.220000          0.331782E-03
      0.225000          0.314104E-03
      0.230000          0.299289E-03
      0.235000          0.287036E-03
      0.240000          0.276972E-03
      0.245000          0.268679E-03
      0.250000          0.261720E-03
      0.255000          0.255663E-03
      0.260000          0.250107E-03
      0.265000          0.244698E-03
      0.270000          0.239142E-03
      0.275000          0.233220E-03
      0.280000          0.226787E-03
      0.285000          0.219773E-03
      0.290000          0.212176E-03
      0.295000          0.204052E-03
      0.300000          0.195508E-03
      0.305000          0.186683E-03
      0.310000          0.177739E-03
      0.315000          0.168848E-03
      0.320000          0.160177E-03
      0.325000          0.151884E-03
      0.330000          0.144102E-03
      0.335000          0.136943E-03
      0.340000          0.130486E-03
      0.345000          0.124783E-03
      0.350000          0.119855E-03
      0.355000          0.115695E-03
      0.360000          0.112273E-03
      0.365000          0.109539E-03
      0.370000          0.107428E-03
      0.375000          0.105863E-03
      0.380000          0.104763E-03
      0.385000          0.104043E-03
      0.390000          0.103620E-03
      0.395000          0.103414E-03
      0.400000          0.103354E-03
      0.405000          0.103373E-03
      0.410000          0.103418E-03
      0.415000          0.103440E-03
      0.420000          0.103404E-03
      0.425000          0.103280E-03
      0.430000          0.103049E-03
      0.435000          0.102697E-03
      0.440000          0.102219E-03
      0.445000          0.101614E-03
      0.450000          0.100884E-03
      0.455000          0.100039E-03
      0.460000          0.990884E-04
      0.465000          0.980461E-04
      0.470000          0.969275E-04
      0.475000          0.957501E-04
      0.480000          0.945327E-04
      0.485000          0.932957E-04
      0.490000          0.920604E-04
      0.495000          0.908489E-04
      0.500000          0.896840E-04
