 I_abs(s)[cm^-1]/c[mg/ml]
       0.00000          0.148155E-01
      0.500000E-02      0.147674E-01
      0.100000E-01      0.146242E-01
      0.150000E-01      0.143886E-01
      0.200000E-01      0.140653E-01
      0.250000E-01      0.136606E-01
      0.300000E-01      0.131821E-01
      0.350000E-01      0.126389E-01
      0.400000E-01      0.120408E-01
      0.450000E-01      0.113983E-01
      0.500000E-01      0.107222E-01
      0.550000E-01      0.100235E-01
      0.600000E-01      0.931285E-02
      0.650000E-01      0.860037E-02
      0.700000E-01      0.789551E-02
      0.750000E-01      0.720675E-02
      0.800000E-01      0.654153E-02
      0.850000E-01      0.590610E-02
      0.900000E-01      0.530548E-02
      0.950000E-01      0.474346E-02
      0.100000          0.422261E-02
      0.105000          0.374436E-02
      0.110000          0.330911E-02
      0.115000          0.291632E-02
      0.120000          0.256470E-02
      0.125000          0.225228E-02
      0.130000          0.197663E-02
      0.135000          0.173498E-02
      0.140000          0.152434E-02
      0.145000          0.134162E-02
      0.150000          0.118375E-02
      0.155000          0.104779E-02
      0.160000          0.930912E-03
      0.165000          0.830542E-03
      0.170000          0.744329E-03
      0.175000          0.670180E-03
      0.180000          0.606257E-03
      0.185000          0.550970E-03
      0.190000          0.502955E-03
      0.195000          0.461057E-03
      0.200000          0.424302E-03
      0.205000          0.391873E-03
      0.210000          0.363087E-03
      0.215000          0.337373E-03
      0.220000          0.314253E-03
      0.225000          0.293327E-03
      0.230000          0.274261E-03
      0.235000          0.256780E-03
      0.240000          0.240657E-03
      0.245000          0.225711E-03
      0.250000          0.211801E-03
      0.255000          0.198826E-03
      0.260000          0.186716E-03
      0.265000          0.175431E-03
      0.270000          0.164954E-03
      0.275000          0.155290E-03
      0.280000          0.146456E-03
      0.285000          0.138474E-03
      0.290000          0.131369E-03
      0.295000          0.125162E-03
      0.300000          0.119860E-03
      0.305000          0.115460E-03
      0.310000          0.111936E-03
      0.315000          0.109249E-03
      0.320000          0.107337E-03
      0.325000          0.106122E-03
      0.330000          0.105508E-03
      0.335000          0.105389E-03
      0.340000          0.105652E-03
      0.345000          0.106180E-03
      0.350000          0.106858E-03
      0.355000          0.107577E-03
      0.360000          0.108241E-03
      0.365000          0.108767E-03
      0.370000          0.109088E-03
      0.375000          0.109158E-03
      0.380000          0.108948E-03
      0.385000          0.108450E-03
      0.390000          0.107671E-03
      0.395000          0.106635E-03
      0.400000          0.105379E-03
      0.405000          0.103948E-03
      0.410000          0.102394E-03
      0.415000          0.100774E-03
      0.420000          0.991409E-04
      0.425000          0.975477E-04
      0.430000          0.960401E-04
      0.435000          0.946571E-04
      0.440000          0.934283E-04
      0.445000          0.923740E-04
      0.450000          0.915043E-04
      0.455000          0.908199E-04
      0.460000          0.903124E-04
      0.465000          0.899657E-04
      0.470000          0.897572E-04
      0.475000          0.896594E-04
      0.480000          0.896416E-04
      0.485000          0.896713E-04
      0.490000          0.897163E-04
      0.495000          0.897456E-04
      0.500000          0.897309E-04
