 I_abs(s)[cm^-1]/c[mg/ml]
       0.00000          0.146559E-01
      0.500000E-02      0.145946E-01
      0.100000E-01      0.144125E-01
      0.150000E-01      0.141139E-01
      0.200000E-01      0.137064E-01
      0.250000E-01      0.131998E-01
      0.300000E-01      0.126063E-01
      0.350000E-01      0.119396E-01
      0.400000E-01      0.112146E-01
      0.450000E-01      0.104471E-01
      0.500000E-01      0.965262E-02
      0.550000E-01      0.884653E-02
      0.600000E-01      0.804321E-02
      0.650000E-01      0.725578E-02
      0.700000E-01      0.649576E-02
      0.750000E-01      0.577283E-02
      0.800000E-01      0.509472E-02
      0.850000E-01      0.446711E-02
      0.900000E-01      0.389375E-02
      0.950000E-01      0.337650E-02
      0.100000          0.291555E-02
      0.105000          0.250965E-02
      0.110000          0.215632E-02
      0.115000          0.185218E-02
      0.120000          0.159316E-02
      0.125000          0.137478E-02
      0.130000          0.119238E-02
      0.135000          0.104130E-02
      0.140000          0.917063E-03
      0.145000          0.815482E-03
      0.150000          0.732739E-03
      0.155000          0.665443E-03
      0.160000          0.610646E-03
      0.165000          0.565839E-03
      0.170000          0.528926E-03
      0.175000          0.498184E-03
      0.180000          0.472226E-03
      0.185000          0.449948E-03
      0.190000          0.430482E-03
      0.195000          0.413160E-03
      0.200000          0.397470E-03
      0.205000          0.383027E-03
      0.210000          0.369547E-03
      0.215000          0.356825E-03
      0.220000          0.344721E-03
      0.225000          0.333144E-03
      0.230000          0.322043E-03
      0.235000          0.311394E-03
      0.240000          0.301198E-03
      0.245000          0.291463E-03
      0.250000          0.282206E-03
      0.255000          0.273439E-03
      0.260000          0.265170E-03
      0.265000          0.257391E-03
      0.270000          0.250081E-03
      0.275000          0.243204E-03
      0.280000          0.236707E-03
      0.285000          0.230525E-03
      0.290000          0.224585E-03
      0.295000          0.218810E-03
      0.300000          0.213125E-03
      0.305000          0.207463E-03
      0.310000          0.201766E-03
      0.315000          0.195994E-03
      0.320000          0.190124E-03
      0.325000          0.184153E-03
      0.330000          0.178094E-03
      0.335000          0.171977E-03
      0.340000          0.165845E-03
      0.345000          0.159751E-03
      0.350000          0.153749E-03
      0.355000          0.147899E-03
      0.360000          0.142252E-03
      0.365000          0.136858E-03
      0.370000          0.131753E-03
      0.375000          0.126968E-03
      0.380000          0.122522E-03
      0.385000          0.118426E-03
      0.390000          0.114683E-03
      0.395000          0.111291E-03
      0.400000          0.108244E-03
      0.405000          0.105534E-03
      0.410000          0.103156E-03
      0.415000          0.101103E-03
      0.420000          0.993695E-04
      0.425000          0.979536E-04
      0.430000          0.968521E-04
      0.435000          0.960614E-04
      0.440000          0.955753E-04
      0.445000          0.953833E-04
      0.450000          0.954692E-04
      0.455000          0.958098E-04
      0.460000          0.963738E-04
      0.465000          0.971221E-04
      0.470000          0.980079E-04
      0.475000          0.989781E-04
      0.480000          0.999749E-04
      0.485000          0.100938E-03
      0.490000          0.101809E-03
      0.495000          0.102529E-03
      0.500000          0.103049E-03
