 I_abs(s)[cm^-1]/c[mg/ml]
       0.00000          0.140493E-01
      0.500000E-02      0.139996E-01
      0.100000E-01      0.138516E-01
      0.150000E-01      0.136088E-01
      0.200000E-01      0.132768E-01
      0.250000E-01      0.128629E-01
      0.300000E-01      0.123763E-01
      0.350000E-01      0.118274E-01
      0.400000E-01      0.112277E-01
      0.450000E-01      0.105890E-01
      0.500000E-01      0.992342E-02
      0.550000E-01      0.924294E-02
      0.600000E-01      0.855882E-02
      0.650000E-01      0.788151E-02
      0.700000E-01      0.722031E-02
      0.750000E-01      0.658323E-02
      0.800000E-01      0.597679E-02
      0.850000E-01      0.540607E-02
      0.900000E-01      0.487460E-02
      0.950000E-01      0.438453E-02
      0.100000          0.393666E-02
      0.105000          0.353068E-02
      0.110000          0.316527E-02
      0.115000          0.283833E-02
      0.120000          0.254723E-02
      0.125000          0.228892E-02
      0.130000          0.206017E-02
      0.135000          0.185771E-02
      0.140000          0.167839E-02
      0.145000          0.151923E-02
      0.150000          0.137753E-02
      0.155000          0.125092E-02
      0.160000          0.113736E-02
      0.165000          0.103511E-02
      0.170000          0.942753E-03
      0.175000          0.859145E-03
      0.180000          0.783350E-03
      0.185000          0.714615E-03
      0.190000          0.652317E-03
      0.195000          0.595927E-03
      0.200000          0.544971E-03
      0.205000          0.499010E-03
      0.210000          0.457622E-03
      0.215000          0.420391E-03
      0.220000          0.386907E-03
      0.225000          0.356770E-03
      0.230000          0.329593E-03
      0.235000          0.305019E-03
      0.240000          0.282719E-03
      0.245000          0.262409E-03
      0.250000          0.243851E-03
      0.255000          0.226853E-03
      0.260000          0.211271E-03
      0.265000          0.197004E-03
      0.270000          0.183986E-03
      0.275000          0.172178E-03
      0.280000          0.161556E-03
      0.285000          0.152105E-03
      0.290000          0.143804E-03
      0.295000          0.136625E-03
      0.300000          0.130522E-03
      0.305000          0.125431E-03
      0.310000          0.121265E-03
      0.315000          0.117923E-03
      0.320000          0.115285E-03
      0.325000          0.113225E-03
      0.330000          0.111611E-03
      0.335000          0.110316E-03
      0.340000          0.109221E-03
      0.345000          0.108224E-03
      0.350000          0.107239E-03
      0.355000          0.106207E-03
      0.360000          0.105086E-03
      0.365000          0.103862E-03
      0.370000          0.102540E-03
      0.375000          0.101140E-03
      0.380000          0.996987E-04
      0.385000          0.982585E-04
      0.390000          0.968662E-04
      0.395000          0.955668E-04
      0.400000          0.944000E-04
      0.405000          0.933964E-04
      0.410000          0.925757E-04
      0.415000          0.919450E-04
      0.420000          0.914988E-04
      0.425000          0.912200E-04
      0.430000          0.910818E-04
      0.435000          0.910492E-04
      0.440000          0.910827E-04
      0.445000          0.911407E-04
      0.450000          0.911823E-04
      0.455000          0.911697E-04
      0.460000          0.910707E-04
      0.465000          0.908598E-04
      0.470000          0.905190E-04
      0.475000          0.900387E-04
      0.480000          0.894166E-04
      0.485000          0.886575E-04
      0.490000          0.877719E-04
      0.495000          0.867746E-04
      0.500000          0.856836E-04
