 I_abs(s)[cm^-1]/c[mg/ml]
       0.00000          0.148476E-01
      0.500000E-02      0.147832E-01
      0.100000E-01      0.145919E-01
      0.150000E-01      0.142787E-01
      0.200000E-01      0.138518E-01
      0.250000E-01      0.133223E-01
      0.300000E-01      0.127036E-01
      0.350000E-01      0.120107E-01
      0.400000E-01      0.112600E-01
      0.450000E-01      0.104681E-01
      0.500000E-01      0.965197E-02
      0.550000E-01      0.882752E-02
      0.600000E-01      0.800968E-02
      0.650000E-01      0.721180E-02
      0.700000E-01      0.644532E-02
      0.750000E-01      0.571964E-02
      0.800000E-01      0.504199E-02
      0.850000E-01      0.441748E-02
      0.900000E-01      0.384916E-02
      0.950000E-01      0.333824E-02
      0.100000          0.288430E-02
      0.105000          0.248557E-02
      0.110000          0.213918E-02
      0.115000          0.184149E-02
      0.120000          0.158829E-02
      0.125000          0.137508E-02
      0.130000          0.119725E-02
      0.135000          0.105025E-02
      0.140000          0.929706E-03
      0.145000          0.831533E-03
      0.150000          0.751973E-03
      0.155000          0.687637E-03
      0.160000          0.635524E-03
      0.165000          0.593016E-03
      0.170000          0.557868E-03
      0.175000          0.528195E-03
      0.180000          0.502446E-03
      0.185000          0.479382E-03
      0.190000          0.458052E-03
      0.195000          0.437764E-03
      0.200000          0.418060E-03
      0.205000          0.398680E-03
      0.210000          0.379534E-03
      0.215000          0.360667E-03
      0.220000          0.342223E-03
      0.225000          0.324413E-03
      0.230000          0.307480E-03
      0.235000          0.291672E-03
      0.240000          0.277212E-03
      0.245000          0.264279E-03
      0.250000          0.252995E-03
      0.255000          0.243416E-03
      0.260000          0.235528E-03
      0.265000          0.229253E-03
      0.270000          0.224453E-03
      0.275000          0.220947E-03
      0.280000          0.218517E-03
      0.285000          0.216929E-03
      0.290000          0.215941E-03
      0.295000          0.215319E-03
      0.300000          0.214845E-03
      0.305000          0.214322E-03
      0.310000          0.213585E-03
      0.315000          0.212498E-03
      0.320000          0.210956E-03
      0.325000          0.208886E-03
      0.330000          0.206243E-03
      0.335000          0.203009E-03
      0.340000          0.199187E-03
      0.345000          0.194803E-03
      0.350000          0.189899E-03
      0.355000          0.184536E-03
      0.360000          0.178786E-03
      0.365000          0.172732E-03
      0.370000          0.166467E-03
      0.375000          0.160088E-03
      0.380000          0.153695E-03
      0.385000          0.147387E-03
      0.390000          0.141258E-03
      0.395000          0.135393E-03
      0.400000          0.129866E-03
      0.405000          0.124736E-03
      0.410000          0.120044E-03
      0.415000          0.115814E-03
      0.420000          0.112054E-03
      0.425000          0.108751E-03
      0.430000          0.105881E-03
      0.435000          0.103406E-03
      0.440000          0.101279E-03
      0.445000          0.994497E-04
      0.450000          0.978646E-04
      0.455000          0.964733E-04
      0.460000          0.952299E-04
      0.465000          0.940956E-04
      0.470000          0.930397E-04
      0.475000          0.920399E-04
      0.480000          0.910828E-04
      0.485000          0.901620E-04
      0.490000          0.892772E-04
      0.495000          0.884325E-04
      0.500000          0.876344E-04
