 I_abs(s)[cm^-1]/c[mg/ml]
       0.00000          0.140726E-01
      0.500000E-02      0.140186E-01
      0.100000E-01      0.138577E-01
      0.150000E-01      0.135938E-01
      0.200000E-01      0.132329E-01
      0.250000E-01      0.127835E-01
      0.300000E-01      0.122557E-01
      0.350000E-01      0.116611E-01
      0.400000E-01      0.110124E-01
      0.450000E-01      0.103232E-01
      0.500000E-01      0.960701E-02
      0.550000E-01      0.887733E-02
      0.600000E-01      0.814703E-02
      0.650000E-01      0.742802E-02
      0.700000E-01      0.673093E-02
      0.750000E-01      0.606495E-02
      0.800000E-01      0.543755E-02
      0.850000E-01      0.485450E-02
      0.900000E-01      0.431977E-02
      0.950000E-01      0.383560E-02
      0.100000          0.340263E-02
      0.105000          0.302006E-02
      0.110000          0.268579E-02
      0.115000          0.239676E-02
      0.120000          0.214908E-02
      0.125000          0.193835E-02
      0.130000          0.175987E-02
      0.135000          0.160889E-02
      0.140000          0.148076E-02
      0.145000          0.137110E-02
      0.150000          0.127598E-02
      0.155000          0.119192E-02
      0.160000          0.111603E-02
      0.165000          0.104596E-02
      0.170000          0.979930E-03
      0.175000          0.916664E-03
      0.180000          0.855357E-03
      0.185000          0.795592E-03
      0.190000          0.737263E-03
      0.195000          0.680500E-03
      0.200000          0.625589E-03
      0.205000          0.572901E-03
      0.210000          0.522834E-03
      0.215000          0.475764E-03
      0.220000          0.432007E-03
      0.225000          0.391795E-03
      0.230000          0.355262E-03
      0.235000          0.322444E-03
      0.240000          0.293283E-03
      0.245000          0.267637E-03
      0.250000          0.245300E-03
      0.255000          0.226015E-03
      0.260000          0.209496E-03
      0.265000          0.195444E-03
      0.270000          0.183564E-03
      0.275000          0.173573E-03
      0.280000          0.165211E-03
      0.285000          0.158246E-03
      0.290000          0.152478E-03
      0.295000          0.147735E-03
      0.300000          0.143872E-03
      0.305000          0.140769E-03
      0.310000          0.138322E-03
      0.315000          0.136441E-03
      0.320000          0.135043E-03
      0.325000          0.134053E-03
      0.330000          0.133395E-03
      0.335000          0.132993E-03
      0.340000          0.132770E-03
      0.345000          0.132651E-03
      0.350000          0.132559E-03
      0.355000          0.132421E-03
      0.360000          0.132168E-03
      0.365000          0.131741E-03
      0.370000          0.131088E-03
      0.375000          0.130168E-03
      0.380000          0.128955E-03
      0.385000          0.127434E-03
      0.390000          0.125605E-03
      0.395000          0.123481E-03
      0.400000          0.121086E-03
      0.405000          0.118455E-03
      0.410000          0.115631E-03
      0.415000          0.112663E-03
      0.420000          0.109604E-03
      0.425000          0.106508E-03
      0.430000          0.103428E-03
      0.435000          0.100412E-03
      0.440000          0.975072E-04
      0.445000          0.947505E-04
      0.450000          0.921735E-04
      0.455000          0.897990E-04
      0.460000          0.876417E-04
      0.465000          0.857081E-04
      0.470000          0.839967E-04
      0.475000          0.824991E-04
      0.480000          0.812008E-04
      0.485000          0.800821E-04
      0.490000          0.791196E-04
      0.495000          0.782877E-04
      0.500000          0.775592E-04
