 I_abs(s)[cm^-1]/c[mg/ml]
       0.00000          0.147436E-01
      0.500000E-02      0.146940E-01
      0.100000E-01      0.145463E-01
      0.150000E-01      0.143032E-01
      0.200000E-01      0.139695E-01
      0.250000E-01      0.135512E-01
      0.300000E-01      0.130562E-01
      0.350000E-01      0.124934E-01
      0.400000E-01      0.118727E-01
      0.450000E-01      0.112049E-01
      0.500000E-01      0.105011E-01
      0.550000E-01      0.977238E-02
      0.600000E-01      0.902998E-02
      0.650000E-01      0.828453E-02
      0.700000E-01      0.754609E-02
      0.750000E-01      0.682384E-02
      0.800000E-01      0.612598E-02
      0.850000E-01      0.545952E-02
      0.900000E-01      0.483028E-02
      0.950000E-01      0.424282E-02
      0.100000          0.370041E-02
      0.105000          0.320510E-02
      0.110000          0.275780E-02
      0.115000          0.235835E-02
      0.120000          0.200565E-02
      0.125000          0.169782E-02
      0.130000          0.143230E-02
      0.135000          0.120605E-02
      0.140000          0.101565E-02
      0.145000          0.857486E-03
      0.150000          0.727832E-03
      0.155000          0.622994E-03
      0.160000          0.539396E-03
      0.165000          0.473662E-03
      0.170000          0.422678E-03
      0.175000          0.383629E-03
      0.180000          0.354034E-03
      0.185000          0.331747E-03
      0.190000          0.314963E-03
      0.195000          0.302196E-03
      0.200000          0.292263E-03
      0.205000          0.284249E-03
      0.210000          0.277477E-03
      0.215000          0.271471E-03
      0.220000          0.265918E-03
      0.225000          0.260633E-03
      0.230000          0.255531E-03
      0.235000          0.250589E-03
      0.240000          0.245829E-03
      0.245000          0.241292E-03
      0.250000          0.237023E-03
      0.255000          0.233058E-03
      0.260000          0.229418E-03
      0.265000          0.226104E-03
      0.270000          0.223092E-03
      0.275000          0.220343E-03
      0.280000          0.217796E-03
      0.285000          0.215381E-03
      0.290000          0.213020E-03
      0.295000          0.210636E-03
      0.300000          0.208154E-03
      0.305000          0.205510E-03
      0.310000          0.202653E-03
      0.315000          0.199550E-03
      0.320000          0.196184E-03
      0.325000          0.192559E-03
      0.330000          0.188696E-03
      0.335000          0.184631E-03
      0.340000          0.180417E-03
      0.345000          0.176115E-03
      0.350000          0.171792E-03
      0.355000          0.167521E-03
      0.360000          0.163372E-03
      0.365000          0.159410E-03
      0.370000          0.155692E-03
      0.375000          0.152265E-03
      0.380000          0.149163E-03
      0.385000          0.146406E-03
      0.390000          0.144000E-03
      0.395000          0.141936E-03
      0.400000          0.140193E-03
      0.405000          0.138736E-03
      0.410000          0.137524E-03
      0.415000          0.136506E-03
      0.420000          0.135626E-03
      0.425000          0.134828E-03
      0.430000          0.134054E-03
      0.435000          0.133251E-03
      0.440000          0.132369E-03
      0.445000          0.131365E-03
      0.450000          0.130206E-03
      0.455000          0.128864E-03
      0.460000          0.127325E-03
      0.465000          0.125580E-03
      0.470000          0.123630E-03
      0.475000          0.121486E-03
      0.480000          0.119164E-03
      0.485000          0.116687E-03
      0.490000          0.114080E-03
      0.495000          0.111375E-03
      0.500000          0.108603E-03
