 I_abs(s)[cm^-1]/c[mg/ml]
       0.00000          0.145050E-01
      0.500000E-02      0.144544E-01
      0.100000E-01      0.143036E-01
      0.150000E-01      0.140560E-01
      0.200000E-01      0.137169E-01
      0.250000E-01      0.132935E-01
      0.300000E-01      0.127946E-01
      0.350000E-01      0.122305E-01
      0.400000E-01      0.116123E-01
      0.450000E-01      0.109517E-01
      0.500000E-01      0.102609E-01
      0.550000E-01      0.955177E-02
      0.600000E-01      0.883582E-02
      0.650000E-01      0.812384E-02
      0.700000E-01      0.742561E-02
      0.750000E-01      0.674972E-02
      0.800000E-01      0.610343E-02
      0.850000E-01      0.549255E-02
      0.900000E-01      0.492147E-02
      0.950000E-01      0.439314E-02
      0.100000          0.390918E-02
      0.105000          0.346997E-02
      0.110000          0.307482E-02
      0.115000          0.272212E-02
      0.120000          0.240955E-02
      0.125000          0.213425E-02
      0.130000          0.189300E-02
      0.135000          0.168237E-02
      0.140000          0.149891E-02
      0.145000          0.133923E-02
      0.150000          0.120012E-02
      0.155000          0.107863E-02
      0.160000          0.972106E-03
      0.165000          0.878235E-03
      0.170000          0.795028E-03
      0.175000          0.720822E-03
      0.180000          0.654261E-03
      0.185000          0.594255E-03
      0.190000          0.539948E-03
      0.195000          0.490675E-03
      0.200000          0.445926E-03
      0.205000          0.405308E-03
      0.210000          0.368513E-03
      0.215000          0.335291E-03
      0.220000          0.305431E-03
      0.225000          0.278739E-03
      0.230000          0.255035E-03
      0.235000          0.234140E-03
      0.240000          0.215875E-03
      0.245000          0.200058E-03
      0.250000          0.186507E-03
      0.255000          0.175041E-03
      0.260000          0.165480E-03
      0.265000          0.157649E-03
      0.270000          0.151374E-03
      0.275000          0.146492E-03
      0.280000          0.142842E-03
      0.285000          0.140270E-03
      0.290000          0.138629E-03
      0.295000          0.137773E-03
      0.300000          0.137567E-03
      0.305000          0.137875E-03
      0.310000          0.138572E-03
      0.315000          0.139534E-03
      0.320000          0.140648E-03
      0.325000          0.141809E-03
      0.330000          0.142920E-03
      0.335000          0.143897E-03
      0.340000          0.144668E-03
      0.345000          0.145176E-03
      0.350000          0.145377E-03
      0.355000          0.145243E-03
      0.360000          0.144759E-03
      0.365000          0.143923E-03
      0.370000          0.142748E-03
      0.375000          0.141256E-03
      0.380000          0.139478E-03
      0.385000          0.137451E-03
      0.390000          0.135217E-03
      0.395000          0.132821E-03
      0.400000          0.130309E-03
      0.405000          0.127722E-03
      0.410000          0.125101E-03
      0.415000          0.122482E-03
      0.420000          0.119895E-03
      0.425000          0.117364E-03
      0.430000          0.114908E-03
      0.435000          0.112540E-03
      0.440000          0.110266E-03
      0.445000          0.108087E-03
      0.450000          0.106003E-03
      0.455000          0.104006E-03
      0.460000          0.102089E-03
      0.465000          0.100241E-03
      0.470000          0.984526E-04
      0.475000          0.967124E-04
      0.480000          0.950114E-04
      0.485000          0.933415E-04
      0.490000          0.916968E-04
      0.495000          0.900737E-04
      0.500000          0.884713E-04
