 I_abs(s)[cm^-1]/c[mg/ml]
       0.00000          0.142762E-01
      0.500000E-02      0.142252E-01
      0.100000E-01      0.140735E-01
      0.150000E-01      0.138244E-01
      0.200000E-01      0.134837E-01
      0.250000E-01      0.130590E-01
      0.300000E-01      0.125596E-01
      0.350000E-01      0.119961E-01
      0.400000E-01      0.113803E-01
      0.450000E-01      0.107243E-01
      0.500000E-01      0.100408E-01
      0.550000E-01      0.934201E-02
      0.600000E-01      0.863964E-02
      0.650000E-01      0.794459E-02
      0.700000E-01      0.726660E-02
      0.750000E-01      0.661409E-02
      0.800000E-01      0.599400E-02
      0.850000E-01      0.541169E-02
      0.900000E-01      0.487100E-02
      0.950000E-01      0.437423E-02
      0.100000          0.392229E-02
      0.105000          0.351486E-02
      0.110000          0.315050E-02
      0.115000          0.282694E-02
      0.120000          0.254121E-02
      0.125000          0.228990E-02
      0.130000          0.206936E-02
      0.135000          0.187583E-02
      0.140000          0.170564E-02
      0.145000          0.155533E-02
      0.150000          0.142172E-02
      0.155000          0.130200E-02
      0.160000          0.119376E-02
      0.165000          0.109498E-02
      0.170000          0.100407E-02
      0.175000          0.919762E-03
      0.180000          0.841140E-03
      0.185000          0.767551E-03
      0.190000          0.698562E-03
      0.195000          0.633911E-03
      0.200000          0.573449E-03
      0.205000          0.517108E-03
      0.210000          0.464852E-03
      0.215000          0.416662E-03
      0.220000          0.372502E-03
      0.225000          0.332318E-03
      0.230000          0.296022E-03
      0.235000          0.263492E-03
      0.240000          0.234577E-03
      0.245000          0.209097E-03
      0.250000          0.186851E-03
      0.255000          0.167622E-03
      0.260000          0.151181E-03
      0.265000          0.137295E-03
      0.270000          0.125730E-03
      0.275000          0.116253E-03
      0.280000          0.108636E-03
      0.285000          0.102655E-03
      0.290000          0.980946E-04
      0.295000          0.947485E-04
      0.300000          0.924188E-04
      0.305000          0.909193E-04
      0.310000          0.900765E-04
      0.315000          0.897317E-04
      0.320000          0.897423E-04
      0.325000          0.899841E-04
      0.330000          0.903521E-04
      0.335000          0.907621E-04
      0.340000          0.911502E-04
      0.345000          0.914729E-04
      0.350000          0.917057E-04
      0.355000          0.918413E-04
      0.360000          0.918868E-04
      0.365000          0.918604E-04
      0.370000          0.917886E-04
      0.375000          0.917019E-04
      0.380000          0.916319E-04
      0.385000          0.916078E-04
      0.390000          0.916539E-04
      0.395000          0.917877E-04
      0.400000          0.920181E-04
      0.405000          0.923455E-04
      0.410000          0.927612E-04
      0.415000          0.932490E-04
      0.420000          0.937857E-04
      0.425000          0.943438E-04
      0.430000          0.948927E-04
      0.435000          0.954012E-04
      0.440000          0.958395E-04
      0.445000          0.961814E-04
      0.450000          0.964051E-04
      0.455000          0.964954E-04
      0.460000          0.964435E-04
      0.465000          0.962479E-04
      0.470000          0.959143E-04
      0.475000          0.954547E-04
      0.480000          0.948867E-04
      0.485000          0.942324E-04
      0.490000          0.935170E-04
      0.495000          0.927673E-04
      0.500000          0.920103E-04
