 I_abs(s)[cm^-1]/c[mg/ml]
       0.00000          0.143785E-01
      0.500000E-02      0.143327E-01
      0.100000E-01      0.141962E-01
      0.150000E-01      0.139715E-01
      0.200000E-01      0.136631E-01
      0.250000E-01      0.132767E-01
      0.300000E-01      0.128195E-01
      0.350000E-01      0.123000E-01
      0.400000E-01      0.117273E-01
      0.450000E-01      0.111114E-01
      0.500000E-01      0.104625E-01
      0.550000E-01      0.979104E-02
      0.600000E-01      0.910724E-02
      0.650000E-01      0.842086E-02
      0.700000E-01      0.774105E-02
      0.750000E-01      0.707612E-02
      0.800000E-01      0.643342E-02
      0.850000E-01      0.581916E-02
      0.900000E-01      0.523842E-02
      0.950000E-01      0.469505E-02
      0.100000          0.419176E-02
      0.105000          0.373006E-02
      0.110000          0.331047E-02
      0.115000          0.293251E-02
      0.120000          0.259489E-02
      0.125000          0.229564E-02
      0.130000          0.203225E-02
      0.135000          0.180183E-02
      0.140000          0.160122E-02
      0.145000          0.142717E-02
      0.150000          0.127642E-02
      0.155000          0.114582E-02
      0.160000          0.103241E-02
      0.165000          0.933494E-03
      0.170000          0.846642E-03
      0.175000          0.769763E-03
      0.180000          0.701085E-03
      0.185000          0.639155E-03
      0.190000          0.582816E-03
      0.195000          0.531179E-03
      0.200000          0.483588E-03
      0.205000          0.439582E-03
      0.210000          0.398850E-03
      0.215000          0.361201E-03
      0.220000          0.326519E-03
      0.225000          0.294740E-03
      0.230000          0.265821E-03
      0.235000          0.239721E-03
      0.240000          0.216388E-03
      0.245000          0.195747E-03
      0.250000          0.177698E-03
      0.255000          0.162113E-03
      0.260000          0.148842E-03
      0.265000          0.137714E-03
      0.270000          0.128543E-03
      0.275000          0.121139E-03
      0.280000          0.115307E-03
      0.285000          0.110859E-03
      0.290000          0.107615E-03
      0.295000          0.105407E-03
      0.300000          0.104082E-03
      0.305000          0.103498E-03
      0.310000          0.103531E-03
      0.315000          0.104069E-03
      0.320000          0.105011E-03
      0.325000          0.106265E-03
      0.330000          0.107748E-03
      0.335000          0.109383E-03
      0.340000          0.111097E-03
      0.345000          0.112822E-03
      0.350000          0.114492E-03
      0.355000          0.116048E-03
      0.360000          0.117434E-03
      0.365000          0.118598E-03
      0.370000          0.119500E-03
      0.375000          0.120102E-03
      0.380000          0.120379E-03
      0.385000          0.120316E-03
      0.390000          0.119906E-03
      0.395000          0.119155E-03
      0.400000          0.118078E-03
      0.405000          0.116700E-03
      0.410000          0.115054E-03
      0.415000          0.113179E-03
      0.420000          0.111120E-03
      0.425000          0.108926E-03
      0.430000          0.106646E-03
      0.435000          0.104327E-03
      0.440000          0.102015E-03
      0.445000          0.997520E-04
      0.450000          0.975733E-04
      0.455000          0.955083E-04
      0.460000          0.935794E-04
      0.465000          0.918014E-04
      0.470000          0.901816E-04
      0.475000          0.887205E-04
      0.480000          0.874121E-04
      0.485000          0.862446E-04
      0.490000          0.852017E-04
      0.495000          0.842636E-04
      0.500000          0.834078E-04
