 I_abs(s)[cm^-1]/c[mg/ml]
       0.00000          0.142998E-01
      0.500000E-02      0.142446E-01
      0.100000E-01      0.140803E-01
      0.150000E-01      0.138109E-01
      0.200000E-01      0.134428E-01
      0.250000E-01      0.129844E-01
      0.300000E-01      0.124464E-01
      0.350000E-01      0.118407E-01
      0.400000E-01      0.111804E-01
      0.450000E-01      0.104793E-01
      0.500000E-01      0.975137E-02
      0.550000E-01      0.901024E-02
      0.600000E-01      0.826895E-02
      0.650000E-01      0.753951E-02
      0.700000E-01      0.683258E-02
      0.750000E-01      0.615724E-02
      0.800000E-01      0.552088E-02
      0.850000E-01      0.492907E-02
      0.900000E-01      0.438560E-02
      0.950000E-01      0.389251E-02
      0.100000          0.345026E-02
      0.105000          0.305786E-02
      0.110000          0.271315E-02
      0.115000          0.241298E-02
      0.120000          0.215351E-02
      0.125000          0.193042E-02
      0.130000          0.173918E-02
      0.135000          0.157523E-02
      0.140000          0.143419E-02
      0.145000          0.131199E-02
      0.150000          0.120498E-02
      0.155000          0.111001E-02
      0.160000          0.102445E-02
      0.165000          0.946207E-03
      0.170000          0.873706E-03
      0.175000          0.805817E-03
      0.180000          0.741817E-03
      0.185000          0.681305E-03
      0.190000          0.624134E-03
      0.195000          0.570332E-03
      0.200000          0.520033E-03
      0.205000          0.473420E-03
      0.210000          0.430670E-03
      0.215000          0.391921E-03
      0.220000          0.357243E-03
      0.225000          0.326624E-03
      0.230000          0.299965E-03
      0.235000          0.277083E-03
      0.240000          0.257724E-03
      0.245000          0.241574E-03
      0.250000          0.228277E-03
      0.255000          0.217455E-03
      0.260000          0.208722E-03
      0.265000          0.201704E-03
      0.270000          0.196046E-03
      0.275000          0.191427E-03
      0.280000          0.187565E-03
      0.285000          0.184220E-03
      0.290000          0.181199E-03
      0.295000          0.178350E-03
      0.300000          0.175563E-03
      0.305000          0.172766E-03
      0.310000          0.169916E-03
      0.315000          0.166999E-03
      0.320000          0.164022E-03
      0.325000          0.161007E-03
      0.330000          0.157987E-03
      0.335000          0.155004E-03
      0.340000          0.152099E-03
      0.345000          0.149315E-03
      0.350000          0.146691E-03
      0.355000          0.144260E-03
      0.360000          0.142044E-03
      0.365000          0.140060E-03
      0.370000          0.138312E-03
      0.375000          0.136793E-03
      0.380000          0.135487E-03
      0.385000          0.134364E-03
      0.390000          0.133390E-03
      0.395000          0.132517E-03
      0.400000          0.131696E-03
      0.405000          0.130871E-03
      0.410000          0.129987E-03
      0.415000          0.128990E-03
      0.420000          0.127829E-03
      0.425000          0.126462E-03
      0.430000          0.124854E-03
      0.435000          0.122983E-03
      0.440000          0.120838E-03
      0.445000          0.118424E-03
      0.450000          0.115758E-03
      0.455000          0.112870E-03
      0.460000          0.109803E-03
      0.465000          0.106611E-03
      0.470000          0.103353E-03
      0.475000          0.100096E-03
      0.480000          0.969089E-04
      0.485000          0.938577E-04
      0.490000          0.910052E-04
      0.495000          0.884068E-04
      0.500000          0.861077E-04
