 I_abs(s)[cm^-1]/c[mg/ml]
       0.00000          0.147915E-01
      0.500000E-02      0.147346E-01
      0.100000E-01      0.145652E-01
      0.150000E-01      0.142871E-01
      0.200000E-01      0.139066E-01
      0.250000E-01      0.134319E-01
      0.300000E-01      0.128734E-01
      0.350000E-01      0.122428E-01
      0.400000E-01      0.115531E-01
      0.450000E-01      0.108180E-01
      0.500000E-01      0.100515E-01
      0.550000E-01      0.926740E-02
      0.600000E-01      0.847906E-02
      0.650000E-01      0.769896E-02
      0.700000E-01      0.693839E-02
      0.750000E-01      0.620724E-02
      0.800000E-01      0.551378E-02
      0.850000E-01      0.486460E-02
      0.900000E-01      0.426456E-02
      0.950000E-01      0.371682E-02
      0.100000          0.322290E-02
      0.105000          0.278287E-02
      0.110000          0.239550E-02
      0.115000          0.205844E-02
      0.120000          0.176851E-02
      0.125000          0.152185E-02
      0.130000          0.131420E-02
      0.135000          0.114108E-02
      0.140000          0.997987E-03
      0.145000          0.880531E-03
      0.150000          0.784592E-03
      0.155000          0.706397E-03
      0.160000          0.642589E-03
      0.165000          0.590261E-03
      0.170000          0.546962E-03
      0.175000          0.510684E-03
      0.180000          0.479829E-03
      0.185000          0.453163E-03
      0.190000          0.429766E-03
      0.195000          0.408972E-03
      0.200000          0.390318E-03
      0.205000          0.373490E-03
      0.210000          0.358278E-03
      0.215000          0.344537E-03
      0.220000          0.332159E-03
      0.225000          0.321049E-03
      0.230000          0.311111E-03
      0.235000          0.302242E-03
      0.240000          0.294328E-03
      0.245000          0.287249E-03
      0.250000          0.280875E-03
      0.255000          0.275083E-03
      0.260000          0.269752E-03
      0.265000          0.264774E-03
      0.270000          0.260056E-03
      0.275000          0.255520E-03
      0.280000          0.251107E-03
      0.285000          0.246774E-03
      0.290000          0.242490E-03
      0.295000          0.238239E-03
      0.300000          0.234007E-03
      0.305000          0.229789E-03
      0.310000          0.225579E-03
      0.315000          0.221369E-03
      0.320000          0.217151E-03
      0.325000          0.212911E-03
      0.330000          0.208633E-03
      0.335000          0.204302E-03
      0.340000          0.199898E-03
      0.345000          0.195405E-03
      0.350000          0.190812E-03
      0.355000          0.186110E-03
      0.360000          0.181299E-03
      0.365000          0.176387E-03
      0.370000          0.171389E-03
      0.375000          0.166329E-03
      0.380000          0.161237E-03
      0.385000          0.156149E-03
      0.390000          0.151104E-03
      0.395000          0.146146E-03
      0.400000          0.141315E-03
      0.405000          0.136649E-03
      0.410000          0.132183E-03
      0.415000          0.127945E-03
      0.420000          0.123956E-03
      0.425000          0.120230E-03
      0.430000          0.116771E-03
      0.435000          0.113579E-03
      0.440000          0.110645E-03
      0.445000          0.107954E-03
      0.450000          0.105490E-03
      0.455000          0.103231E-03
      0.460000          0.101157E-03
      0.465000          0.992483E-04
      0.470000          0.974855E-04
      0.475000          0.958538E-04
      0.480000          0.943419E-04
      0.485000          0.929423E-04
      0.490000          0.916519E-04
      0.495000          0.904710E-04
      0.500000          0.894033E-04
