 I_abs(s)[cm^-1]/c[mg/ml]
       0.00000          0.145288E-01
      0.500000E-02      0.144768E-01
      0.100000E-01      0.143222E-01
      0.150000E-01      0.140686E-01
      0.200000E-01      0.137217E-01
      0.250000E-01      0.132895E-01
      0.300000E-01      0.127814E-01
      0.350000E-01      0.122086E-01
      0.400000E-01      0.115828E-01
      0.450000E-01      0.109165E-01
      0.500000E-01      0.102224E-01
      0.550000E-01      0.951276E-02
      0.600000E-01      0.879936E-02
      0.650000E-01      0.809297E-02
      0.700000E-01      0.740318E-02
      0.750000E-01      0.673823E-02
      0.800000E-01      0.610483E-02
      0.850000E-01      0.550818E-02
      0.900000E-01      0.495197E-02
      0.950000E-01      0.443844E-02
      0.100000          0.396851E-02
      0.105000          0.354198E-02
      0.110000          0.315766E-02
      0.115000          0.281359E-02
      0.120000          0.250727E-02
      0.125000          0.223577E-02
      0.130000          0.199599E-02
      0.135000          0.178473E-02
      0.140000          0.159888E-02
      0.145000          0.143544E-02
      0.150000          0.129164E-02
      0.155000          0.116496E-02
      0.160000          0.105315E-02
      0.165000          0.954228E-03
      0.170000          0.866461E-03
      0.175000          0.788358E-03
      0.180000          0.718632E-03
      0.185000          0.656178E-03
      0.190000          0.600045E-03
      0.195000          0.549410E-03
      0.200000          0.503564E-03
      0.205000          0.461893E-03
      0.210000          0.423871E-03
      0.215000          0.389047E-03
      0.220000          0.357045E-03
      0.225000          0.327555E-03
      0.230000          0.300331E-03
      0.235000          0.275185E-03
      0.240000          0.251982E-03
      0.245000          0.230631E-03
      0.250000          0.211076E-03
      0.255000          0.193288E-03
      0.260000          0.177253E-03
      0.265000          0.162964E-03
      0.270000          0.150409E-03
      0.275000          0.139568E-03
      0.280000          0.130401E-03
      0.285000          0.122849E-03
      0.290000          0.116831E-03
      0.295000          0.112243E-03
      0.300000          0.108962E-03
      0.305000          0.106849E-03
      0.310000          0.105753E-03
      0.315000          0.105520E-03
      0.320000          0.105991E-03
      0.325000          0.107015E-03
      0.330000          0.108449E-03
      0.335000          0.110160E-03
      0.340000          0.112031E-03
      0.345000          0.113959E-03
      0.350000          0.115859E-03
      0.355000          0.117660E-03
      0.360000          0.119303E-03
      0.365000          0.120744E-03
      0.370000          0.121947E-03
      0.375000          0.122888E-03
      0.380000          0.123547E-03
      0.385000          0.123911E-03
      0.390000          0.123972E-03
      0.395000          0.123726E-03
      0.400000          0.123172E-03
      0.405000          0.122315E-03
      0.410000          0.121162E-03
      0.415000          0.119726E-03
      0.420000          0.118022E-03
      0.425000          0.116073E-03
      0.430000          0.113903E-03
      0.435000          0.111542E-03
      0.440000          0.109023E-03
      0.445000          0.106382E-03
      0.450000          0.103657E-03
      0.455000          0.100885E-03
      0.460000          0.981049E-04
      0.465000          0.953524E-04
      0.470000          0.926610E-04
      0.475000          0.900609E-04
      0.480000          0.875774E-04
      0.485000          0.852312E-04
      0.490000          0.830377E-04
      0.495000          0.810072E-04
      0.500000          0.791449E-04
