 I_abs(s)[cm^-1]/c[mg/ml]
       0.00000          0.142526E-01
      0.500000E-02      0.142019E-01
      0.100000E-01      0.140507E-01
      0.150000E-01      0.138026E-01
      0.200000E-01      0.134628E-01
      0.250000E-01      0.130388E-01
      0.300000E-01      0.125396E-01
      0.350000E-01      0.119757E-01
      0.400000E-01      0.113583E-01
      0.450000E-01      0.106996E-01
      0.500000E-01      0.100118E-01
      0.550000E-01      0.930720E-02
      0.600000E-01      0.859744E-02
      0.650000E-01      0.789356E-02
      0.700000E-01      0.720551E-02
      0.750000E-01      0.654201E-02
      0.800000E-01      0.591036E-02
      0.850000E-01      0.531641E-02
      0.900000E-01      0.476447E-02
      0.950000E-01      0.425736E-02
      0.100000          0.379647E-02
      0.105000          0.338192E-02
      0.110000          0.301266E-02
      0.115000          0.268668E-02
      0.120000          0.240123E-02
      0.125000          0.215294E-02
      0.130000          0.193810E-02
      0.135000          0.175280E-02
      0.140000          0.159308E-02
      0.145000          0.145512E-02
      0.150000          0.133530E-02
      0.155000          0.123034E-02
      0.160000          0.113733E-02
      0.165000          0.105375E-02
      0.170000          0.977536E-03
      0.175000          0.907019E-03
      0.180000          0.840926E-03
      0.185000          0.778333E-03
      0.190000          0.718625E-03
      0.195000          0.661439E-03
      0.200000          0.606616E-03
      0.205000          0.554151E-03
      0.210000          0.504139E-03
      0.215000          0.456742E-03
      0.220000          0.412144E-03
      0.225000          0.370531E-03
      0.230000          0.332061E-03
      0.235000          0.296852E-03
      0.240000          0.264974E-03
      0.245000          0.236438E-03
      0.250000          0.211204E-03
      0.255000          0.189177E-03
      0.260000          0.170215E-03
      0.265000          0.154137E-03
      0.270000          0.140731E-03
      0.275000          0.129759E-03
      0.280000          0.120970E-03
      0.285000          0.114106E-03
      0.290000          0.108907E-03
      0.295000          0.105122E-03
      0.300000          0.102511E-03
      0.305000          0.100848E-03
      0.310000          0.999303E-04
      0.315000          0.995747E-04
      0.320000          0.996227E-04
      0.325000          0.999398E-04
      0.330000          0.100416E-03
      0.335000          0.100964E-03
      0.340000          0.101519E-03
      0.345000          0.102035E-03
      0.350000          0.102485E-03
      0.355000          0.102856E-03
      0.360000          0.103146E-03
      0.365000          0.103363E-03
      0.370000          0.103519E-03
      0.375000          0.103633E-03
      0.380000          0.103719E-03
      0.385000          0.103794E-03
      0.390000          0.103869E-03
      0.395000          0.103952E-03
      0.400000          0.104043E-03
      0.405000          0.104138E-03
      0.410000          0.104227E-03
      0.415000          0.104293E-03
      0.420000          0.104318E-03
      0.425000          0.104278E-03
      0.430000          0.104148E-03
      0.435000          0.103904E-03
      0.440000          0.103522E-03
      0.445000          0.102982E-03
      0.450000          0.102267E-03
      0.455000          0.101367E-03
      0.460000          0.100275E-03
      0.465000          0.989944E-04
      0.470000          0.975322E-04
      0.475000          0.959032E-04
      0.480000          0.941276E-04
      0.485000          0.922311E-04
      0.490000          0.902429E-04
      0.495000          0.881955E-04
      0.500000          0.861226E-04
