 I_abs(s)[cm^-1]/c[mg/ml]
       0.00000          0.144259E-01
      0.500000E-02      0.143843E-01
      0.100000E-01      0.142602E-01
      0.150000E-01      0.140557E-01
      0.200000E-01      0.137740E-01
      0.250000E-01      0.134198E-01
      0.300000E-01      0.129987E-01
      0.350000E-01      0.125173E-01
      0.400000E-01      0.119831E-01
      0.450000E-01      0.114041E-01
      0.500000E-01      0.107889E-01
      0.550000E-01      0.101462E-01
      0.600000E-01      0.948485E-02
      0.650000E-01      0.881357E-02
      0.700000E-01      0.814071E-02
      0.750000E-01      0.747419E-02
      0.800000E-01      0.682131E-02
      0.850000E-01      0.618863E-02
      0.900000E-01      0.558190E-02
      0.950000E-01      0.500595E-02
      0.100000          0.446468E-02
      0.105000          0.396104E-02
      0.110000          0.349704E-02
      0.115000          0.307378E-02
      0.120000          0.269149E-02
      0.125000          0.234965E-02
      0.130000          0.204703E-02
      0.135000          0.178184E-02
      0.140000          0.155176E-02
      0.145000          0.135414E-02
      0.150000          0.118603E-02
      0.155000          0.104434E-02
      0.160000          0.925917E-03
      0.165000          0.827617E-03
      0.170000          0.746416E-03
      0.175000          0.679454E-03
      0.180000          0.624094E-03
      0.185000          0.577961E-03
      0.190000          0.538965E-03
      0.195000          0.505316E-03
      0.200000          0.475526E-03
      0.205000          0.448398E-03
      0.210000          0.423012E-03
      0.215000          0.398699E-03
      0.220000          0.375011E-03
      0.225000          0.351693E-03
      0.230000          0.328645E-03
      0.235000          0.305890E-03
      0.240000          0.283541E-03
      0.245000          0.261771E-03
      0.250000          0.240785E-03
      0.255000          0.220796E-03
      0.260000          0.202010E-03
      0.265000          0.184605E-03
      0.270000          0.168724E-03
      0.275000          0.154469E-03
      0.280000          0.141894E-03
      0.285000          0.131012E-03
      0.290000          0.121788E-03
      0.295000          0.114153E-03
      0.300000          0.108004E-03
      0.305000          0.103214E-03
      0.310000          0.996388E-04
      0.315000          0.971216E-04
      0.320000          0.955033E-04
      0.325000          0.946265E-04
      0.330000          0.943409E-04
      0.335000          0.945074E-04
      0.340000          0.950011E-04
      0.345000          0.957129E-04
      0.350000          0.965504E-04
      0.355000          0.974383E-04
      0.360000          0.983171E-04
      0.365000          0.991426E-04
      0.370000          0.998835E-04
      0.375000          0.100520E-03
      0.380000          0.101041E-03
      0.385000          0.101444E-03
      0.390000          0.101731E-03
      0.395000          0.101908E-03
      0.400000          0.101983E-03
      0.405000          0.101966E-03
      0.410000          0.101866E-03
      0.415000          0.101692E-03
      0.420000          0.101454E-03
      0.425000          0.101158E-03
      0.430000          0.100810E-03
      0.435000          0.100415E-03
      0.440000          0.999767E-04
      0.445000          0.994971E-04
      0.450000          0.989781E-04
      0.455000          0.984204E-04
      0.460000          0.978242E-04
      0.465000          0.971894E-04
      0.470000          0.965150E-04
      0.475000          0.957999E-04
      0.480000          0.950426E-04
      0.485000          0.942412E-04
      0.490000          0.933936E-04
      0.495000          0.924977E-04
      0.500000          0.915512E-04
