 I_abs(s)[cm^-1]/c[mg/ml]
       0.00000          0.138551E-01
      0.500000E-02      0.138036E-01
      0.100000E-01      0.136506E-01
      0.150000E-01      0.133995E-01
      0.200000E-01      0.130562E-01
      0.250000E-01      0.126285E-01
      0.300000E-01      0.121261E-01
      0.350000E-01      0.115601E-01
      0.400000E-01      0.109424E-01
      0.450000E-01      0.102857E-01
      0.500000E-01      0.960283E-02
      0.550000E-01      0.890651E-02
      0.600000E-01      0.820875E-02
      0.650000E-01      0.752070E-02
      0.700000E-01      0.685227E-02
      0.750000E-01      0.621197E-02
      0.800000E-01      0.560675E-02
      0.850000E-01      0.504189E-02
      0.900000E-01      0.452104E-02
      0.950000E-01      0.404624E-02
      0.100000          0.361804E-02
      0.105000          0.323570E-02
      0.110000          0.289734E-02
      0.115000          0.260017E-02
      0.120000          0.234075E-02
      0.125000          0.211520E-02
      0.130000          0.191942E-02
      0.135000          0.174928E-02
      0.140000          0.160080E-02
      0.145000          0.147032E-02
      0.150000          0.135452E-02
      0.155000          0.125058E-02
      0.160000          0.115615E-02
      0.165000          0.106935E-02
      0.170000          0.988793E-03
      0.175000          0.913485E-03
      0.180000          0.842789E-03
      0.185000          0.776347E-03
      0.190000          0.714012E-03
      0.195000          0.655766E-03
      0.200000          0.601665E-03
      0.205000          0.551777E-03
      0.210000          0.506141E-03
      0.215000          0.464736E-03
      0.220000          0.427462E-03
      0.225000          0.394138E-03
      0.230000          0.364502E-03
      0.235000          0.338225E-03
      0.240000          0.314934E-03
      0.245000          0.294226E-03
      0.250000          0.275700E-03
      0.255000          0.258970E-03
      0.260000          0.243690E-03
      0.265000          0.229563E-03
      0.270000          0.216356E-03
      0.275000          0.203900E-03
      0.280000          0.192090E-03
      0.285000          0.180881E-03
      0.290000          0.170276E-03
      0.295000          0.160318E-03
      0.300000          0.151074E-03
      0.305000          0.142623E-03
      0.310000          0.135042E-03
      0.315000          0.128399E-03
      0.320000          0.122737E-03
      0.325000          0.118075E-03
      0.330000          0.114398E-03
      0.335000          0.111665E-03
      0.340000          0.109799E-03
      0.345000          0.108703E-03
      0.350000          0.108258E-03
      0.355000          0.108332E-03
      0.360000          0.108786E-03
      0.365000          0.109484E-03
      0.370000          0.110295E-03
      0.375000          0.111102E-03
      0.380000          0.111804E-03
      0.385000          0.112321E-03
      0.390000          0.112592E-03
      0.395000          0.112578E-03
      0.400000          0.112260E-03
      0.405000          0.111636E-03
      0.410000          0.110719E-03
      0.415000          0.109534E-03
      0.420000          0.108113E-03
      0.425000          0.106492E-03
      0.430000          0.104711E-03
      0.435000          0.102805E-03
      0.440000          0.100810E-03
      0.445000          0.987541E-04
      0.450000          0.966618E-04
      0.455000          0.945514E-04
      0.460000          0.924363E-04
      0.465000          0.903252E-04
      0.470000          0.882233E-04
      0.475000          0.861334E-04
      0.480000          0.840570E-04
      0.485000          0.819956E-04
      0.490000          0.799510E-04
      0.495000          0.779268E-04
      0.500000          0.759280E-04
