 I_abs(s)[cm^-1]/c[mg/ml]
       0.00000          0.140883E-01
      0.500000E-02      0.140347E-01
      0.100000E-01      0.138754E-01
      0.150000E-01      0.136143E-01
      0.200000E-01      0.132579E-01
      0.250000E-01      0.128151E-01
      0.300000E-01      0.122963E-01
      0.350000E-01      0.117137E-01
      0.400000E-01      0.110804E-01
      0.450000E-01      0.104099E-01
      0.500000E-01      0.971585E-02
      0.550000E-01      0.901154E-02
      0.600000E-01      0.830931E-02
      0.650000E-01      0.762033E-02
      0.700000E-01      0.695432E-02
      0.750000E-01      0.631930E-02
      0.800000E-01      0.572155E-02
      0.850000E-01      0.516553E-02
      0.900000E-01      0.465395E-02
      0.950000E-01      0.418792E-02
      0.100000          0.376711E-02
      0.105000          0.338997E-02
      0.110000          0.305400E-02
      0.115000          0.275601E-02
      0.120000          0.249233E-02
      0.125000          0.225912E-02
      0.130000          0.205253E-02
      0.135000          0.186887E-02
      0.140000          0.170479E-02
      0.145000          0.155731E-02
      0.150000          0.142391E-02
      0.155000          0.130252E-02
      0.160000          0.119154E-02
      0.165000          0.108972E-02
      0.170000          0.996195E-03
      0.175000          0.910327E-03
      0.180000          0.831683E-03
      0.185000          0.759947E-03
      0.190000          0.694856E-03
      0.195000          0.636155E-03
      0.200000          0.583553E-03
      0.205000          0.536704E-03
      0.210000          0.495197E-03
      0.215000          0.458560E-03
      0.220000          0.426268E-03
      0.225000          0.397767E-03
      0.230000          0.372493E-03
      0.235000          0.349900E-03
      0.240000          0.329477E-03
      0.245000          0.310774E-03
      0.250000          0.293408E-03
      0.255000          0.277076E-03
      0.260000          0.261557E-03
      0.265000          0.246708E-03
      0.270000          0.232453E-03
      0.275000          0.218776E-03
      0.280000          0.205707E-03
      0.285000          0.193304E-03
      0.290000          0.181638E-03
      0.295000          0.170784E-03
      0.300000          0.160807E-03
      0.305000          0.151754E-03
      0.310000          0.143649E-03
      0.315000          0.136488E-03
      0.320000          0.130245E-03
      0.325000          0.124866E-03
      0.330000          0.120282E-03
      0.335000          0.116407E-03
      0.340000          0.113150E-03
      0.345000          0.110416E-03
      0.350000          0.108113E-03
      0.355000          0.106158E-03
      0.360000          0.104478E-03
      0.365000          0.103014E-03
      0.370000          0.101720E-03
      0.375000          0.100562E-03
      0.380000          0.995222E-04
      0.385000          0.985894E-04
      0.390000          0.977617E-04
      0.395000          0.970418E-04
      0.400000          0.964347E-04
      0.405000          0.959453E-04
      0.410000          0.955762E-04
      0.415000          0.953260E-04
      0.420000          0.951887E-04
      0.425000          0.951529E-04
      0.430000          0.952019E-04
      0.435000          0.953145E-04
      0.440000          0.954658E-04
      0.445000          0.956282E-04
      0.450000          0.957731E-04
      0.455000          0.958721E-04
      0.460000          0.958986E-04
      0.465000          0.958284E-04
      0.470000          0.956416E-04
      0.475000          0.953226E-04
      0.480000          0.948614E-04
      0.485000          0.942531E-04
      0.490000          0.934986E-04
      0.495000          0.926042E-04
      0.500000          0.915811E-04
