 I_abs(s)[cm^-1]/c[mg/ml]
       0.00000          0.141742E-01
      0.500000E-02      0.141238E-01
      0.100000E-01      0.139736E-01
      0.150000E-01      0.137271E-01
      0.200000E-01      0.133894E-01
      0.250000E-01      0.129680E-01
      0.300000E-01      0.124718E-01
      0.350000E-01      0.119109E-01
      0.400000E-01      0.112966E-01
      0.450000E-01      0.106409E-01
      0.500000E-01      0.995569E-02
      0.550000E-01      0.925312E-02
      0.600000E-01      0.854472E-02
      0.650000E-01      0.784129E-02
      0.700000E-01      0.715263E-02
      0.750000E-01      0.648734E-02
      0.800000E-01      0.585263E-02
      0.850000E-01      0.525431E-02
      0.900000E-01      0.469669E-02
      0.950000E-01      0.418265E-02
      0.100000          0.371371E-02
      0.105000          0.329015E-02
      0.110000          0.291115E-02
      0.115000          0.257500E-02
      0.120000          0.227921E-02
      0.125000          0.202079E-02
      0.130000          0.179635E-02
      0.135000          0.160232E-02
      0.140000          0.143509E-02
      0.145000          0.129111E-02
      0.150000          0.116704E-02
      0.155000          0.105978E-02
      0.160000          0.966574E-03
      0.165000          0.884983E-03
      0.170000          0.812940E-03
      0.175000          0.748721E-03
      0.180000          0.690932E-03
      0.185000          0.638473E-03
      0.190000          0.590507E-03
      0.195000          0.546415E-03
      0.200000          0.505759E-03
      0.205000          0.468237E-03
      0.210000          0.433657E-03
      0.215000          0.401894E-03
      0.220000          0.372870E-03
      0.225000          0.346528E-03
      0.230000          0.322818E-03
      0.235000          0.301680E-03
      0.240000          0.283036E-03
      0.245000          0.266785E-03
      0.250000          0.252799E-03
      0.255000          0.240925E-03
      0.260000          0.230982E-03
      0.265000          0.222768E-03
      0.270000          0.216064E-03
      0.275000          0.210635E-03
      0.280000          0.206243E-03
      0.285000          0.202648E-03
      0.290000          0.199617E-03
      0.295000          0.196928E-03
      0.300000          0.194380E-03
      0.305000          0.191796E-03
      0.310000          0.189027E-03
      0.315000          0.185957E-03
      0.320000          0.182502E-03
      0.325000          0.178614E-03
      0.330000          0.174280E-03
      0.335000          0.169516E-03
      0.340000          0.164366E-03
      0.345000          0.158896E-03
      0.350000          0.153192E-03
      0.355000          0.147348E-03
      0.360000          0.141466E-03
      0.365000          0.135644E-03
      0.370000          0.129977E-03
      0.375000          0.124547E-03
      0.380000          0.119425E-03
      0.385000          0.114664E-03
      0.390000          0.110298E-03
      0.395000          0.106347E-03
      0.400000          0.102812E-03
      0.405000          0.996831E-04
      0.410000          0.969363E-04
      0.415000          0.945405E-04
      0.420000          0.924593E-04
      0.425000          0.906546E-04
      0.430000          0.890890E-04
      0.435000          0.877286E-04
      0.440000          0.865444E-04
      0.445000          0.855133E-04
      0.450000          0.846186E-04
      0.455000          0.838499E-04
      0.460000          0.832016E-04
      0.465000          0.826723E-04
      0.470000          0.822630E-04
      0.475000          0.819750E-04
      0.480000          0.818089E-04
      0.485000          0.817627E-04
      0.490000          0.818308E-04
      0.495000          0.820030E-04
      0.500000          0.822642E-04
