 I_abs(s)[cm^-1]/c[mg/ml]
       0.00000          0.148235E-01
      0.500000E-02      0.147854E-01
      0.100000E-01      0.146715E-01
      0.150000E-01      0.144836E-01
      0.200000E-01      0.142243E-01
      0.250000E-01      0.138974E-01
      0.300000E-01      0.135076E-01
      0.350000E-01      0.130604E-01
      0.400000E-01      0.125618E-01
      0.450000E-01      0.120187E-01
      0.500000E-01      0.114383E-01
      0.550000E-01      0.108279E-01
      0.600000E-01      0.101952E-01
      0.650000E-01      0.954769E-02
      0.700000E-01      0.889276E-02
      0.750000E-01      0.823751E-02
      0.800000E-01      0.758862E-02
      0.850000E-01      0.695226E-02
      0.900000E-01      0.633399E-02
      0.950000E-01      0.573870E-02
      0.100000          0.517058E-02
      0.105000          0.463305E-02
      0.110000          0.412877E-02
      0.115000          0.365968E-02
      0.120000          0.322698E-02
      0.125000          0.283118E-02
      0.130000          0.247217E-02
      0.135000          0.214927E-02
      0.140000          0.186132E-02
      0.145000          0.160672E-02
      0.150000          0.138354E-02
      0.155000          0.118959E-02
      0.160000          0.102250E-02
      0.165000          0.879784E-03
      0.170000          0.758913E-03
      0.175000          0.657382E-03
      0.180000          0.572752E-03
      0.185000          0.502702E-03
      0.190000          0.445060E-03
      0.195000          0.397832E-03
      0.200000          0.359218E-03
      0.205000          0.327623E-03
      0.210000          0.301659E-03
      0.215000          0.280142E-03
      0.220000          0.262085E-03
      0.225000          0.246680E-03
      0.230000          0.233286E-03
      0.235000          0.221410E-03
      0.240000          0.210682E-03
      0.245000          0.200844E-03
      0.250000          0.191720E-03
      0.255000          0.183207E-03
      0.260000          0.175251E-03
      0.265000          0.167832E-03
      0.270000          0.160956E-03
      0.275000          0.154639E-03
      0.280000          0.148901E-03
      0.285000          0.143758E-03
      0.290000          0.139217E-03
      0.295000          0.135276E-03
      0.300000          0.131919E-03
      0.305000          0.129121E-03
      0.310000          0.126844E-03
      0.315000          0.125039E-03
      0.320000          0.123652E-03
      0.325000          0.122624E-03
      0.330000          0.121893E-03
      0.335000          0.121397E-03
      0.340000          0.121074E-03
      0.345000          0.120870E-03
      0.350000          0.120731E-03
      0.355000          0.120611E-03
      0.360000          0.120472E-03
      0.365000          0.120280E-03
      0.370000          0.120009E-03
      0.375000          0.119640E-03
      0.380000          0.119160E-03
      0.385000          0.118559E-03
      0.390000          0.117834E-03
      0.395000          0.116985E-03
      0.400000          0.116015E-03
      0.405000          0.114929E-03
      0.410000          0.113734E-03
      0.415000          0.112439E-03
      0.420000          0.111053E-03
      0.425000          0.109585E-03
      0.430000          0.108046E-03
      0.435000          0.106444E-03
      0.440000          0.104792E-03
      0.445000          0.103098E-03
      0.450000          0.101372E-03
      0.455000          0.996261E-04
      0.460000          0.978691E-04
      0.465000          0.961116E-04
      0.470000          0.943641E-04
      0.475000          0.926368E-04
      0.480000          0.909399E-04
      0.485000          0.892831E-04
      0.490000          0.876760E-04
      0.495000          0.861272E-04
      0.500000          0.846444E-04
