 I_abs(s)[cm^-1]/c[mg/ml]
       0.00000          0.143313E-01
      0.500000E-02      0.142795E-01
      0.100000E-01      0.141253E-01
      0.150000E-01      0.138723E-01
      0.200000E-01      0.135264E-01
      0.250000E-01      0.130953E-01
      0.300000E-01      0.125887E-01
      0.350000E-01      0.120175E-01
      0.400000E-01      0.113937E-01
      0.450000E-01      0.107299E-01
      0.500000E-01      0.100388E-01
      0.550000E-01      0.933291E-02
      0.600000E-01      0.862424E-02
      0.650000E-01      0.792376E-02
      0.700000E-01      0.724132E-02
      0.750000E-01      0.658532E-02
      0.800000E-01      0.596266E-02
      0.850000E-01      0.537862E-02
      0.900000E-01      0.483689E-02
      0.950000E-01      0.433959E-02
      0.100000          0.388746E-02
      0.105000          0.347995E-02
      0.110000          0.311545E-02
      0.115000          0.279149E-02
      0.120000          0.250499E-02
      0.125000          0.225242E-02
      0.130000          0.203006E-02
      0.135000          0.183417E-02
      0.140000          0.166109E-02
      0.145000          0.150746E-02
      0.150000          0.137024E-02
      0.155000          0.124678E-02
      0.160000          0.113485E-02
      0.165000          0.103267E-02
      0.170000          0.938824E-03
      0.175000          0.852281E-03
      0.180000          0.772306E-03
      0.185000          0.698408E-03
      0.190000          0.630281E-03
      0.195000          0.567744E-03
      0.200000          0.510684E-03
      0.205000          0.459013E-03
      0.210000          0.412631E-03
      0.215000          0.371399E-03
      0.220000          0.335123E-03
      0.225000          0.303550E-03
      0.230000          0.276364E-03
      0.235000          0.253200E-03
      0.240000          0.233652E-03
      0.245000          0.217287E-03
      0.250000          0.203665E-03
      0.255000          0.192351E-03
      0.260000          0.182932E-03
      0.265000          0.175025E-03
      0.270000          0.168291E-03
      0.275000          0.162436E-03
      0.280000          0.157217E-03
      0.285000          0.152441E-03
      0.290000          0.147962E-03
      0.295000          0.143676E-03
      0.300000          0.139520E-03
      0.305000          0.135459E-03
      0.310000          0.131484E-03
      0.315000          0.127604E-03
      0.320000          0.123839E-03
      0.325000          0.120216E-03
      0.330000          0.116765E-03
      0.335000          0.113512E-03
      0.340000          0.110481E-03
      0.345000          0.107688E-03
      0.350000          0.105144E-03
      0.355000          0.102851E-03
      0.360000          0.100804E-03
      0.365000          0.989915E-04
      0.370000          0.973977E-04
      0.375000          0.960012E-04
      0.380000          0.947773E-04
      0.385000          0.936996E-04
      0.390000          0.927409E-04
      0.395000          0.918741E-04
      0.400000          0.910736E-04
      0.405000          0.903160E-04
      0.410000          0.895810E-04
      0.415000          0.888518E-04
      0.420000          0.881156E-04
      0.425000          0.873640E-04
      0.430000          0.865928E-04
      0.435000          0.858021E-04
      0.440000          0.849960E-04
      0.445000          0.841817E-04
      0.450000          0.833695E-04
      0.455000          0.825718E-04
      0.460000          0.818022E-04
      0.465000          0.810746E-04
      0.470000          0.804027E-04
      0.475000          0.797986E-04
      0.480000          0.792725E-04
      0.485000          0.788316E-04
      0.490000          0.784802E-04
      0.495000          0.782186E-04
      0.500000          0.780438E-04
