 I_abs(s)[cm^-1]/c[mg/ml]
       0.00000          0.139403E-01
      0.500000E-02      0.138746E-01
      0.100000E-01      0.136794E-01
      0.150000E-01      0.133609E-01
      0.200000E-01      0.129290E-01
      0.250000E-01      0.123968E-01
      0.300000E-01      0.117800E-01
      0.350000E-01      0.110963E-01
      0.400000E-01      0.103644E-01
      0.450000E-01      0.960322E-02
      0.500000E-01      0.883122E-02
      0.550000E-01      0.806549E-02
      0.600000E-01      0.732126E-02
      0.650000E-01      0.661142E-02
      0.700000E-01      0.594616E-02
      0.750000E-01      0.533286E-02
      0.800000E-01      0.477606E-02
      0.850000E-01      0.427766E-02
      0.900000E-01      0.383716E-02
      0.950000E-01      0.345206E-02
      0.100000          0.311825E-02
      0.105000          0.283052E-02
      0.110000          0.258299E-02
      0.115000          0.236953E-02
      0.120000          0.218414E-02
      0.125000          0.202127E-02
      0.130000          0.187599E-02
      0.135000          0.174417E-02
      0.140000          0.162254E-02
      0.145000          0.150864E-02
      0.150000          0.140079E-02
      0.155000          0.129795E-02
      0.160000          0.119965E-02
      0.165000          0.110574E-02
      0.170000          0.101636E-02
      0.175000          0.931743E-03
      0.180000          0.852151E-03
      0.185000          0.777784E-03
      0.190000          0.708743E-03
      0.195000          0.645005E-03
      0.200000          0.586427E-03
      0.205000          0.532769E-03
      0.210000          0.483719E-03
      0.215000          0.438933E-03
      0.220000          0.398061E-03
      0.225000          0.360786E-03
      0.230000          0.326835E-03
      0.235000          0.295993E-03
      0.240000          0.268104E-03
      0.245000          0.243066E-03
      0.250000          0.220809E-03
      0.255000          0.201287E-03
      0.260000          0.184450E-03
      0.265000          0.170231E-03
      0.270000          0.158528E-03
      0.275000          0.149200E-03
      0.280000          0.142056E-03
      0.285000          0.136862E-03
      0.290000          0.133346E-03
      0.295000          0.131210E-03
      0.300000          0.130142E-03
      0.305000          0.129835E-03
      0.310000          0.129997E-03
      0.315000          0.130366E-03
      0.320000          0.130722E-03
      0.325000          0.130889E-03
      0.330000          0.130742E-03
      0.335000          0.130208E-03
      0.340000          0.129256E-03
      0.345000          0.127897E-03
      0.350000          0.126174E-03
      0.355000          0.124153E-03
      0.360000          0.121914E-03
      0.365000          0.119545E-03
      0.370000          0.117132E-03
      0.375000          0.114752E-03
      0.380000          0.112474E-03
      0.385000          0.110351E-03
      0.390000          0.108421E-03
      0.395000          0.106707E-03
      0.400000          0.105215E-03
      0.405000          0.103942E-03
      0.410000          0.102869E-03
      0.415000          0.101971E-03
      0.420000          0.101215E-03
      0.425000          0.100564E-03
      0.430000          0.999769E-04
      0.435000          0.994133E-04
      0.440000          0.988335E-04
      0.445000          0.982005E-04
      0.450000          0.974813E-04
      0.455000          0.966482E-04
      0.460000          0.956800E-04
      0.465000          0.945626E-04
      0.470000          0.932895E-04
      0.475000          0.918622E-04
      0.480000          0.902901E-04
      0.485000          0.885893E-04
      0.490000          0.867826E-04
      0.495000          0.848976E-04
      0.500000          0.829656E-04
