 I_abs(s)[cm^-1]/c[mg/ml]
       0.00000          0.141195E-01
      0.500000E-02      0.140645E-01
      0.100000E-01      0.139009E-01
      0.150000E-01      0.136329E-01
      0.200000E-01      0.132671E-01
      0.250000E-01      0.128126E-01
      0.300000E-01      0.122803E-01
      0.350000E-01      0.116827E-01
      0.400000E-01      0.110332E-01
      0.450000E-01      0.103461E-01
      0.500000E-01      0.963548E-02
      0.550000E-01      0.891501E-02
      0.600000E-01      0.819760E-02
      0.650000E-01      0.749492E-02
      0.700000E-01      0.681709E-02
      0.750000E-01      0.617252E-02
      0.800000E-01      0.556774E-02
      0.850000E-01      0.500741E-02
      0.900000E-01      0.449433E-02
      0.950000E-01      0.402958E-02
      0.100000          0.361270E-02
      0.105000          0.324191E-02
      0.110000          0.291440E-02
      0.115000          0.262659E-02
      0.120000          0.237440E-02
      0.125000          0.215350E-02
      0.130000          0.195959E-02
      0.135000          0.178853E-02
      0.140000          0.163655E-02
      0.145000          0.150031E-02
      0.150000          0.137703E-02
      0.155000          0.126441E-02
      0.160000          0.116073E-02
      0.165000          0.106472E-02
      0.170000          0.975508E-03
      0.175000          0.892577E-03
      0.180000          0.815638E-03
      0.185000          0.744556E-03
      0.190000          0.679275E-03
      0.195000          0.619748E-03
      0.200000          0.565885E-03
      0.205000          0.517521E-03
      0.210000          0.474397E-03
      0.215000          0.436160E-03
      0.220000          0.402369E-03
      0.225000          0.372520E-03
      0.230000          0.346072E-03
      0.235000          0.322477E-03
      0.240000          0.301209E-03
      0.245000          0.281793E-03
      0.250000          0.263822E-03
      0.255000          0.246976E-03
      0.260000          0.231025E-03
      0.265000          0.215831E-03
      0.270000          0.201342E-03
      0.275000          0.187573E-03
      0.280000          0.174597E-03
      0.285000          0.162521E-03
      0.290000          0.151469E-03
      0.295000          0.141560E-03
      0.300000          0.132895E-03
      0.305000          0.125543E-03
      0.310000          0.119534E-03
      0.315000          0.114850E-03
      0.320000          0.111429E-03
      0.325000          0.109166E-03
      0.330000          0.107921E-03
      0.335000          0.107527E-03
      0.340000          0.107799E-03
      0.345000          0.108547E-03
      0.350000          0.109584E-03
      0.355000          0.110734E-03
      0.360000          0.111845E-03
      0.365000          0.112788E-03
      0.370000          0.113463E-03
      0.375000          0.113801E-03
      0.380000          0.113764E-03
      0.385000          0.113339E-03
      0.390000          0.112540E-03
      0.395000          0.111398E-03
      0.400000          0.109961E-03
      0.405000          0.108284E-03
      0.410000          0.106429E-03
      0.415000          0.104460E-03
      0.420000          0.102435E-03
      0.425000          0.100408E-03
      0.430000          0.984259E-04
      0.435000          0.965263E-04
      0.440000          0.947373E-04
      0.445000          0.930778E-04
      0.450000          0.915580E-04
      0.455000          0.901806E-04
      0.460000          0.889415E-04
      0.465000          0.878312E-04
      0.470000          0.868364E-04
      0.475000          0.859408E-04
      0.480000          0.851266E-04
      0.485000          0.843755E-04
      0.490000          0.836694E-04
      0.495000          0.829912E-04
      0.500000          0.823255E-04
