 I_abs(s)[cm^-1]/c[mg/ml]
       0.00000          0.141508E-01
      0.500000E-02      0.141010E-01
      0.100000E-01      0.139527E-01
      0.150000E-01      0.137093E-01
      0.200000E-01      0.133761E-01
      0.250000E-01      0.129606E-01
      0.300000E-01      0.124715E-01
      0.350000E-01      0.119192E-01
      0.400000E-01      0.113148E-01
      0.450000E-01      0.106703E-01
      0.500000E-01      0.999762E-02
      0.550000E-01      0.930865E-02
      0.600000E-01      0.861477E-02
      0.650000E-01      0.792659E-02
      0.700000E-01      0.725364E-02
      0.750000E-01      0.660418E-02
      0.800000E-01      0.598511E-02
      0.850000E-01      0.540183E-02
      0.900000E-01      0.485830E-02
      0.950000E-01      0.435700E-02
      0.100000          0.389910E-02
      0.105000          0.348454E-02
      0.110000          0.311222E-02
      0.115000          0.278018E-02
      0.120000          0.248582E-02
      0.125000          0.222602E-02
      0.130000          0.199743E-02
      0.135000          0.179657E-02
      0.140000          0.161997E-02
      0.145000          0.146435E-02
      0.150000          0.132667E-02
      0.155000          0.120420E-02
      0.160000          0.109458E-02
      0.165000          0.995813E-03
      0.170000          0.906250E-03
      0.175000          0.824596E-03
      0.180000          0.749851E-03
      0.185000          0.681272E-03
      0.190000          0.618322E-03
      0.195000          0.560624E-03
      0.200000          0.507911E-03
      0.205000          0.459984E-03
      0.210000          0.416680E-03
      0.215000          0.377842E-03
      0.220000          0.343298E-03
      0.225000          0.312850E-03
      0.230000          0.286266E-03
      0.235000          0.263281E-03
      0.240000          0.243598E-03
      0.245000          0.226897E-03
      0.250000          0.212843E-03
      0.255000          0.201095E-03
      0.260000          0.191314E-03
      0.265000          0.183177E-03
      0.270000          0.176377E-03
      0.275000          0.170636E-03
      0.280000          0.165705E-03
      0.285000          0.161367E-03
      0.290000          0.157441E-03
      0.295000          0.153779E-03
      0.300000          0.150266E-03
      0.305000          0.146819E-03
      0.310000          0.143380E-03
      0.315000          0.139920E-03
      0.320000          0.136427E-03
      0.325000          0.132910E-03
      0.330000          0.129388E-03
      0.335000          0.125894E-03
      0.340000          0.122465E-03
      0.345000          0.119142E-03
      0.350000          0.115965E-03
      0.355000          0.112972E-03
      0.360000          0.110195E-03
      0.365000          0.107659E-03
      0.370000          0.105380E-03
      0.375000          0.103366E-03
      0.380000          0.101614E-03
      0.385000          0.100111E-03
      0.390000          0.988382E-04
      0.395000          0.977678E-04
      0.400000          0.968681E-04
      0.405000          0.961042E-04
      0.410000          0.954403E-04
      0.415000          0.948420E-04
      0.420000          0.942783E-04
      0.425000          0.937230E-04
      0.430000          0.931557E-04
      0.435000          0.925631E-04
      0.440000          0.919382E-04
      0.445000          0.912805E-04
      0.450000          0.905948E-04
      0.455000          0.898902E-04
      0.460000          0.891782E-04
      0.465000          0.884710E-04
      0.470000          0.877803E-04
      0.475000          0.871155E-04
      0.480000          0.864825E-04
      0.485000          0.858833E-04
      0.490000          0.853151E-04
      0.495000          0.847714E-04
      0.500000          0.842416E-04
