 I_abs(s)[cm^-1]/c[mg/ml]
       0.00000          0.146320E-01
      0.500000E-02      0.145687E-01
      0.100000E-01      0.143806E-01
      0.150000E-01      0.140729E-01
      0.200000E-01      0.136537E-01
      0.250000E-01      0.131342E-01
      0.300000E-01      0.125278E-01
      0.350000E-01      0.118496E-01
      0.400000E-01      0.111159E-01
      0.450000E-01      0.103437E-01
      0.500000E-01      0.954951E-02
      0.550000E-01      0.874933E-02
      0.600000E-01      0.795789E-02
      0.650000E-01      0.718822E-02
      0.700000E-01      0.645136E-02
      0.750000E-01      0.575618E-02
      0.800000E-01      0.510924E-02
      0.850000E-01      0.451489E-02
      0.900000E-01      0.397533E-02
      0.950000E-01      0.349086E-02
      0.100000          0.306017E-02
      0.105000          0.268064E-02
      0.110000          0.234866E-02
      0.115000          0.206000E-02
      0.120000          0.181009E-02
      0.125000          0.159430E-02
      0.130000          0.140817E-02
      0.135000          0.124759E-02
      0.140000          0.110887E-02
      0.145000          0.988855E-03
      0.150000          0.884888E-03
      0.155000          0.794809E-03
      0.160000          0.716886E-03
      0.165000          0.649738E-03
      0.170000          0.592249E-03
      0.175000          0.543484E-03
      0.180000          0.502610E-03
      0.185000          0.468840E-03
      0.190000          0.441384E-03
      0.195000          0.419429E-03
      0.200000          0.402129E-03
      0.205000          0.388619E-03
      0.210000          0.378035E-03
      0.215000          0.369540E-03
      0.220000          0.362362E-03
      0.225000          0.355819E-03
      0.230000          0.349349E-03
      0.235000          0.342523E-03
      0.240000          0.335056E-03
      0.245000          0.326806E-03
      0.250000          0.317758E-03
      0.255000          0.308011E-03
      0.260000          0.297747E-03
      0.265000          0.287205E-03
      0.270000          0.276650E-03
      0.275000          0.266346E-03
      0.280000          0.256530E-03
      0.285000          0.247397E-03
      0.290000          0.239080E-03
      0.295000          0.231651E-03
      0.300000          0.225117E-03
      0.305000          0.219426E-03
      0.310000          0.214481E-03
      0.315000          0.210147E-03
      0.320000          0.206271E-03
      0.325000          0.202694E-03
      0.330000          0.199265E-03
      0.335000          0.195853E-03
      0.340000          0.192352E-03
      0.345000          0.188690E-03
      0.350000          0.184825E-03
      0.355000          0.180747E-03
      0.360000          0.176472E-03
      0.365000          0.172038E-03
      0.370000          0.167491E-03
      0.375000          0.162887E-03
      0.380000          0.158278E-03
      0.385000          0.153710E-03
      0.390000          0.149217E-03
      0.395000          0.144820E-03
      0.400000          0.140526E-03
      0.405000          0.136330E-03
      0.410000          0.132218E-03
      0.415000          0.128170E-03
      0.420000          0.124162E-03
      0.425000          0.120176E-03
      0.430000          0.116200E-03
      0.435000          0.112230E-03
      0.440000          0.108277E-03
      0.445000          0.104361E-03
      0.450000          0.100518E-03
      0.455000          0.967915E-04
      0.460000          0.932348E-04
      0.465000          0.899049E-04
      0.470000          0.868594E-04
      0.475000          0.841525E-04
      0.480000          0.818311E-04
      0.485000          0.799312E-04
      0.490000          0.784756E-04
      0.495000          0.774720E-04
      0.500000          0.769124E-04
