 I_abs(s)[cm^-1]/c[mg/ml]
       0.00000          0.146320E-01
      0.500000E-02      0.145826E-01
      0.100000E-01      0.144356E-01
      0.150000E-01      0.141940E-01
      0.200000E-01      0.138627E-01
      0.250000E-01      0.134485E-01
      0.300000E-01      0.129595E-01
      0.350000E-01      0.124054E-01
      0.400000E-01      0.117965E-01
      0.450000E-01      0.111441E-01
      0.500000E-01      0.104597E-01
      0.550000E-01      0.975480E-02
      0.600000E-01      0.904057E-02
      0.650000E-01      0.832762E-02
      0.700000E-01      0.762572E-02
      0.750000E-01      0.694357E-02
      0.800000E-01      0.628865E-02
      0.850000E-01      0.566715E-02
      0.900000E-01      0.508384E-02
      0.950000E-01      0.454214E-02
      0.100000          0.404413E-02
      0.105000          0.359063E-02
      0.110000          0.318136E-02
      0.115000          0.281504E-02
      0.120000          0.248959E-02
      0.125000          0.220232E-02
      0.130000          0.195007E-02
      0.135000          0.172944E-02
      0.140000          0.153689E-02
      0.145000          0.136893E-02
      0.150000          0.122223E-02
      0.155000          0.109369E-02
      0.160000          0.980561E-03
      0.165000          0.880424E-03
      0.170000          0.791256E-03
      0.175000          0.711403E-03
      0.180000          0.639569E-03
      0.185000          0.574769E-03
      0.190000          0.516287E-03
      0.195000          0.463622E-03
      0.200000          0.416431E-03
      0.205000          0.374478E-03
      0.210000          0.337579E-03
      0.215000          0.305567E-03
      0.220000          0.278254E-03
      0.225000          0.255407E-03
      0.230000          0.236737E-03
      0.235000          0.221890E-03
      0.240000          0.210454E-03
      0.245000          0.201966E-03
      0.250000          0.195926E-03
      0.255000          0.191821E-03
      0.260000          0.189138E-03
      0.265000          0.187388E-03
      0.270000          0.186120E-03
      0.275000          0.184944E-03
      0.280000          0.183531E-03
      0.285000          0.181632E-03
      0.290000          0.179072E-03
      0.295000          0.175753E-03
      0.300000          0.171652E-03
      0.305000          0.166804E-03
      0.310000          0.161300E-03
      0.315000          0.155272E-03
      0.320000          0.148877E-03
      0.325000          0.142290E-03
      0.330000          0.135688E-03
      0.335000          0.129238E-03
      0.340000          0.123094E-03
      0.345000          0.117382E-03
      0.350000          0.112206E-03
      0.355000          0.107633E-03
      0.360000          0.103706E-03
      0.365000          0.100434E-03
      0.370000          0.978013E-04
      0.375000          0.957715E-04
      0.380000          0.942893E-04
      0.385000          0.932874E-04
      0.390000          0.926911E-04
      0.395000          0.924228E-04
      0.400000          0.924062E-04
      0.405000          0.925694E-04
      0.410000          0.928479E-04
      0.415000          0.931857E-04
      0.420000          0.935364E-04
      0.425000          0.938638E-04
      0.430000          0.941406E-04
      0.435000          0.943484E-04
      0.440000          0.944756E-04
      0.445000          0.945167E-04
      0.450000          0.944705E-04
      0.455000          0.943388E-04
      0.460000          0.941253E-04
      0.465000          0.938341E-04
      0.470000          0.934699E-04
      0.475000          0.930364E-04
      0.480000          0.925371E-04
      0.485000          0.919743E-04
      0.490000          0.913501E-04
      0.495000          0.906660E-04
      0.500000          0.899237E-04
