 I_abs(s)[cm^-1]/c[mg/ml]
       0.00000          0.145684E-01
      0.500000E-02      0.145215E-01
      0.100000E-01      0.143818E-01
      0.150000E-01      0.141520E-01
      0.200000E-01      0.138365E-01
      0.250000E-01      0.134413E-01
      0.300000E-01      0.129740E-01
      0.350000E-01      0.124430E-01
      0.400000E-01      0.118581E-01
      0.450000E-01      0.112292E-01
      0.500000E-01      0.105671E-01
      0.550000E-01      0.988220E-02
      0.600000E-01      0.918508E-02
      0.650000E-01      0.848566E-02
      0.700000E-01      0.779325E-02
      0.750000E-01      0.711627E-02
      0.800000E-01      0.646213E-02
      0.850000E-01      0.583711E-02
      0.900000E-01      0.524630E-02
      0.950000E-01      0.469356E-02
      0.100000          0.418157E-02
      0.105000          0.371185E-02
      0.110000          0.328488E-02
      0.115000          0.290018E-02
      0.120000          0.255645E-02
      0.125000          0.225174E-02
      0.130000          0.198356E-02
      0.135000          0.174902E-02
      0.140000          0.154502E-02
      0.145000          0.136832E-02
      0.150000          0.121570E-02
      0.155000          0.108401E-02
      0.160000          0.970304E-03
      0.165000          0.871853E-03
      0.170000          0.786207E-03
      0.175000          0.711212E-03
      0.180000          0.645020E-03
      0.185000          0.586081E-03
      0.190000          0.533130E-03
      0.195000          0.485157E-03
      0.200000          0.441383E-03
      0.205000          0.401225E-03
      0.210000          0.364258E-03
      0.215000          0.330187E-03
      0.220000          0.298813E-03
      0.225000          0.270006E-03
      0.230000          0.243683E-03
      0.235000          0.219782E-03
      0.240000          0.198255E-03
      0.245000          0.179050E-03
      0.250000          0.162107E-03
      0.255000          0.147351E-03
      0.260000          0.134692E-03
      0.265000          0.124022E-03
      0.270000          0.115221E-03
      0.275000          0.108154E-03
      0.280000          0.102678E-03
      0.285000          0.986441E-04
      0.290000          0.958975E-04
      0.295000          0.942845E-04
      0.300000          0.936526E-04
      0.305000          0.938532E-04
      0.310000          0.947429E-04
      0.315000          0.961857E-04
      0.320000          0.980532E-04
      0.325000          0.100226E-03
      0.330000          0.102594E-03
      0.335000          0.105058E-03
      0.340000          0.107528E-03
      0.345000          0.109925E-03
      0.350000          0.112181E-03
      0.355000          0.114239E-03
      0.360000          0.116051E-03
      0.365000          0.117582E-03
      0.370000          0.118805E-03
      0.375000          0.119704E-03
      0.380000          0.120270E-03
      0.385000          0.120504E-03
      0.390000          0.120414E-03
      0.395000          0.120013E-03
      0.400000          0.119321E-03
      0.405000          0.118360E-03
      0.410000          0.117158E-03
      0.415000          0.115743E-03
      0.420000          0.114145E-03
      0.425000          0.112394E-03
      0.430000          0.110520E-03
      0.435000          0.108551E-03
      0.440000          0.106514E-03
      0.445000          0.104433E-03
      0.450000          0.102331E-03
      0.455000          0.100226E-03
      0.460000          0.981346E-04
      0.465000          0.960707E-04
      0.470000          0.940449E-04
      0.475000          0.920654E-04
      0.480000          0.901384E-04
      0.485000          0.882679E-04
      0.490000          0.864565E-04
      0.495000          0.847055E-04
      0.500000          0.830153E-04
