 I_abs(s)[cm^-1]/c[mg/ml]
       0.00000          0.140570E-01
      0.500000E-02      0.140027E-01
      0.100000E-01      0.138410E-01
      0.150000E-01      0.135760E-01
      0.200000E-01      0.132143E-01
      0.250000E-01      0.127648E-01
      0.300000E-01      0.122381E-01
      0.350000E-01      0.116464E-01
      0.400000E-01      0.110031E-01
      0.450000E-01      0.103217E-01
      0.500000E-01      0.961611E-02
      0.550000E-01      0.889965E-02
      0.600000E-01      0.818483E-02
      0.650000E-01      0.748301E-02
      0.700000E-01      0.680409E-02
      0.750000E-01      0.615635E-02
      0.800000E-01      0.554633E-02
      0.850000E-01      0.497881E-02
      0.900000E-01      0.445687E-02
      0.950000E-01      0.398201E-02
      0.100000          0.355428E-02
      0.105000          0.317255E-02
      0.110000          0.283466E-02
      0.115000          0.253771E-02
      0.120000          0.227825E-02
      0.125000          0.205251E-02
      0.130000          0.185659E-02
      0.135000          0.168661E-02
      0.140000          0.153887E-02
      0.145000          0.140991E-02
      0.150000          0.129659E-02
      0.155000          0.119616E-02
      0.160000          0.110624E-02
      0.165000          0.102484E-02
      0.170000          0.950324E-03
      0.175000          0.881397E-03
      0.180000          0.817066E-03
      0.185000          0.756598E-03
      0.190000          0.699482E-03
      0.195000          0.645386E-03
      0.200000          0.594122E-03
      0.205000          0.545611E-03
      0.210000          0.499851E-03
      0.215000          0.456888E-03
      0.220000          0.416793E-03
      0.225000          0.379644E-03
      0.230000          0.345505E-03
      0.235000          0.314416E-03
      0.240000          0.286385E-03
      0.245000          0.261379E-03
      0.250000          0.239322E-03
      0.255000          0.220098E-03
      0.260000          0.203552E-03
      0.265000          0.189496E-03
      0.270000          0.177714E-03
      0.275000          0.167972E-03
      0.280000          0.160027E-03
      0.285000          0.153631E-03
      0.290000          0.148545E-03
      0.295000          0.144539E-03
      0.300000          0.141403E-03
      0.305000          0.138946E-03
      0.310000          0.137001E-03
      0.315000          0.135428E-03
      0.320000          0.134107E-03
      0.325000          0.132945E-03
      0.330000          0.131867E-03
      0.335000          0.130815E-03
      0.340000          0.129751E-03
      0.345000          0.128646E-03
      0.350000          0.127482E-03
      0.355000          0.126250E-03
      0.360000          0.124946E-03
      0.365000          0.123572E-03
      0.370000          0.122132E-03
      0.375000          0.120634E-03
      0.380000          0.119087E-03
      0.385000          0.117503E-03
      0.390000          0.115894E-03
      0.395000          0.114271E-03
      0.400000          0.112648E-03
      0.405000          0.111037E-03
      0.410000          0.109450E-03
      0.415000          0.107896E-03
      0.420000          0.106385E-03
      0.425000          0.104925E-03
      0.430000          0.103519E-03
      0.435000          0.102172E-03
      0.440000          0.100883E-03
      0.445000          0.996506E-04
      0.450000          0.984712E-04
      0.455000          0.973387E-04
      0.460000          0.962451E-04
      0.465000          0.951811E-04
      0.470000          0.941363E-04
      0.475000          0.930992E-04
      0.480000          0.920582E-04
      0.485000          0.910020E-04
      0.490000          0.899197E-04
      0.495000          0.888016E-04
      0.500000          0.876397E-04
