 I_abs(s)[cm^-1]/c[mg/ml]
       0.00000          0.145605E-01
      0.500000E-02      0.144938E-01
      0.100000E-01      0.142956E-01
      0.150000E-01      0.139713E-01
      0.200000E-01      0.135297E-01
      0.250000E-01      0.129827E-01
      0.300000E-01      0.123445E-01
      0.350000E-01      0.116314E-01
      0.400000E-01      0.108608E-01
      0.450000E-01      0.100510E-01
      0.500000E-01      0.921985E-02
      0.550000E-01      0.838472E-02
      0.600000E-01      0.756164E-02
      0.650000E-01      0.676489E-02
      0.700000E-01      0.600660E-02
      0.750000E-01      0.529655E-02
      0.800000E-01      0.464202E-02
      0.850000E-01      0.404778E-02
      0.900000E-01      0.351621E-02
      0.950000E-01      0.304749E-02
      0.100000          0.263988E-02
      0.105000          0.229006E-02
      0.110000          0.199347E-02
      0.115000          0.174474E-02
      0.120000          0.153795E-02
      0.125000          0.136707E-02
      0.130000          0.122616E-02
      0.135000          0.110968E-02
      0.140000          0.101258E-02
      0.145000          0.930506E-03
      0.150000          0.859801E-03
      0.155000          0.797535E-03
      0.160000          0.741473E-03
      0.165000          0.690007E-03
      0.170000          0.642065E-03
      0.175000          0.597015E-03
      0.180000          0.554556E-03
      0.185000          0.514618E-03
      0.190000          0.477273E-03
      0.195000          0.442657E-03
      0.200000          0.410914E-03
      0.205000          0.382148E-03
      0.210000          0.356404E-03
      0.215000          0.333650E-03
      0.220000          0.313782E-03
      0.225000          0.296630E-03
      0.230000          0.281975E-03
      0.235000          0.269563E-03
      0.240000          0.259120E-03
      0.245000          0.250374E-03
      0.250000          0.243061E-03
      0.255000          0.236937E-03
      0.260000          0.231782E-03
      0.265000          0.227403E-03
      0.270000          0.223634E-03
      0.275000          0.220331E-03
      0.280000          0.217374E-03
      0.285000          0.214658E-03
      0.290000          0.212095E-03
      0.295000          0.209607E-03
      0.300000          0.207127E-03
      0.305000          0.204599E-03
      0.310000          0.201974E-03
      0.315000          0.199216E-03
      0.320000          0.196296E-03
      0.325000          0.193197E-03
      0.330000          0.189915E-03
      0.335000          0.186452E-03
      0.340000          0.182822E-03
      0.345000          0.179046E-03
      0.350000          0.175152E-03
      0.355000          0.171170E-03
      0.360000          0.167134E-03
      0.365000          0.163075E-03
      0.370000          0.159025E-03
      0.375000          0.155011E-03
      0.380000          0.151056E-03
      0.385000          0.147179E-03
      0.390000          0.143394E-03
      0.395000          0.139714E-03
      0.400000          0.136146E-03
      0.405000          0.132697E-03
      0.410000          0.129373E-03
      0.415000          0.126177E-03
      0.420000          0.123117E-03
      0.425000          0.120198E-03
      0.430000          0.117427E-03
      0.435000          0.114812E-03
      0.440000          0.112362E-03
      0.445000          0.110084E-03
      0.450000          0.107985E-03
      0.455000          0.106071E-03
      0.460000          0.104344E-03
      0.465000          0.102805E-03
      0.470000          0.101451E-03
      0.475000          0.100275E-03
      0.480000          0.992673E-04
      0.485000          0.984140E-04
      0.490000          0.976974E-04
      0.495000          0.970969E-04
      0.500000          0.965889E-04
