 I_abs(s)[cm^-1]/c[mg/ml]
       0.00000          0.140726E-01
      0.500000E-02      0.140102E-01
      0.100000E-01      0.138246E-01
      0.150000E-01      0.135215E-01
      0.200000E-01      0.131094E-01
      0.250000E-01      0.126002E-01
      0.300000E-01      0.120080E-01
      0.350000E-01      0.113487E-01
      0.400000E-01      0.106391E-01
      0.450000E-01      0.989657E-02
      0.500000E-01      0.913811E-02
      0.550000E-01      0.837966E-02
      0.600000E-01      0.763572E-02
      0.650000E-01      0.691878E-02
      0.700000E-01      0.623912E-02
      0.750000E-01      0.560456E-02
      0.800000E-01      0.502047E-02
      0.850000E-01      0.448985E-02
      0.900000E-01      0.401351E-02
      0.950000E-01      0.359038E-02
      0.100000          0.321780E-02
      0.105000          0.289195E-02
      0.110000          0.260820E-02
      0.115000          0.236146E-02
      0.120000          0.214657E-02
      0.125000          0.195849E-02
      0.130000          0.179260E-02
      0.135000          0.164481E-02
      0.140000          0.151168E-02
      0.145000          0.139041E-02
      0.150000          0.127886E-02
      0.155000          0.117550E-02
      0.160000          0.107929E-02
      0.165000          0.989606E-03
      0.170000          0.906111E-03
      0.175000          0.828677E-03
      0.180000          0.757273E-03
      0.185000          0.691897E-03
      0.190000          0.632516E-03
      0.195000          0.579029E-03
      0.200000          0.531242E-03
      0.205000          0.488873E-03
      0.210000          0.451551E-03
      0.215000          0.418842E-03
      0.220000          0.390262E-03
      0.225000          0.365311E-03
      0.230000          0.343491E-03
      0.235000          0.324326E-03
      0.240000          0.307379E-03
      0.245000          0.292263E-03
      0.250000          0.278647E-03
      0.255000          0.266254E-03
      0.260000          0.254861E-03
      0.265000          0.244296E-03
      0.270000          0.234426E-03
      0.275000          0.225151E-03
      0.280000          0.216399E-03
      0.285000          0.208117E-03
      0.290000          0.200265E-03
      0.295000          0.192813E-03
      0.300000          0.185738E-03
      0.305000          0.179019E-03
      0.310000          0.172639E-03
      0.315000          0.166583E-03
      0.320000          0.160838E-03
      0.325000          0.155394E-03
      0.330000          0.150240E-03
      0.335000          0.145370E-03
      0.340000          0.140779E-03
      0.345000          0.136460E-03
      0.350000          0.132411E-03
      0.355000          0.128627E-03
      0.360000          0.125102E-03
      0.365000          0.121832E-03
      0.370000          0.118807E-03
      0.375000          0.116018E-03
      0.380000          0.113454E-03
      0.385000          0.111102E-03
      0.390000          0.108946E-03
      0.395000          0.106972E-03
      0.400000          0.105162E-03
      0.405000          0.103499E-03
      0.410000          0.101968E-03
      0.415000          0.100551E-03
      0.420000          0.992332E-04
      0.425000          0.979998E-04
      0.430000          0.968369E-04
      0.435000          0.957313E-04
      0.440000          0.946707E-04
      0.445000          0.936430E-04
      0.450000          0.926367E-04
      0.455000          0.916407E-04
      0.460000          0.906440E-04
      0.465000          0.896363E-04
      0.470000          0.886081E-04
      0.475000          0.875510E-04
      0.480000          0.864585E-04
      0.485000          0.853264E-04
      0.490000          0.841538E-04
      0.495000          0.829433E-04
      0.500000          0.817020E-04
