 I_abs(s)[cm^-1]/c[mg/ml]
       0.00000          0.144496E-01
      0.500000E-02      0.143994E-01
      0.100000E-01      0.142501E-01
      0.150000E-01      0.140050E-01
      0.200000E-01      0.136695E-01
      0.250000E-01      0.132510E-01
      0.300000E-01      0.127584E-01
      0.350000E-01      0.122021E-01
      0.400000E-01      0.115932E-01
      0.450000E-01      0.109435E-01
      0.500000E-01      0.102650E-01
      0.550000E-01      0.956931E-02
      0.600000E-01      0.886771E-02
      0.650000E-01      0.817057E-02
      0.700000E-01      0.748719E-02
      0.750000E-01      0.682561E-02
      0.800000E-01      0.619254E-02
      0.850000E-01      0.559326E-02
      0.900000E-01      0.503163E-02
      0.950000E-01      0.451020E-02
      0.100000          0.403025E-02
      0.105000          0.359198E-02
      0.110000          0.319469E-02
      0.115000          0.283688E-02
      0.120000          0.251651E-02
      0.125000          0.223114E-02
      0.130000          0.197805E-02
      0.135000          0.175447E-02
      0.140000          0.155757E-02
      0.145000          0.138465E-02
      0.150000          0.123315E-02
      0.155000          0.110069E-02
      0.160000          0.985092E-03
      0.165000          0.884389E-03
      0.170000          0.796806E-03
      0.175000          0.720746E-03
      0.180000          0.654766E-03
      0.185000          0.597561E-03
      0.190000          0.547939E-03
      0.195000          0.504812E-03
      0.200000          0.467185E-03
      0.205000          0.434151E-03
      0.210000          0.404891E-03
      0.215000          0.378678E-03
      0.220000          0.354877E-03
      0.225000          0.332956E-03
      0.230000          0.312483E-03
      0.235000          0.293127E-03
      0.240000          0.274658E-03
      0.245000          0.256936E-03
      0.250000          0.239903E-03
      0.255000          0.223570E-03
      0.260000          0.207996E-03
      0.265000          0.193278E-03
      0.270000          0.179526E-03
      0.275000          0.166852E-03
      0.280000          0.155355E-03
      0.285000          0.145105E-03
      0.290000          0.136141E-03
      0.295000          0.128460E-03
      0.300000          0.122022E-03
      0.305000          0.116751E-03
      0.310000          0.112536E-03
      0.315000          0.109244E-03
      0.320000          0.106728E-03
      0.325000          0.104831E-03
      0.330000          0.103403E-03
      0.335000          0.102300E-03
      0.340000          0.101399E-03
      0.345000          0.100596E-03
      0.350000          0.998110E-04
      0.355000          0.989907E-04
      0.360000          0.981036E-04
      0.365000          0.971395E-04
      0.370000          0.961054E-04
      0.375000          0.950211E-04
      0.380000          0.939147E-04
      0.385000          0.928179E-04
      0.390000          0.917625E-04
      0.395000          0.907770E-04
      0.400000          0.898842E-04
      0.405000          0.891005E-04
      0.410000          0.884346E-04
      0.415000          0.878884E-04
      0.420000          0.874577E-04
      0.425000          0.871338E-04
      0.430000          0.869048E-04
      0.435000          0.867572E-04
      0.440000          0.866774E-04
      0.445000          0.866530E-04
      0.450000          0.866731E-04
      0.455000          0.867291E-04
      0.460000          0.868149E-04
      0.465000          0.869260E-04
      0.470000          0.870595E-04
      0.475000          0.872131E-04
      0.480000          0.873847E-04
      0.485000          0.875716E-04
      0.490000          0.877697E-04
      0.495000          0.879737E-04
      0.500000          0.881767E-04
