 I_abs(s)[cm^-1]/c[mg/ml]
       0.00000          0.142684E-01
      0.500000E-02      0.142178E-01
      0.100000E-01      0.140673E-01
      0.150000E-01      0.138199E-01
      0.200000E-01      0.134809E-01
      0.250000E-01      0.130571E-01
      0.300000E-01      0.125573E-01
      0.350000E-01      0.119911E-01
      0.400000E-01      0.113696E-01
      0.450000E-01      0.107043E-01
      0.500000E-01      0.100070E-01
      0.550000E-01      0.928958E-02
      0.600000E-01      0.856358E-02
      0.650000E-01      0.783988E-02
      0.700000E-01      0.712847E-02
      0.750000E-01      0.643828E-02
      0.800000E-01      0.577699E-02
      0.850000E-01      0.515093E-02
      0.900000E-01      0.456506E-02
      0.950000E-01      0.402297E-02
      0.100000          0.352689E-02
      0.105000          0.307783E-02
      0.110000          0.267567E-02
      0.115000          0.231933E-02
      0.120000          0.200691E-02
      0.125000          0.173586E-02
      0.130000          0.150314E-02
      0.135000          0.130540E-02
      0.140000          0.113910E-02
      0.145000          0.100067E-02
      0.150000          0.886558E-03
      0.155000          0.793387E-03
      0.160000          0.717973E-03
      0.165000          0.657388E-03
      0.170000          0.608986E-03
      0.175000          0.570413E-03
      0.180000          0.539609E-03
      0.185000          0.514796E-03
      0.190000          0.494462E-03
      0.195000          0.477338E-03
      0.200000          0.462377E-03
      0.205000          0.448731E-03
      0.210000          0.435725E-03
      0.215000          0.422841E-03
      0.220000          0.409696E-03
      0.225000          0.396028E-03
      0.230000          0.381679E-03
      0.235000          0.366585E-03
      0.240000          0.350761E-03
      0.245000          0.334291E-03
      0.250000          0.317315E-03
      0.255000          0.300017E-03
      0.260000          0.282613E-03
      0.265000          0.265341E-03
      0.270000          0.248440E-03
      0.275000          0.232150E-03
      0.280000          0.216688E-03
      0.285000          0.202248E-03
      0.290000          0.188984E-03
      0.295000          0.177011E-03
      0.300000          0.166395E-03
      0.305000          0.157155E-03
      0.310000          0.149263E-03
      0.315000          0.142646E-03
      0.320000          0.137195E-03
      0.325000          0.132770E-03
      0.330000          0.129208E-03
      0.335000          0.126334E-03
      0.340000          0.123970E-03
      0.345000          0.121945E-03
      0.350000          0.120100E-03
      0.355000          0.118297E-03
      0.360000          0.116426E-03
      0.365000          0.114405E-03
      0.370000          0.112181E-03
      0.375000          0.109734E-03
      0.380000          0.107071E-03
      0.385000          0.104221E-03
      0.390000          0.101236E-03
      0.395000          0.981804E-04
      0.400000          0.951256E-04
      0.405000          0.921469E-04
      0.410000          0.893161E-04
      0.415000          0.866973E-04
      0.420000          0.843430E-04
      0.425000          0.822919E-04
      0.430000          0.805667E-04
      0.435000          0.791748E-04
      0.440000          0.781083E-04
      0.445000          0.773462E-04
      0.450000          0.768567E-04
      0.455000          0.766005E-04
      0.460000          0.765338E-04
      0.465000          0.766117E-04
      0.470000          0.767913E-04
      0.475000          0.770342E-04
      0.480000          0.773091E-04
      0.485000          0.775923E-04
      0.490000          0.778692E-04
      0.495000          0.781335E-04
      0.500000          0.783869E-04
