 I_abs(s)[cm^-1]/c[mg/ml]
       0.00000          0.143133E-01
      0.500000E-02      0.142735E-01
      0.100000E-01      0.141548E-01
      0.150000E-01      0.139591E-01
      0.200000E-01      0.136896E-01
      0.250000E-01      0.133506E-01
      0.300000E-01      0.129473E-01
      0.350000E-01      0.124862E-01
      0.400000E-01      0.119743E-01
      0.450000E-01      0.114190E-01
      0.500000E-01      0.108285E-01
      0.550000E-01      0.102111E-01
      0.600000E-01      0.957491E-02
      0.650000E-01      0.892823E-02
      0.700000E-01      0.827891E-02
      0.750000E-01      0.763436E-02
      0.800000E-01      0.700145E-02
      0.850000E-01      0.638633E-02
      0.900000E-01      0.579441E-02
      0.950000E-01      0.523023E-02
      0.100000          0.469751E-02
      0.105000          0.419907E-02
      0.110000          0.373687E-02
      0.115000          0.331206E-02
      0.120000          0.292502E-02
      0.125000          0.257540E-02
      0.130000          0.226228E-02
      0.135000          0.198416E-02
      0.140000          0.173914E-02
      0.145000          0.152498E-02
      0.150000          0.133919E-02
      0.155000          0.117914E-02
      0.160000          0.104212E-02
      0.165000          0.925454E-03
      0.170000          0.826523E-03
      0.175000          0.742847E-03
      0.180000          0.672116E-03
      0.185000          0.612226E-03
      0.190000          0.561299E-03
      0.195000          0.517691E-03
      0.200000          0.479993E-03
      0.205000          0.447028E-03
      0.210000          0.417833E-03
      0.215000          0.391643E-03
      0.220000          0.367867E-03
      0.225000          0.346067E-03
      0.230000          0.325930E-03
      0.235000          0.307247E-03
      0.240000          0.289884E-03
      0.245000          0.273766E-03
      0.250000          0.258854E-03
      0.255000          0.245131E-03
      0.260000          0.232587E-03
      0.265000          0.221212E-03
      0.270000          0.210983E-03
      0.275000          0.201867E-03
      0.280000          0.193810E-03
      0.285000          0.186746E-03
      0.290000          0.180592E-03
      0.295000          0.175249E-03
      0.300000          0.170615E-03
      0.305000          0.166576E-03
      0.310000          0.163021E-03
      0.315000          0.159839E-03
      0.320000          0.156924E-03
      0.325000          0.154182E-03
      0.330000          0.151526E-03
      0.335000          0.148884E-03
      0.340000          0.146197E-03
      0.345000          0.143423E-03
      0.350000          0.140531E-03
      0.355000          0.137507E-03
      0.360000          0.134347E-03
      0.365000          0.131060E-03
      0.370000          0.127666E-03
      0.375000          0.124191E-03
      0.380000          0.120670E-03
      0.385000          0.117140E-03
      0.390000          0.113642E-03
      0.395000          0.110220E-03
      0.400000          0.106915E-03
      0.405000          0.103766E-03
      0.410000          0.100813E-03
      0.415000          0.980871E-04
      0.420000          0.956176E-04
      0.425000          0.934276E-04
      0.430000          0.915342E-04
      0.435000          0.899486E-04
      0.440000          0.886755E-04
      0.445000          0.877138E-04
      0.450000          0.870561E-04
      0.455000          0.866895E-04
      0.460000          0.865962E-04
      0.465000          0.867535E-04
      0.470000          0.871349E-04
      0.475000          0.877108E-04
      0.480000          0.884489E-04
      0.485000          0.893156E-04
      0.490000          0.902760E-04
      0.495000          0.912954E-04
      0.500000          0.923398E-04
