 I_abs(s)[cm^-1]/c[mg/ml]
       0.00000          0.141013E-01
      0.500000E-02      0.140554E-01
      0.100000E-01      0.139185E-01
      0.150000E-01      0.136935E-01
      0.200000E-01      0.133849E-01
      0.250000E-01      0.129986E-01
      0.300000E-01      0.125423E-01
      0.350000E-01      0.120245E-01
      0.400000E-01      0.114549E-01
      0.450000E-01      0.108436E-01
      0.500000E-01      0.102011E-01
      0.550000E-01      0.953793E-02
      0.600000E-01      0.886437E-02
      0.650000E-01      0.819017E-02
      0.700000E-01      0.752435E-02
      0.750000E-01      0.687501E-02
      0.800000E-01      0.624919E-02
      0.850000E-01      0.565275E-02
      0.900000E-01      0.509032E-02
      0.950000E-01      0.456532E-02
      0.100000          0.407999E-02
      0.105000          0.363542E-02
      0.110000          0.323171E-02
      0.115000          0.286806E-02
      0.120000          0.254294E-02
      0.125000          0.225420E-02
      0.130000          0.199928E-02
      0.135000          0.177531E-02
      0.140000          0.157928E-02
      0.145000          0.140815E-02
      0.150000          0.125896E-02
      0.155000          0.112890E-02
      0.160000          0.101539E-02
      0.165000          0.916112E-03
      0.170000          0.829038E-03
      0.175000          0.752428E-03
      0.180000          0.684819E-03
      0.185000          0.625006E-03
      0.190000          0.572009E-03
      0.195000          0.525038E-03
      0.200000          0.483455E-03
      0.205000          0.446737E-03
      0.210000          0.414445E-03
      0.215000          0.386189E-03
      0.220000          0.361609E-03
      0.225000          0.340355E-03
      0.230000          0.322080E-03
      0.235000          0.306429E-03
      0.240000          0.293042E-03
      0.245000          0.281556E-03
      0.250000          0.271615E-03
      0.255000          0.262873E-03
      0.260000          0.255009E-03
      0.265000          0.247731E-03
      0.270000          0.240783E-03
      0.275000          0.233955E-03
      0.280000          0.227082E-03
      0.285000          0.220048E-03
      0.290000          0.212783E-03
      0.295000          0.205261E-03
      0.300000          0.197495E-03
      0.305000          0.189529E-03
      0.310000          0.181433E-03
      0.315000          0.173295E-03
      0.320000          0.165213E-03
      0.325000          0.157290E-03
      0.330000          0.149624E-03
      0.335000          0.142307E-03
      0.340000          0.135421E-03
      0.345000          0.129030E-03
      0.350000          0.123184E-03
      0.355000          0.117917E-03
      0.360000          0.113244E-03
      0.365000          0.109166E-03
      0.370000          0.105669E-03
      0.375000          0.102726E-03
      0.380000          0.100301E-03
      0.385000          0.983497E-04
      0.390000          0.968208E-04
      0.395000          0.956606E-04
      0.400000          0.948134E-04
      0.405000          0.942236E-04
      0.410000          0.938375E-04
      0.415000          0.936047E-04
      0.420000          0.934791E-04
      0.425000          0.934205E-04
      0.430000          0.933944E-04
      0.435000          0.933737E-04
      0.440000          0.933381E-04
      0.445000          0.932747E-04
      0.450000          0.931777E-04
      0.455000          0.930480E-04
      0.460000          0.928929E-04
      0.465000          0.927246E-04
      0.470000          0.925596E-04
      0.475000          0.924176E-04
      0.480000          0.923197E-04
      0.485000          0.922875E-04
      0.490000          0.923411E-04
      0.495000          0.924985E-04
      0.500000          0.927738E-04
