 I_abs(s)[cm^-1]/c[mg/ml]
       0.00000          0.141796E-01
      0.500000E-02      0.141426E-01
      0.100000E-01      0.140321E-01
      0.150000E-01      0.138498E-01
      0.200000E-01      0.135984E-01
      0.250000E-01      0.132815E-01
      0.300000E-01      0.129036E-01
      0.350000E-01      0.124702E-01
      0.400000E-01      0.119873E-01
      0.450000E-01      0.114615E-01
      0.500000E-01      0.108999E-01
      0.550000E-01      0.103097E-01
      0.600000E-01      0.969833E-02
      0.650000E-01      0.907326E-02
      0.700000E-01      0.844169E-02
      0.750000E-01      0.781057E-02
      0.800000E-01      0.718643E-02
      0.850000E-01      0.657532E-02
      0.900000E-01      0.598265E-02
      0.950000E-01      0.541319E-02
      0.100000          0.487100E-02
      0.105000          0.435939E-02
      0.110000          0.388091E-02
      0.115000          0.343739E-02
      0.120000          0.302991E-02
      0.125000          0.265890E-02
      0.130000          0.232412E-02
      0.135000          0.202481E-02
      0.140000          0.175970E-02
      0.145000          0.152709E-02
      0.150000          0.132496E-02
      0.155000          0.115102E-02
      0.160000          0.100281E-02
      0.165000          0.877753E-03
      0.170000          0.773254E-03
      0.175000          0.686733E-03
      0.180000          0.615694E-03
      0.185000          0.557768E-03
      0.190000          0.510749E-03
      0.195000          0.472625E-03
      0.200000          0.441593E-03
      0.205000          0.416070E-03
      0.210000          0.394701E-03
      0.215000          0.376347E-03
      0.220000          0.360084E-03
      0.225000          0.345182E-03
      0.230000          0.331090E-03
      0.235000          0.317418E-03
      0.240000          0.303911E-03
      0.245000          0.290427E-03
      0.250000          0.276917E-03
      0.255000          0.263404E-03
      0.260000          0.249959E-03
      0.265000          0.236687E-03
      0.270000          0.223712E-03
      0.275000          0.211160E-03
      0.280000          0.199154E-03
      0.285000          0.187801E-03
      0.290000          0.177188E-03
      0.295000          0.167380E-03
      0.300000          0.158417E-03
      0.305000          0.150315E-03
      0.310000          0.143067E-03
      0.315000          0.136643E-03
      0.320000          0.130997E-03
      0.325000          0.126071E-03
      0.330000          0.121792E-03
      0.335000          0.118084E-03
      0.340000          0.114868E-03
      0.345000          0.112062E-03
      0.350000          0.109592E-03
      0.355000          0.107384E-03
      0.360000          0.105376E-03
      0.365000          0.103511E-03
      0.370000          0.101742E-03
      0.375000          0.100032E-03
      0.380000          0.983538E-04
      0.385000          0.966873E-04
      0.390000          0.950219E-04
      0.395000          0.933539E-04
      0.400000          0.916860E-04
      0.405000          0.900259E-04
      0.410000          0.883852E-04
      0.415000          0.867787E-04
      0.420000          0.852228E-04
      0.425000          0.837352E-04
      0.430000          0.823336E-04
      0.435000          0.810353E-04
      0.440000          0.798567E-04
      0.445000          0.788127E-04
      0.450000          0.779165E-04
      0.455000          0.771793E-04
      0.460000          0.766105E-04
      0.465000          0.762172E-04
      0.470000          0.760045E-04
      0.475000          0.759755E-04
      0.480000          0.761311E-04
      0.485000          0.764705E-04
      0.490000          0.769908E-04
      0.495000          0.776874E-04
      0.500000          0.785539E-04
