 I_abs(s)[cm^-1]/c[mg/ml]
       0.00000          0.141404E-01
      0.500000E-02      0.140980E-01
      0.100000E-01      0.139715E-01
      0.150000E-01      0.137631E-01
      0.200000E-01      0.134763E-01
      0.250000E-01      0.131162E-01
      0.300000E-01      0.126886E-01
      0.350000E-01      0.122008E-01
      0.400000E-01      0.116606E-01
      0.450000E-01      0.110766E-01
      0.500000E-01      0.104578E-01
      0.550000E-01      0.981333E-02
      0.600000E-01      0.915245E-02
      0.650000E-01      0.848413E-02
      0.700000E-01      0.781699E-02
      0.750000E-01      0.715905E-02
      0.800000E-01      0.651764E-02
      0.850000E-01      0.589924E-02
      0.900000E-01      0.530940E-02
      0.950000E-01      0.475269E-02
      0.100000          0.423264E-02
      0.105000          0.375179E-02
      0.110000          0.331167E-02
      0.115000          0.291287E-02
      0.120000          0.255513E-02
      0.125000          0.223740E-02
      0.130000          0.195800E-02
      0.135000          0.171468E-02
      0.140000          0.150477E-02
      0.145000          0.132530E-02
      0.150000          0.117310E-02
      0.155000          0.104493E-02
      0.160000          0.937592E-03
      0.165000          0.847963E-03
      0.170000          0.773119E-03
      0.175000          0.710373E-03
      0.180000          0.657317E-03
      0.185000          0.611848E-03
      0.190000          0.572184E-03
      0.195000          0.536859E-03
      0.200000          0.504714E-03
      0.205000          0.474872E-03
      0.210000          0.446710E-03
      0.215000          0.419828E-03
      0.220000          0.394008E-03
      0.225000          0.369176E-03
      0.230000          0.345368E-03
      0.235000          0.322689E-03
      0.240000          0.301287E-03
      0.245000          0.281322E-03
      0.250000          0.262945E-03
      0.255000          0.246277E-03
      0.260000          0.231402E-03
      0.265000          0.218356E-03
      0.270000          0.207127E-03
      0.275000          0.197651E-03
      0.280000          0.189823E-03
      0.285000          0.183498E-03
      0.290000          0.178504E-03
      0.295000          0.174645E-03
      0.300000          0.171719E-03
      0.305000          0.169519E-03
      0.310000          0.167848E-03
      0.315000          0.166520E-03
      0.320000          0.165369E-03
      0.325000          0.164256E-03
      0.330000          0.163063E-03
      0.335000          0.161704E-03
      0.340000          0.160115E-03
      0.345000          0.158260E-03
      0.350000          0.156124E-03
      0.355000          0.153712E-03
      0.360000          0.151043E-03
      0.365000          0.148149E-03
      0.370000          0.145069E-03
      0.375000          0.141846E-03
      0.380000          0.138524E-03
      0.385000          0.135149E-03
      0.390000          0.131758E-03
      0.395000          0.128389E-03
      0.400000          0.125070E-03
      0.405000          0.121828E-03
      0.410000          0.118679E-03
      0.415000          0.115639E-03
      0.420000          0.112717E-03
      0.425000          0.109921E-03
      0.430000          0.107254E-03
      0.435000          0.104720E-03
      0.440000          0.102324E-03
      0.445000          0.100069E-03
      0.450000          0.979612E-04
      0.455000          0.960078E-04
      0.460000          0.942175E-04
      0.465000          0.926009E-04
      0.470000          0.911694E-04
      0.475000          0.899354E-04
      0.480000          0.889109E-04
      0.485000          0.881073E-04
      0.490000          0.875343E-04
      0.495000          0.871992E-04
      0.500000          0.871060E-04
