 I_abs(s)[cm^-1]/c[mg/ml]
       0.00000          0.141169E-01
      0.500000E-02      0.140807E-01
      0.100000E-01      0.139727E-01
      0.150000E-01      0.137945E-01
      0.200000E-01      0.135486E-01
      0.250000E-01      0.132385E-01
      0.300000E-01      0.128687E-01
      0.350000E-01      0.124445E-01
      0.400000E-01      0.119716E-01
      0.450000E-01      0.114564E-01
      0.500000E-01      0.109058E-01
      0.550000E-01      0.103268E-01
      0.600000E-01      0.972662E-02
      0.650000E-01      0.911245E-02
      0.700000E-01      0.849131E-02
      0.750000E-01      0.786995E-02
      0.800000E-01      0.725475E-02
      0.850000E-01      0.665159E-02
      0.900000E-01      0.606578E-02
      0.950000E-01      0.550200E-02
      0.100000          0.496425E-02
      0.105000          0.445581E-02
      0.110000          0.397925E-02
      0.115000          0.353640E-02
      0.120000          0.312843E-02
      0.125000          0.275583E-02
      0.130000          0.241848E-02
      0.135000          0.211573E-02
      0.140000          0.184642E-02
      0.145000          0.160901E-02
      0.150000          0.140159E-02
      0.155000          0.122203E-02
      0.160000          0.106797E-02
      0.165000          0.936987E-03
      0.170000          0.826568E-03
      0.175000          0.734235E-03
      0.180000          0.657572E-03
      0.185000          0.594274E-03
      0.190000          0.542184E-03
      0.195000          0.499323E-03
      0.200000          0.463908E-03
      0.205000          0.434365E-03
      0.210000          0.409334E-03
      0.215000          0.387668E-03
      0.220000          0.368425E-03
      0.225000          0.350858E-03
      0.230000          0.334396E-03
      0.235000          0.318626E-03
      0.240000          0.303276E-03
      0.245000          0.288192E-03
      0.250000          0.273312E-03
      0.255000          0.258654E-03
      0.260000          0.244286E-03
      0.265000          0.230316E-03
      0.270000          0.216872E-03
      0.275000          0.204087E-03
      0.280000          0.192089E-03
      0.285000          0.180993E-03
      0.290000          0.170889E-03
      0.295000          0.161843E-03
      0.300000          0.153890E-03
      0.305000          0.147036E-03
      0.310000          0.141258E-03
      0.315000          0.136504E-03
      0.320000          0.132700E-03
      0.325000          0.129751E-03
      0.330000          0.127546E-03
      0.335000          0.125964E-03
      0.340000          0.124877E-03
      0.345000          0.124156E-03
      0.350000          0.123676E-03
      0.355000          0.123316E-03
      0.360000          0.122967E-03
      0.365000          0.122533E-03
      0.370000          0.121932E-03
      0.375000          0.121099E-03
      0.380000          0.119984E-03
      0.385000          0.118556E-03
      0.390000          0.116801E-03
      0.395000          0.114720E-03
      0.400000          0.112329E-03
      0.405000          0.109656E-03
      0.410000          0.106741E-03
      0.415000          0.103632E-03
      0.420000          0.100385E-03
      0.425000          0.970584E-04
      0.430000          0.937150E-04
      0.435000          0.904169E-04
      0.440000          0.872248E-04
      0.445000          0.841962E-04
      0.450000          0.813838E-04
      0.455000          0.788347E-04
      0.460000          0.765888E-04
      0.465000          0.746788E-04
      0.470000          0.731293E-04
      0.475000          0.719567E-04
      0.480000          0.711695E-04
      0.485000          0.707682E-04
      0.490000          0.707457E-04
      0.495000          0.710880E-04
      0.500000          0.717749E-04
