 I_abs(s)[cm^-1]/c[mg/ml]
       0.00000          0.140700E-01
      0.500000E-02      0.140233E-01
      0.100000E-01      0.138842E-01
      0.150000E-01      0.136553E-01
      0.200000E-01      0.133412E-01
      0.250000E-01      0.129479E-01
      0.300000E-01      0.124829E-01
      0.350000E-01      0.119548E-01
      0.400000E-01      0.113733E-01
      0.450000E-01      0.107486E-01
      0.500000E-01      0.100913E-01
      0.550000E-01      0.941229E-02
      0.600000E-01      0.872204E-02
      0.650000E-01      0.803072E-02
      0.700000E-01      0.734776E-02
      0.750000E-01      0.668175E-02
      0.800000E-01      0.604023E-02
      0.850000E-01      0.542959E-02
      0.900000E-01      0.485499E-02
      0.950000E-01      0.432035E-02
      0.100000          0.382831E-02
      0.105000          0.338033E-02
      0.110000          0.297677E-02
      0.115000          0.261698E-02
      0.120000          0.229941E-02
      0.125000          0.202185E-02
      0.130000          0.178147E-02
      0.135000          0.157506E-02
      0.140000          0.139916E-02
      0.145000          0.125018E-02
      0.150000          0.112455E-02
      0.155000          0.101883E-02
      0.160000          0.929789E-03
      0.165000          0.854472E-03
      0.170000          0.790256E-03
      0.175000          0.734871E-03
      0.180000          0.686407E-03
      0.185000          0.643308E-03
      0.190000          0.604352E-03
      0.195000          0.568613E-03
      0.200000          0.535428E-03
      0.205000          0.504350E-03
      0.210000          0.475105E-03
      0.215000          0.447550E-03
      0.220000          0.421629E-03
      0.225000          0.397344E-03
      0.230000          0.374716E-03
      0.235000          0.353773E-03
      0.240000          0.334525E-03
      0.245000          0.316956E-03
      0.250000          0.301019E-03
      0.255000          0.286635E-03
      0.260000          0.273698E-03
      0.265000          0.262079E-03
      0.270000          0.251631E-03
      0.275000          0.242205E-03
      0.280000          0.233649E-03
      0.285000          0.225820E-03
      0.290000          0.218590E-03
      0.295000          0.211847E-03
      0.300000          0.205500E-03
      0.305000          0.199480E-03
      0.310000          0.193737E-03
      0.315000          0.188239E-03
      0.320000          0.182970E-03
      0.325000          0.177923E-03
      0.330000          0.173103E-03
      0.335000          0.168513E-03
      0.340000          0.164162E-03
      0.345000          0.160052E-03
      0.350000          0.156184E-03
      0.355000          0.152553E-03
      0.360000          0.149145E-03
      0.365000          0.145943E-03
      0.370000          0.142925E-03
      0.375000          0.140064E-03
      0.380000          0.137334E-03
      0.385000          0.134705E-03
      0.390000          0.132152E-03
      0.395000          0.129652E-03
      0.400000          0.127187E-03
      0.405000          0.124744E-03
      0.410000          0.122317E-03
      0.415000          0.119906E-03
      0.420000          0.117516E-03
      0.425000          0.115158E-03
      0.430000          0.112848E-03
      0.435000          0.110605E-03
      0.440000          0.108447E-03
      0.445000          0.106397E-03
      0.450000          0.104473E-03
      0.455000          0.102694E-03
      0.460000          0.101075E-03
      0.465000          0.996261E-04
      0.470000          0.983557E-04
      0.475000          0.972659E-04
      0.480000          0.963546E-04
      0.485000          0.956159E-04
      0.490000          0.950395E-04
      0.495000          0.946122E-04
      0.500000          0.943180E-04
