 I_abs(s)[cm^-1]/c[mg/ml]
       0.00000          0.141639E-01
      0.500000E-02      0.141271E-01
      0.100000E-01      0.140172E-01
      0.150000E-01      0.138359E-01
      0.200000E-01      0.135859E-01
      0.250000E-01      0.132707E-01
      0.300000E-01      0.128951E-01
      0.350000E-01      0.124643E-01
      0.400000E-01      0.119845E-01
      0.450000E-01      0.114622E-01
      0.500000E-01      0.109045E-01
      0.550000E-01      0.103187E-01
      0.600000E-01      0.971205E-02
      0.650000E-01      0.909205E-02
      0.700000E-01      0.846585E-02
      0.750000E-01      0.784033E-02
      0.800000E-01      0.722197E-02
      0.850000E-01      0.661670E-02
      0.900000E-01      0.602987E-02
      0.950000E-01      0.546613E-02
      0.100000          0.492944E-02
      0.105000          0.442298E-02
      0.110000          0.394921E-02
      0.115000          0.350984E-02
      0.120000          0.310585E-02
      0.125000          0.273756E-02
      0.130000          0.240468E-02
      0.135000          0.210637E-02
      0.140000          0.184130E-02
      0.145000          0.160775E-02
      0.150000          0.140371E-02
      0.155000          0.122690E-02
      0.160000          0.107490E-02
      0.165000          0.945208E-03
      0.170000          0.835298E-03
      0.175000          0.742702E-03
      0.180000          0.665042E-03
      0.185000          0.600083E-03
      0.190000          0.545764E-03
      0.195000          0.500218E-03
      0.200000          0.461792E-03
      0.205000          0.429053E-03
      0.210000          0.400782E-03
      0.215000          0.375972E-03
      0.220000          0.353813E-03
      0.225000          0.333673E-03
      0.230000          0.315081E-03
      0.235000          0.297705E-03
      0.240000          0.281325E-03
      0.245000          0.265816E-03
      0.250000          0.251121E-03
      0.255000          0.237234E-03
      0.260000          0.224183E-03
      0.265000          0.212009E-03
      0.270000          0.200762E-03
      0.275000          0.190482E-03
      0.280000          0.181195E-03
      0.285000          0.172913E-03
      0.290000          0.165622E-03
      0.295000          0.159291E-03
      0.300000          0.153867E-03
      0.305000          0.149277E-03
      0.310000          0.145437E-03
      0.315000          0.142250E-03
      0.320000          0.139613E-03
      0.325000          0.137420E-03
      0.330000          0.135568E-03
      0.335000          0.133956E-03
      0.340000          0.132492E-03
      0.345000          0.131095E-03
      0.350000          0.129692E-03
      0.355000          0.128226E-03
      0.360000          0.126651E-03
      0.365000          0.124933E-03
      0.370000          0.123052E-03
      0.375000          0.120997E-03
      0.380000          0.118768E-03
      0.385000          0.116373E-03
      0.390000          0.113826E-03
      0.395000          0.111150E-03
      0.400000          0.108368E-03
      0.405000          0.105509E-03
      0.410000          0.102602E-03
      0.415000          0.996778E-04
      0.420000          0.967668E-04
      0.425000          0.938992E-04
      0.430000          0.911039E-04
      0.435000          0.884086E-04
      0.440000          0.858389E-04
      0.445000          0.834190E-04
      0.450000          0.811707E-04
      0.455000          0.791140E-04
      0.460000          0.772665E-04
      0.465000          0.756434E-04
      0.470000          0.742577E-04
      0.475000          0.731198E-04
      0.480000          0.722374E-04
      0.485000          0.716153E-04
      0.490000          0.712557E-04
      0.495000          0.711574E-04
      0.500000          0.713163E-04
