 I_abs(s)[cm^-1]/c[mg/ml]
       0.00000          0.141639E-01
      0.500000E-02      0.141185E-01
      0.100000E-01      0.139832E-01
      0.150000E-01      0.137603E-01
      0.200000E-01      0.134539E-01
      0.250000E-01      0.130694E-01
      0.300000E-01      0.126137E-01
      0.350000E-01      0.120947E-01
      0.400000E-01      0.115210E-01
      0.450000E-01      0.109024E-01
      0.500000E-01      0.102487E-01
      0.550000E-01      0.957006E-02
      0.600000E-01      0.887665E-02
      0.650000E-01      0.817832E-02
      0.700000E-01      0.748444E-02
      0.750000E-01      0.680372E-02
      0.800000E-01      0.614400E-02
      0.850000E-01      0.551216E-02
      0.900000E-01      0.491401E-02
      0.950000E-01      0.435423E-02
      0.100000          0.383633E-02
      0.105000          0.336266E-02
      0.110000          0.293448E-02
      0.115000          0.255198E-02
      0.120000          0.221441E-02
      0.125000          0.192018E-02
      0.130000          0.166698E-02
      0.135000          0.145195E-02
      0.140000          0.127176E-02
      0.145000          0.112281E-02
      0.150000          0.100132E-02
      0.155000          0.903496E-03
      0.160000          0.825593E-03
      0.165000          0.764051E-03
      0.170000          0.715553E-03
      0.175000          0.677097E-03
      0.180000          0.646030E-03
      0.185000          0.620080E-03
      0.190000          0.597363E-03
      0.195000          0.576376E-03
      0.200000          0.555982E-03
      0.205000          0.535375E-03
      0.210000          0.514051E-03
      0.215000          0.491762E-03
      0.220000          0.468469E-03
      0.225000          0.444302E-03
      0.230000          0.419510E-03
      0.235000          0.394424E-03
      0.240000          0.369413E-03
      0.245000          0.344859E-03
      0.250000          0.321125E-03
      0.255000          0.298537E-03
      0.260000          0.277368E-03
      0.265000          0.257829E-03
      0.270000          0.240063E-03
      0.275000          0.224148E-03
      0.280000          0.210100E-03
      0.285000          0.197878E-03
      0.290000          0.187395E-03
      0.295000          0.178526E-03
      0.300000          0.171116E-03
      0.305000          0.164997E-03
      0.310000          0.159988E-03
      0.315000          0.155912E-03
      0.320000          0.152596E-03
      0.325000          0.149882E-03
      0.330000          0.147625E-03
      0.335000          0.145700E-03
      0.340000          0.144005E-03
      0.345000          0.142452E-03
      0.350000          0.140978E-03
      0.355000          0.139534E-03
      0.360000          0.138087E-03
      0.365000          0.136618E-03
      0.370000          0.135117E-03
      0.375000          0.133585E-03
      0.380000          0.132025E-03
      0.385000          0.130448E-03
      0.390000          0.128865E-03
      0.395000          0.127288E-03
      0.400000          0.125732E-03
      0.405000          0.124208E-03
      0.410000          0.122727E-03
      0.415000          0.121300E-03
      0.420000          0.119935E-03
      0.425000          0.118640E-03
      0.430000          0.117419E-03
      0.435000          0.116277E-03
      0.440000          0.115217E-03
      0.445000          0.114240E-03
      0.450000          0.113345E-03
      0.455000          0.112532E-03
      0.460000          0.111796E-03
      0.465000          0.111134E-03
      0.470000          0.110539E-03
      0.475000          0.110003E-03
      0.480000          0.109518E-03
      0.485000          0.109073E-03
      0.490000          0.108657E-03
      0.495000          0.108257E-03
      0.500000          0.107863E-03
