 I_abs(s)[cm^-1]/c[mg/ml]
       0.00000          0.142739E-01
      0.500000E-02      0.142362E-01
      0.100000E-01      0.141238E-01
      0.150000E-01      0.139384E-01
      0.200000E-01      0.136826E-01
      0.250000E-01      0.133604E-01
      0.300000E-01      0.129764E-01
      0.350000E-01      0.125362E-01
      0.400000E-01      0.120461E-01
      0.450000E-01      0.115129E-01
      0.500000E-01      0.109439E-01
      0.550000E-01      0.103465E-01
      0.600000E-01      0.972842E-02
      0.650000E-01      0.909721E-02
      0.700000E-01      0.846027E-02
      0.750000E-01      0.782467E-02
      0.800000E-01      0.719704E-02
      0.850000E-01      0.658346E-02
      0.900000E-01      0.598939E-02
      0.950000E-01      0.541955E-02
      0.100000          0.487794E-02
      0.105000          0.436778E-02
      0.110000          0.389149E-02
      0.115000          0.345074E-02
      0.120000          0.304644E-02
      0.125000          0.267883E-02
      0.130000          0.234749E-02
      0.135000          0.205147E-02
      0.140000          0.178930E-02
      0.145000          0.155913E-02
      0.150000          0.135880E-02
      0.155000          0.118589E-02
      0.160000          0.103785E-02
      0.165000          0.912068E-03
      0.170000          0.805911E-03
      0.175000          0.716819E-03
      0.180000          0.642344E-03
      0.185000          0.580197E-03
      0.190000          0.528280E-03
      0.195000          0.484713E-03
      0.200000          0.447840E-03
      0.205000          0.416245E-03
      0.210000          0.388737E-03
      0.215000          0.364352E-03
      0.220000          0.342327E-03
      0.225000          0.322088E-03
      0.230000          0.303222E-03
      0.235000          0.285456E-03
      0.240000          0.268630E-03
      0.245000          0.252673E-03
      0.250000          0.237575E-03
      0.255000          0.223375E-03
      0.260000          0.210132E-03
      0.265000          0.197914E-03
      0.270000          0.186782E-03
      0.275000          0.176786E-03
      0.280000          0.167950E-03
      0.285000          0.160272E-03
      0.290000          0.153726E-03
      0.295000          0.148256E-03
      0.300000          0.143782E-03
      0.305000          0.140205E-03
      0.310000          0.137408E-03
      0.315000          0.135267E-03
      0.320000          0.133651E-03
      0.325000          0.132427E-03
      0.330000          0.131471E-03
      0.335000          0.130667E-03
      0.340000          0.129909E-03
      0.345000          0.129109E-03
      0.350000          0.128194E-03
      0.355000          0.127109E-03
      0.360000          0.125815E-03
      0.365000          0.124291E-03
      0.370000          0.122532E-03
      0.375000          0.120543E-03
      0.380000          0.118345E-03
      0.385000          0.115963E-03
      0.390000          0.113435E-03
      0.395000          0.110798E-03
      0.400000          0.108096E-03
      0.405000          0.105371E-03
      0.410000          0.102665E-03
      0.415000          0.100020E-03
      0.420000          0.974715E-04
      0.425000          0.950539E-04
      0.430000          0.927964E-04
      0.435000          0.907239E-04
      0.440000          0.888568E-04
      0.445000          0.872112E-04
      0.450000          0.857993E-04
      0.455000          0.846292E-04
      0.460000          0.837057E-04
      0.465000          0.830302E-04
      0.470000          0.826015E-04
      0.475000          0.824153E-04
      0.480000          0.824651E-04
      0.485000          0.827418E-04
      0.490000          0.832341E-04
      0.495000          0.839287E-04
      0.500000          0.848097E-04
