 I_abs(s)[cm^-1]/c[mg/ml]
       0.00000          0.142189E-01
      0.500000E-02      0.141807E-01
      0.100000E-01      0.140669E-01
      0.150000E-01      0.138792E-01
      0.200000E-01      0.136205E-01
      0.250000E-01      0.132948E-01
      0.300000E-01      0.129069E-01
      0.350000E-01      0.124626E-01
      0.400000E-01      0.119685E-01
      0.450000E-01      0.114315E-01
      0.500000E-01      0.108591E-01
      0.550000E-01      0.102591E-01
      0.600000E-01      0.963918E-02
      0.650000E-01      0.900709E-02
      0.700000E-01      0.837032E-02
      0.750000E-01      0.773596E-02
      0.800000E-01      0.711065E-02
      0.850000E-01      0.650042E-02
      0.900000E-01      0.591061E-02
      0.950000E-01      0.534583E-02
      0.100000          0.480990E-02
      0.105000          0.430585E-02
      0.110000          0.383590E-02
      0.115000          0.340151E-02
      0.120000          0.300339E-02
      0.125000          0.264158E-02
      0.130000          0.231550E-02
      0.135000          0.202404E-02
      0.140000          0.176565E-02
      0.145000          0.153841E-02
      0.150000          0.134011E-02
      0.155000          0.116838E-02
      0.160000          0.102071E-02
      0.165000          0.894565E-03
      0.170000          0.787440E-03
      0.175000          0.696913E-03
      0.180000          0.620692E-03
      0.185000          0.556652E-03
      0.190000          0.502859E-03
      0.195000          0.457588E-03
      0.200000          0.419328E-03
      0.205000          0.386783E-03
      0.210000          0.358860E-03
      0.215000          0.334660E-03
      0.220000          0.313460E-03
      0.225000          0.294690E-03
      0.230000          0.277914E-03
      0.235000          0.262806E-03
      0.240000          0.249128E-03
      0.245000          0.236710E-03
      0.250000          0.225434E-03
      0.255000          0.215212E-03
      0.260000          0.205978E-03
      0.265000          0.197674E-03
      0.270000          0.190244E-03
      0.275000          0.183629E-03
      0.280000          0.177760E-03
      0.285000          0.172564E-03
      0.290000          0.167957E-03
      0.295000          0.163851E-03
      0.300000          0.160156E-03
      0.305000          0.156779E-03
      0.310000          0.153632E-03
      0.315000          0.150635E-03
      0.320000          0.147713E-03
      0.325000          0.144804E-03
      0.330000          0.141860E-03
      0.335000          0.138844E-03
      0.340000          0.135732E-03
      0.345000          0.132515E-03
      0.350000          0.129194E-03
      0.355000          0.125782E-03
      0.360000          0.122300E-03
      0.365000          0.118775E-03
      0.370000          0.115241E-03
      0.375000          0.111732E-03
      0.380000          0.108285E-03
      0.385000          0.104935E-03
      0.390000          0.101717E-03
      0.395000          0.986599E-04
      0.400000          0.957912E-04
      0.405000          0.931323E-04
      0.410000          0.907006E-04
      0.415000          0.885083E-04
      0.420000          0.865633E-04
      0.425000          0.848690E-04
      0.430000          0.834254E-04
      0.435000          0.822289E-04
      0.440000          0.812736E-04
      0.445000          0.805511E-04
      0.450000          0.800518E-04
      0.455000          0.797648E-04
      0.460000          0.796785E-04
      0.465000          0.797809E-04
      0.470000          0.800597E-04
      0.475000          0.805027E-04
      0.480000          0.810979E-04
      0.485000          0.818331E-04
      0.490000          0.826963E-04
      0.495000          0.836755E-04
      0.500000          0.847587E-04
