 I_abs(s)[cm^-1]/c[mg/ml]
       0.00000          0.140544E-01
      0.500000E-02      0.140177E-01
      0.100000E-01      0.139082E-01
      0.150000E-01      0.137275E-01
      0.200000E-01      0.134782E-01
      0.250000E-01      0.131639E-01
      0.300000E-01      0.127892E-01
      0.350000E-01      0.123594E-01
      0.400000E-01      0.118804E-01
      0.450000E-01      0.113588E-01
      0.500000E-01      0.108015E-01
      0.550000E-01      0.102158E-01
      0.600000E-01      0.960890E-02
      0.650000E-01      0.898823E-02
      0.700000E-01      0.836092E-02
      0.750000E-01      0.773386E-02
      0.800000E-01      0.711354E-02
      0.850000E-01      0.650593E-02
      0.900000E-01      0.591644E-02
      0.950000E-01      0.534984E-02
      0.100000          0.481016E-02
      0.105000          0.430074E-02
      0.110000          0.382416E-02
      0.115000          0.338229E-02
      0.120000          0.297627E-02
      0.125000          0.260658E-02
      0.130000          0.227307E-02
      0.135000          0.197504E-02
      0.140000          0.171129E-02
      0.145000          0.148020E-02
      0.150000          0.127980E-02
      0.155000          0.110786E-02
      0.160000          0.961975E-03
      0.165000          0.839594E-03
      0.170000          0.738134E-03
      0.175000          0.655015E-03
      0.180000          0.587727E-03
      0.185000          0.533869E-03
      0.190000          0.491190E-03
      0.195000          0.457617E-03
      0.200000          0.431278E-03
      0.205000          0.410514E-03
      0.210000          0.393887E-03
      0.215000          0.380175E-03
      0.220000          0.368372E-03
      0.225000          0.357670E-03
      0.230000          0.347452E-03
      0.235000          0.337267E-03
      0.240000          0.326814E-03
      0.245000          0.315920E-03
      0.250000          0.304519E-03
      0.255000          0.292630E-03
      0.260000          0.280337E-03
      0.265000          0.267773E-03
      0.270000          0.255098E-03
      0.275000          0.242486E-03
      0.280000          0.230116E-03
      0.285000          0.218153E-03
      0.290000          0.206749E-03
      0.295000          0.196030E-03
      0.300000          0.186094E-03
      0.305000          0.177009E-03
      0.310000          0.168813E-03
      0.315000          0.161513E-03
      0.320000          0.155089E-03
      0.325000          0.149498E-03
      0.330000          0.144673E-03
      0.335000          0.140532E-03
      0.340000          0.136981E-03
      0.345000          0.133918E-03
      0.350000          0.131240E-03
      0.355000          0.128843E-03
      0.360000          0.126627E-03
      0.365000          0.124505E-03
      0.370000          0.122396E-03
      0.375000          0.120234E-03
      0.380000          0.117968E-03
      0.385000          0.115562E-03
      0.390000          0.112995E-03
      0.395000          0.110261E-03
      0.400000          0.107370E-03
      0.405000          0.104342E-03
      0.410000          0.101210E-03
      0.415000          0.980159E-04
      0.420000          0.948078E-04
      0.425000          0.916390E-04
      0.430000          0.885652E-04
      0.435000          0.856420E-04
      0.440000          0.829233E-04
      0.445000          0.804588E-04
      0.450000          0.782931E-04
      0.455000          0.764635E-04
      0.460000          0.749995E-04
      0.465000          0.739220E-04
      0.470000          0.732423E-04
      0.475000          0.729628E-04
      0.480000          0.730765E-04
      0.485000          0.735675E-04
      0.490000          0.744120E-04
      0.495000          0.755790E-04
      0.500000          0.770310E-04
