 I_abs(s)[cm^-1]/c[mg/ml]
       0.00000          0.140935E-01
      0.500000E-02      0.140530E-01
      0.100000E-01      0.139322E-01
      0.150000E-01      0.137333E-01
      0.200000E-01      0.134593E-01
      0.250000E-01      0.131150E-01
      0.300000E-01      0.127058E-01
      0.350000E-01      0.122384E-01
      0.400000E-01      0.117200E-01
      0.450000E-01      0.111586E-01
      0.500000E-01      0.105626E-01
      0.550000E-01      0.994066E-02
      0.600000E-01      0.930131E-02
      0.650000E-01      0.865307E-02
      0.700000E-01      0.800409E-02
      0.750000E-01      0.736201E-02
      0.800000E-01      0.673389E-02
      0.850000E-01      0.612598E-02
      0.900000E-01      0.554374E-02
      0.950000E-01      0.499170E-02
      0.100000          0.447347E-02
      0.105000          0.399171E-02
      0.110000          0.354816E-02
      0.115000          0.314365E-02
      0.120000          0.277821E-02
      0.125000          0.245113E-02
      0.130000          0.216102E-02
      0.135000          0.190597E-02
      0.140000          0.168363E-02
      0.145000          0.149130E-02
      0.150000          0.132610E-02
      0.155000          0.118499E-02
      0.160000          0.106496E-02
      0.165000          0.963030E-03
      0.170000          0.876389E-03
      0.175000          0.802413E-03
      0.180000          0.738731E-03
      0.185000          0.683250E-03
      0.190000          0.634174E-03
      0.195000          0.590011E-03
      0.200000          0.549562E-03
      0.205000          0.511911E-03
      0.210000          0.476397E-03
      0.215000          0.442586E-03
      0.220000          0.410234E-03
      0.225000          0.379254E-03
      0.230000          0.349675E-03
      0.235000          0.321612E-03
      0.240000          0.295226E-03
      0.245000          0.270699E-03
      0.250000          0.248208E-03
      0.255000          0.227901E-03
      0.260000          0.209888E-03
      0.265000          0.194224E-03
      0.270000          0.180907E-03
      0.275000          0.169877E-03
      0.280000          0.161017E-03
      0.285000          0.154160E-03
      0.290000          0.149099E-03
      0.295000          0.145591E-03
      0.300000          0.143376E-03
      0.305000          0.142181E-03
      0.310000          0.141736E-03
      0.315000          0.141780E-03
      0.320000          0.142072E-03
      0.325000          0.142397E-03
      0.330000          0.142570E-03
      0.335000          0.142444E-03
      0.340000          0.141907E-03
      0.345000          0.140881E-03
      0.350000          0.139329E-03
      0.355000          0.137241E-03
      0.360000          0.134640E-03
      0.365000          0.131569E-03
      0.370000          0.128094E-03
      0.375000          0.124295E-03
      0.380000          0.120260E-03
      0.385000          0.116082E-03
      0.390000          0.111855E-03
      0.395000          0.107670E-03
      0.400000          0.103611E-03
      0.405000          0.997521E-04
      0.410000          0.961582E-04
      0.415000          0.928819E-04
      0.420000          0.899634E-04
      0.425000          0.874308E-04
      0.430000          0.853004E-04
      0.435000          0.835774E-04
      0.440000          0.822573E-04
      0.445000          0.813268E-04
      0.450000          0.807654E-04
      0.455000          0.805467E-04
      0.460000          0.806399E-04
      0.465000          0.810105E-04
      0.470000          0.816221E-04
      0.475000          0.824370E-04
      0.480000          0.834173E-04
      0.485000          0.845252E-04
      0.490000          0.857242E-04
      0.495000          0.869792E-04
      0.500000          0.882568E-04
