 I_abs(s)[cm^-1]/c[mg/ml]
       0.00000          0.140232E-01
      0.500000E-02      0.139799E-01
      0.100000E-01      0.138511E-01
      0.150000E-01      0.136388E-01
      0.200000E-01      0.133469E-01
      0.250000E-01      0.129804E-01
      0.300000E-01      0.125457E-01
      0.350000E-01      0.120501E-01
      0.400000E-01      0.115019E-01
      0.450000E-01      0.109099E-01
      0.500000E-01      0.102835E-01
      0.550000E-01      0.963220E-02
      0.600000E-01      0.896548E-02
      0.650000E-01      0.829264E-02
      0.700000E-01      0.762251E-02
      0.750000E-01      0.696332E-02
      0.800000E-01      0.632252E-02
      0.850000E-01      0.570668E-02
      0.900000E-01      0.512138E-02
      0.950000E-01      0.457114E-02
      0.100000          0.405943E-02
      0.105000          0.358863E-02
      0.110000          0.316010E-02
      0.115000          0.277420E-02
      0.120000          0.243042E-02
      0.125000          0.212745E-02
      0.130000          0.186330E-02
      0.135000          0.163545E-02
      0.140000          0.144093E-02
      0.145000          0.127652E-02
      0.150000          0.113879E-02
      0.155000          0.102429E-02
      0.160000          0.929625E-03
      0.165000          0.851519E-03
      0.170000          0.786937E-03
      0.175000          0.733113E-03
      0.180000          0.687600E-03
      0.185000          0.648292E-03
      0.190000          0.613436E-03
      0.195000          0.581626E-03
      0.200000          0.551784E-03
      0.205000          0.523138E-03
      0.210000          0.495183E-03
      0.215000          0.467648E-03
      0.220000          0.440445E-03
      0.225000          0.413635E-03
      0.230000          0.387383E-03
      0.235000          0.361918E-03
      0.240000          0.337497E-03
      0.245000          0.314383E-03
      0.250000          0.292810E-03
      0.255000          0.272974E-03
      0.260000          0.255017E-03
      0.265000          0.239017E-03
      0.270000          0.224992E-03
      0.275000          0.212898E-03
      0.280000          0.202637E-03
      0.285000          0.194064E-03
      0.290000          0.186998E-03
      0.295000          0.181232E-03
      0.300000          0.176546E-03
      0.305000          0.172716E-03
      0.310000          0.169523E-03
      0.315000          0.166766E-03
      0.320000          0.164261E-03
      0.325000          0.161853E-03
      0.330000          0.159414E-03
      0.335000          0.156847E-03
      0.340000          0.154086E-03
      0.345000          0.151089E-03
      0.350000          0.147845E-03
      0.355000          0.144359E-03
      0.360000          0.140660E-03
      0.365000          0.136787E-03
      0.370000          0.132788E-03
      0.375000          0.128720E-03
      0.380000          0.124641E-03
      0.385000          0.120608E-03
      0.390000          0.116675E-03
      0.395000          0.112892E-03
      0.400000          0.109304E-03
      0.405000          0.105947E-03
      0.410000          0.102852E-03
      0.415000          0.100044E-03
      0.420000          0.975394E-04
      0.425000          0.953511E-04
      0.430000          0.934861E-04
      0.435000          0.919470E-04
      0.440000          0.907327E-04
      0.445000          0.898389E-04
      0.450000          0.892581E-04
      0.455000          0.889802E-04
      0.460000          0.889926E-04
      0.465000          0.892797E-04
      0.470000          0.898236E-04
      0.475000          0.906035E-04
      0.480000          0.915956E-04
      0.485000          0.927733E-04
      0.490000          0.941072E-04
      0.495000          0.955650E-04
      0.500000          0.971122E-04
