 I_abs(s)[cm^-1]/c[mg/ml]
       0.00000          0.140935E-01
      0.500000E-02      0.140484E-01
      0.100000E-01      0.139141E-01
      0.150000E-01      0.136931E-01
      0.200000E-01      0.133893E-01
      0.250000E-01      0.130083E-01
      0.300000E-01      0.125570E-01
      0.350000E-01      0.120432E-01
      0.400000E-01      0.114759E-01
      0.450000E-01      0.108646E-01
      0.500000E-01      0.102192E-01
      0.550000E-01      0.954980E-02
      0.600000E-01      0.886653E-02
      0.650000E-01      0.817911E-02
      0.700000E-01      0.749674E-02
      0.750000E-01      0.682792E-02
      0.800000E-01      0.618029E-02
      0.850000E-01      0.556045E-02
      0.900000E-01      0.497393E-02
      0.950000E-01      0.442510E-02
      0.100000          0.391719E-02
      0.105000          0.345226E-02
      0.110000          0.303130E-02
      0.115000          0.265429E-02
      0.120000          0.232027E-02
      0.125000          0.202755E-02
      0.130000          0.177374E-02
      0.135000          0.155597E-02
      0.140000          0.137098E-02
      0.145000          0.121529E-02
      0.150000          0.108534E-02
      0.155000          0.977545E-03
      0.160000          0.888480E-03
      0.165000          0.814910E-03
      0.170000          0.753874E-03
      0.175000          0.702738E-03
      0.180000          0.659215E-03
      0.185000          0.621385E-03
      0.190000          0.587688E-03
      0.195000          0.556907E-03
      0.200000          0.528141E-03
      0.205000          0.500770E-03
      0.210000          0.474412E-03
      0.215000          0.448879E-03
      0.220000          0.424132E-03
      0.225000          0.400239E-03
      0.230000          0.377332E-03
      0.235000          0.355578E-03
      0.240000          0.335142E-03
      0.245000          0.316171E-03
      0.250000          0.298772E-03
      0.255000          0.283007E-03
      0.260000          0.268884E-03
      0.265000          0.256359E-03
      0.270000          0.245341E-03
      0.275000          0.235701E-03
      0.280000          0.227277E-03
      0.285000          0.219892E-03
      0.290000          0.213357E-03
      0.295000          0.207490E-03
      0.300000          0.202118E-03
      0.305000          0.197088E-03
      0.310000          0.192274E-03
      0.315000          0.187577E-03
      0.320000          0.182928E-03
      0.325000          0.178288E-03
      0.330000          0.173646E-03
      0.335000          0.169011E-03
      0.340000          0.164413E-03
      0.345000          0.159896E-03
      0.350000          0.155508E-03
      0.355000          0.151302E-03
      0.360000          0.147327E-03
      0.365000          0.143625E-03
      0.370000          0.140229E-03
      0.375000          0.137157E-03
      0.380000          0.134416E-03
      0.385000          0.131998E-03
      0.390000          0.129881E-03
      0.395000          0.128032E-03
      0.400000          0.126411E-03
      0.405000          0.124970E-03
      0.410000          0.123656E-03
      0.415000          0.122418E-03
      0.420000          0.121208E-03
      0.425000          0.119980E-03
      0.430000          0.118699E-03
      0.435000          0.117337E-03
      0.440000          0.115877E-03
      0.445000          0.114311E-03
      0.450000          0.112645E-03
      0.455000          0.110892E-03
      0.460000          0.109075E-03
      0.465000          0.107224E-03
      0.470000          0.105376E-03
      0.475000          0.103568E-03
      0.480000          0.101841E-03
      0.485000          0.100236E-03
      0.490000          0.987890E-04
      0.495000          0.975318E-04
      0.500000          0.964908E-04
