 I_abs(s)[cm^-1]/c[mg/ml]
       0.00000          0.134137E-01
      0.500000E-02      0.133593E-01
      0.100000E-01      0.131975E-01
      0.150000E-01      0.129321E-01
      0.200000E-01      0.125692E-01
      0.250000E-01      0.121171E-01
      0.300000E-01      0.115860E-01
      0.350000E-01      0.109876E-01
      0.400000E-01      0.103349E-01
      0.450000E-01      0.964152E-02
      0.500000E-01      0.892134E-02
      0.550000E-01      0.818823E-02
      0.600000E-01      0.745548E-02
      0.650000E-01      0.673552E-02
      0.700000E-01      0.603955E-02
      0.750000E-01      0.537734E-02
      0.800000E-01      0.475694E-02
      0.850000E-01      0.418466E-02
      0.900000E-01      0.366495E-02
      0.950000E-01      0.320042E-02
      0.100000          0.279197E-02
      0.105000          0.243887E-02
      0.110000          0.213896E-02
      0.115000          0.188890E-02
      0.120000          0.168437E-02
      0.125000          0.152038E-02
      0.130000          0.139148E-02
      0.135000          0.129202E-02
      0.140000          0.121641E-02
      0.145000          0.115928E-02
      0.150000          0.111567E-02
      0.155000          0.108116E-02
      0.160000          0.105194E-02
      0.165000          0.102489E-02
      0.170000          0.997592E-03
      0.175000          0.968301E-03
      0.180000          0.935908E-03
      0.185000          0.899871E-03
      0.190000          0.860138E-03
      0.195000          0.817046E-03
      0.200000          0.771228E-03
      0.205000          0.723519E-03
      0.210000          0.674860E-03
      0.215000          0.626223E-03
      0.220000          0.578539E-03
      0.225000          0.532649E-03
      0.230000          0.489260E-03
      0.235000          0.448923E-03
      0.240000          0.412024E-03
      0.245000          0.378783E-03
      0.250000          0.349265E-03
      0.255000          0.323402E-03
      0.260000          0.301010E-03
      0.265000          0.281826E-03
      0.270000          0.265524E-03
      0.275000          0.251749E-03
      0.280000          0.240137E-03
      0.285000          0.230332E-03
      0.290000          0.222008E-03
      0.295000          0.214870E-03
      0.300000          0.208669E-03
      0.305000          0.203197E-03
      0.310000          0.198289E-03
      0.315000          0.193818E-03
      0.320000          0.189688E-03
      0.325000          0.185830E-03
      0.330000          0.182191E-03
      0.335000          0.178733E-03
      0.340000          0.175421E-03
      0.345000          0.172224E-03
      0.350000          0.169111E-03
      0.355000          0.166048E-03
      0.360000          0.163000E-03
      0.365000          0.159933E-03
      0.370000          0.156813E-03
      0.375000          0.153612E-03
      0.380000          0.150308E-03
      0.385000          0.146889E-03
      0.390000          0.143355E-03
      0.395000          0.139717E-03
      0.400000          0.135999E-03
      0.405000          0.132238E-03
      0.410000          0.128481E-03
      0.415000          0.124784E-03
      0.420000          0.121206E-03
      0.425000          0.117811E-03
      0.430000          0.114660E-03
      0.435000          0.111811E-03
      0.440000          0.109311E-03
      0.445000          0.107200E-03
      0.450000          0.105504E-03
      0.455000          0.104234E-03
      0.460000          0.103388E-03
      0.465000          0.102951E-03
      0.470000          0.102891E-03
      0.475000          0.103169E-03
      0.480000          0.103734E-03
      0.485000          0.104528E-03
      0.490000          0.105490E-03
      0.495000          0.106558E-03
      0.500000          0.107670E-03
