 I_abs(s)[cm^-1]/c[mg/ml]
       0.00000          0.141013E-01
      0.500000E-02      0.140576E-01
      0.100000E-01      0.139272E-01
      0.150000E-01      0.137125E-01
      0.200000E-01      0.134173E-01
      0.250000E-01      0.130468E-01
      0.300000E-01      0.126075E-01
      0.350000E-01      0.121068E-01
      0.400000E-01      0.115532E-01
      0.450000E-01      0.109557E-01
      0.500000E-01      0.103238E-01
      0.550000E-01      0.966708E-02
      0.600000E-01      0.899526E-02
      0.650000E-01      0.831769E-02
      0.700000E-01      0.764328E-02
      0.750000E-01      0.698032E-02
      0.800000E-01      0.633628E-02
      0.850000E-01      0.571774E-02
      0.900000E-01      0.513023E-02
      0.950000E-01      0.457825E-02
      0.100000          0.406520E-02
      0.105000          0.359339E-02
      0.110000          0.316410E-02
      0.115000          0.277762E-02
      0.120000          0.243338E-02
      0.125000          0.212999E-02
      0.130000          0.186543E-02
      0.135000          0.163714E-02
      0.140000          0.144215E-02
      0.145000          0.127720E-02
      0.150000          0.113892E-02
      0.155000          0.102386E-02
      0.160000          0.928658E-03
      0.165000          0.850100E-03
      0.170000          0.785187E-03
      0.175000          0.731199E-03
      0.180000          0.685730E-03
      0.185000          0.646704E-03
      0.190000          0.612391E-03
      0.195000          0.581391E-03
      0.200000          0.552622E-03
      0.205000          0.525291E-03
      0.210000          0.498861E-03
      0.215000          0.473012E-03
      0.220000          0.447604E-03
      0.225000          0.422636E-03
      0.230000          0.398206E-03
      0.235000          0.374474E-03
      0.240000          0.351638E-03
      0.245000          0.329898E-03
      0.250000          0.309442E-03
      0.255000          0.290426E-03
      0.260000          0.272963E-03
      0.265000          0.257121E-03
      0.270000          0.242918E-03
      0.275000          0.230324E-03
      0.280000          0.219267E-03
      0.285000          0.209641E-03
      0.290000          0.201312E-03
      0.295000          0.194126E-03
      0.300000          0.187922E-03
      0.305000          0.182536E-03
      0.310000          0.177812E-03
      0.315000          0.173603E-03
      0.320000          0.169781E-03
      0.325000          0.166236E-03
      0.330000          0.162882E-03
      0.335000          0.159652E-03
      0.340000          0.156501E-03
      0.345000          0.153403E-03
      0.350000          0.150348E-03
      0.355000          0.147338E-03
      0.360000          0.144387E-03
      0.365000          0.141514E-03
      0.370000          0.138741E-03
      0.375000          0.136092E-03
      0.380000          0.133585E-03
      0.385000          0.131238E-03
      0.390000          0.129061E-03
      0.395000          0.127059E-03
      0.400000          0.125227E-03
      0.405000          0.123558E-03
      0.410000          0.122036E-03
      0.415000          0.120641E-03
      0.420000          0.119348E-03
      0.425000          0.118132E-03
      0.430000          0.116964E-03
      0.435000          0.115819E-03
      0.440000          0.114670E-03
      0.445000          0.113495E-03
      0.450000          0.112275E-03
      0.455000          0.110996E-03
      0.460000          0.109649E-03
      0.465000          0.108230E-03
      0.470000          0.106740E-03
      0.475000          0.105185E-03
      0.480000          0.103575E-03
      0.485000          0.101926E-03
      0.490000          0.100254E-03
      0.495000          0.985783E-04
      0.500000          0.969199E-04
