 I_abs(s)[cm^-1]/c[mg/ml]
       0.00000          0.140544E-01
      0.500000E-02      0.140142E-01
      0.100000E-01      0.138944E-01
      0.150000E-01      0.136969E-01
      0.200000E-01      0.134249E-01
      0.250000E-01      0.130829E-01
      0.300000E-01      0.126764E-01
      0.350000E-01      0.122117E-01
      0.400000E-01      0.116961E-01
      0.450000E-01      0.111374E-01
      0.500000E-01      0.105439E-01
      0.550000E-01      0.992395E-02
      0.600000E-01      0.928612E-02
      0.650000E-01      0.863880E-02
      0.700000E-01      0.799005E-02
      0.750000E-01      0.734750E-02
      0.800000E-01      0.671814E-02
      0.850000E-01      0.610826E-02
      0.900000E-01      0.552336E-02
      0.950000E-01      0.496803E-02
      0.100000          0.444600E-02
      0.105000          0.396002E-02
      0.110000          0.351198E-02
      0.115000          0.310287E-02
      0.120000          0.273289E-02
      0.125000          0.240146E-02
      0.130000          0.210739E-02
      0.135000          0.184889E-02
      0.140000          0.162376E-02
      0.145000          0.142943E-02
      0.150000          0.126308E-02
      0.155000          0.112177E-02
      0.160000          0.100250E-02
      0.165000          0.902333E-03
      0.170000          0.818410E-03
      0.175000          0.748068E-03
      0.180000          0.688859E-03
      0.185000          0.638591E-03
      0.190000          0.595352E-03
      0.195000          0.557514E-03
      0.200000          0.523736E-03
      0.205000          0.492953E-03
      0.210000          0.464354E-03
      0.215000          0.437359E-03
      0.220000          0.411587E-03
      0.225000          0.386827E-03
      0.230000          0.363001E-03
      0.235000          0.340131E-03
      0.240000          0.318311E-03
      0.245000          0.297675E-03
      0.250000          0.278370E-03
      0.255000          0.260541E-03
      0.260000          0.244308E-03
      0.265000          0.229759E-03
      0.270000          0.216939E-03
      0.275000          0.205844E-03
      0.280000          0.196428E-03
      0.285000          0.188598E-03
      0.290000          0.182223E-03
      0.295000          0.177142E-03
      0.300000          0.173170E-03
      0.305000          0.170106E-03
      0.310000          0.167746E-03
      0.315000          0.165885E-03
      0.320000          0.164332E-03
      0.325000          0.162910E-03
      0.330000          0.161463E-03
      0.335000          0.159863E-03
      0.340000          0.158007E-03
      0.345000          0.155821E-03
      0.350000          0.153261E-03
      0.355000          0.150306E-03
      0.360000          0.146962E-03
      0.365000          0.143255E-03
      0.370000          0.139230E-03
      0.375000          0.134943E-03
      0.380000          0.130464E-03
      0.385000          0.125865E-03
      0.390000          0.121223E-03
      0.395000          0.116615E-03
      0.400000          0.112113E-03
      0.405000          0.107785E-03
      0.410000          0.103690E-03
      0.415000          0.998814E-04
      0.420000          0.964010E-04
      0.425000          0.932822E-04
      0.430000          0.905489E-04
      0.435000          0.882158E-04
      0.440000          0.862891E-04
      0.445000          0.847673E-04
      0.450000          0.836420E-04
      0.455000          0.828988E-04
      0.460000          0.825183E-04
      0.465000          0.824765E-04
      0.470000          0.827465E-04
      0.475000          0.832982E-04
      0.480000          0.840997E-04
      0.485000          0.851175E-04
      0.490000          0.863169E-04
      0.495000          0.876628E-04
      0.500000          0.891196E-04
