 I_abs(s)[cm^-1]/c[mg/ml]
       0.00000          0.141953E-01
      0.500000E-02      0.141579E-01
      0.100000E-01      0.140464E-01
      0.150000E-01      0.138624E-01
      0.200000E-01      0.136086E-01
      0.250000E-01      0.132888E-01
      0.300000E-01      0.129077E-01
      0.350000E-01      0.124707E-01
      0.400000E-01      0.119841E-01
      0.450000E-01      0.114545E-01
      0.500000E-01      0.108892E-01
      0.550000E-01      0.102956E-01
      0.600000E-01      0.968114E-02
      0.650000E-01      0.905346E-02
      0.700000E-01      0.841985E-02
      0.750000E-01      0.778735E-02
      0.800000E-01      0.716254E-02
      0.850000E-01      0.655148E-02
      0.900000E-01      0.595962E-02
      0.950000E-01      0.539170E-02
      0.100000          0.485174E-02
      0.105000          0.434297E-02
      0.110000          0.386787E-02
      0.115000          0.342815E-02
      0.120000          0.302478E-02
      0.125000          0.265804E-02
      0.130000          0.232758E-02
      0.135000          0.203250E-02
      0.140000          0.177137E-02
      0.145000          0.154238E-02
      0.150000          0.134340E-02
      0.155000          0.117204E-02
      0.160000          0.102576E-02
      0.165000          0.901935E-03
      0.170000          0.797921E-03
      0.175000          0.711134E-03
      0.180000          0.639094E-03
      0.185000          0.579470E-03
      0.190000          0.530116E-03
      0.195000          0.489099E-03
      0.200000          0.454713E-03
      0.205000          0.425486E-03
      0.210000          0.400181E-03
      0.215000          0.377786E-03
      0.220000          0.357502E-03
      0.225000          0.338724E-03
      0.230000          0.321019E-03
      0.235000          0.304104E-03
      0.240000          0.287819E-03
      0.245000          0.272102E-03
      0.250000          0.256964E-03
      0.255000          0.242470E-03
      0.260000          0.228713E-03
      0.265000          0.215802E-03
      0.270000          0.203843E-03
      0.275000          0.192926E-03
      0.280000          0.183123E-03
      0.285000          0.174475E-03
      0.290000          0.166990E-03
      0.295000          0.160648E-03
      0.300000          0.155393E-03
      0.305000          0.151147E-03
      0.310000          0.147803E-03
      0.315000          0.145238E-03
      0.320000          0.143317E-03
      0.325000          0.141898E-03
      0.330000          0.140835E-03
      0.335000          0.139991E-03
      0.340000          0.139234E-03
      0.345000          0.138447E-03
      0.350000          0.137527E-03
      0.355000          0.136393E-03
      0.360000          0.134980E-03
      0.365000          0.133245E-03
      0.370000          0.131166E-03
      0.375000          0.128737E-03
      0.380000          0.125973E-03
      0.385000          0.122902E-03
      0.390000          0.119567E-03
      0.395000          0.116021E-03
      0.400000          0.112325E-03
      0.405000          0.108544E-03
      0.410000          0.104747E-03
      0.415000          0.101004E-03
      0.420000          0.973814E-04
      0.425000          0.939417E-04
      0.430000          0.907423E-04
      0.435000          0.878332E-04
      0.440000          0.852565E-04
      0.445000          0.830453E-04
      0.450000          0.812238E-04
      0.455000          0.798066E-04
      0.460000          0.787994E-04
      0.465000          0.781990E-04
      0.470000          0.779940E-04
      0.475000          0.781655E-04
      0.480000          0.786879E-04
      0.485000          0.795301E-04
      0.490000          0.806559E-04
      0.495000          0.820259E-04
      0.500000          0.835975E-04
