 I_abs(s)[cm^-1]/c[mg/ml]
       0.00000          0.142660E-01
      0.500000E-02      0.142269E-01
      0.100000E-01      0.141099E-01
      0.150000E-01      0.139172E-01
      0.200000E-01      0.136516E-01
      0.250000E-01      0.133172E-01
      0.300000E-01      0.129194E-01
      0.350000E-01      0.124641E-01
      0.400000E-01      0.119581E-01
      0.450000E-01      0.114087E-01
      0.500000E-01      0.108239E-01
      0.550000E-01      0.102116E-01
      0.600000E-01      0.958001E-02
      0.650000E-01      0.893707E-02
      0.700000E-01      0.829060E-02
      0.750000E-01      0.764796E-02
      0.800000E-01      0.701599E-02
      0.850000E-01      0.640090E-02
      0.900000E-01      0.580814E-02
      0.950000E-01      0.524240E-02
      0.100000          0.470752E-02
      0.105000          0.420648E-02
      0.110000          0.374142E-02
      0.115000          0.331367E-02
      0.120000          0.292376E-02
      0.125000          0.257153E-02
      0.130000          0.225616E-02
      0.135000          0.197629E-02
      0.140000          0.173009E-02
      0.145000          0.151535E-02
      0.150000          0.132960E-02
      0.155000          0.117018E-02
      0.160000          0.103433E-02
      0.165000          0.919297E-03
      0.170000          0.822348E-03
      0.175000          0.740888E-03
      0.180000          0.672478E-03
      0.185000          0.614887E-03
      0.190000          0.566109E-03
      0.195000          0.524385E-03
      0.200000          0.488207E-03
      0.205000          0.456317E-03
      0.210000          0.427693E-03
      0.215000          0.401536E-03
      0.220000          0.377248E-03
      0.225000          0.354404E-03
      0.230000          0.332729E-03
      0.235000          0.312070E-03
      0.240000          0.292368E-03
      0.245000          0.273630E-03
      0.250000          0.255914E-03
      0.255000          0.239297E-03
      0.260000          0.223869E-03
      0.265000          0.209709E-03
      0.270000          0.196882E-03
      0.275000          0.185428E-03
      0.280000          0.175356E-03
      0.285000          0.166648E-03
      0.290000          0.159254E-03
      0.295000          0.153096E-03
      0.300000          0.148073E-03
      0.305000          0.144067E-03
      0.310000          0.140945E-03
      0.315000          0.138565E-03
      0.320000          0.136787E-03
      0.325000          0.135469E-03
      0.330000          0.134479E-03
      0.335000          0.133694E-03
      0.340000          0.133006E-03
      0.345000          0.132321E-03
      0.350000          0.131564E-03
      0.355000          0.130674E-03
      0.360000          0.129608E-03
      0.365000          0.128338E-03
      0.370000          0.126853E-03
      0.375000          0.125151E-03
      0.380000          0.123243E-03
      0.385000          0.121147E-03
      0.390000          0.118889E-03
      0.395000          0.116501E-03
      0.400000          0.114015E-03
      0.405000          0.111466E-03
      0.410000          0.108891E-03
      0.415000          0.106322E-03
      0.420000          0.103792E-03
      0.425000          0.101331E-03
      0.430000          0.989674E-04
      0.435000          0.967240E-04
      0.440000          0.946221E-04
      0.445000          0.926796E-04
      0.450000          0.909113E-04
      0.455000          0.893291E-04
      0.460000          0.879421E-04
      0.465000          0.867568E-04
      0.470000          0.857774E-04
      0.475000          0.850056E-04
      0.480000          0.844408E-04
      0.485000          0.840802E-04
      0.490000          0.839188E-04
      0.495000          0.839492E-04
      0.500000          0.841619E-04
