 I_abs(s)[cm^-1]/c[mg/ml]
       0.00000          0.135667E-01
      0.500000E-02      0.135166E-01
      0.100000E-01      0.133674E-01
      0.150000E-01      0.131221E-01
      0.200000E-01      0.127860E-01
      0.250000E-01      0.123658E-01
      0.300000E-01      0.118701E-01
      0.350000E-01      0.113088E-01
      0.400000E-01      0.106927E-01
      0.450000E-01      0.100336E-01
      0.500000E-01      0.934341E-02
      0.550000E-01      0.863434E-02
      0.600000E-01      0.791826E-02
      0.650000E-01      0.720650E-02
      0.700000E-01      0.650954E-02
      0.750000E-01      0.583684E-02
      0.800000E-01      0.519658E-02
      0.850000E-01      0.459557E-02
      0.900000E-01      0.403915E-02
      0.950000E-01      0.353116E-02
      0.100000          0.307394E-02
      0.105000          0.266842E-02
      0.110000          0.231420E-02
      0.115000          0.200971E-02
      0.120000          0.175236E-02
      0.125000          0.153873E-02
      0.130000          0.136479E-02
      0.135000          0.122602E-02
      0.140000          0.111770E-02
      0.145000          0.103503E-02
      0.150000          0.973299E-03
      0.155000          0.928030E-03
      0.160000          0.895101E-03
      0.165000          0.870821E-03
      0.170000          0.851996E-03
      0.175000          0.835960E-03
      0.180000          0.820582E-03
      0.185000          0.804254E-03
      0.190000          0.785857E-03
      0.195000          0.764714E-03
      0.200000          0.740532E-03
      0.205000          0.713337E-03
      0.210000          0.683406E-03
      0.215000          0.651199E-03
      0.220000          0.617296E-03
      0.225000          0.582339E-03
      0.230000          0.546983E-03
      0.235000          0.511854E-03
      0.240000          0.477516E-03
      0.245000          0.444452E-03
      0.250000          0.413051E-03
      0.255000          0.383597E-03
      0.260000          0.356277E-03
      0.265000          0.331188E-03
      0.270000          0.308341E-03
      0.275000          0.287685E-03
      0.280000          0.269112E-03
      0.285000          0.252481E-03
      0.290000          0.237623E-03
      0.295000          0.224361E-03
      0.300000          0.212519E-03
      0.305000          0.201927E-03
      0.310000          0.192428E-03
      0.315000          0.183884E-03
      0.320000          0.176173E-03
      0.325000          0.169193E-03
      0.330000          0.162858E-03
      0.335000          0.157094E-03
      0.340000          0.151842E-03
      0.345000          0.147050E-03
      0.350000          0.142672E-03
      0.355000          0.138666E-03
      0.360000          0.134993E-03
      0.365000          0.131615E-03
      0.370000          0.128498E-03
      0.375000          0.125607E-03
      0.380000          0.122910E-03
      0.385000          0.120381E-03
      0.390000          0.117994E-03
      0.395000          0.115731E-03
      0.400000          0.113579E-03
      0.405000          0.111531E-03
      0.410000          0.109586E-03
      0.415000          0.107748E-03
      0.420000          0.106027E-03
      0.425000          0.104434E-03
      0.430000          0.102983E-03
      0.435000          0.101691E-03
      0.440000          0.100569E-03
      0.445000          0.996298E-04
      0.450000          0.988802E-04
      0.455000          0.983230E-04
      0.460000          0.979557E-04
      0.465000          0.977699E-04
      0.470000          0.977523E-04
      0.475000          0.978846E-04
      0.480000          0.981444E-04
      0.485000          0.985067E-04
      0.490000          0.989446E-04
      0.495000          0.994309E-04
      0.500000          0.999396E-04
