 I_abs(s)[cm^-1]/c[mg/ml]
       0.00000          0.142267E-01
      0.500000E-02      0.141862E-01
      0.100000E-01      0.140655E-01
      0.150000E-01      0.138666E-01
      0.200000E-01      0.135929E-01
      0.250000E-01      0.132493E-01
      0.300000E-01      0.128414E-01
      0.350000E-01      0.123761E-01
      0.400000E-01      0.118608E-01
      0.450000E-01      0.113037E-01
      0.500000E-01      0.107132E-01
      0.550000E-01      0.100979E-01
      0.600000E-01      0.946645E-02
      0.650000E-01      0.882715E-02
      0.700000E-01      0.818789E-02
      0.750000E-01      0.755600E-02
      0.800000E-01      0.693809E-02
      0.850000E-01      0.633998E-02
      0.900000E-01      0.576659E-02
      0.950000E-01      0.522195E-02
      0.100000          0.470914E-02
      0.105000          0.423035E-02
      0.110000          0.378689E-02
      0.115000          0.337927E-02
      0.120000          0.300729E-02
      0.125000          0.267014E-02
      0.130000          0.236645E-02
      0.135000          0.209448E-02
      0.140000          0.185216E-02
      0.145000          0.163721E-02
      0.150000          0.144725E-02
      0.155000          0.127986E-02
      0.160000          0.113266E-02
      0.165000          0.100339E-02
      0.170000          0.889931E-03
      0.175000          0.790326E-03
      0.180000          0.702831E-03
      0.185000          0.625903E-03
      0.190000          0.558204E-03
      0.195000          0.498589E-03
      0.200000          0.446088E-03
      0.205000          0.399890E-03
      0.210000          0.359318E-03
      0.215000          0.323804E-03
      0.220000          0.292869E-03
      0.225000          0.266099E-03
      0.230000          0.243129E-03
      0.235000          0.223626E-03
      0.240000          0.207276E-03
      0.245000          0.193779E-03
      0.250000          0.182839E-03
      0.255000          0.174166E-03
      0.260000          0.167471E-03
      0.265000          0.162474E-03
      0.270000          0.158901E-03
      0.275000          0.156489E-03
      0.280000          0.154994E-03
      0.285000          0.154189E-03
      0.290000          0.153869E-03
      0.295000          0.153856E-03
      0.300000          0.153995E-03
      0.305000          0.154159E-03
      0.310000          0.154244E-03
      0.315000          0.154173E-03
      0.320000          0.153888E-03
      0.325000          0.153350E-03
      0.330000          0.152537E-03
      0.335000          0.151438E-03
      0.340000          0.150053E-03
      0.345000          0.148389E-03
      0.350000          0.146458E-03
      0.355000          0.144273E-03
      0.360000          0.141849E-03
      0.365000          0.139203E-03
      0.370000          0.136350E-03
      0.375000          0.133306E-03
      0.380000          0.130087E-03
      0.385000          0.126709E-03
      0.390000          0.123190E-03
      0.395000          0.119551E-03
      0.400000          0.115815E-03
      0.405000          0.112007E-03
      0.410000          0.108157E-03
      0.415000          0.104300E-03
      0.420000          0.100472E-03
      0.425000          0.967141E-04
      0.430000          0.930693E-04
      0.435000          0.895823E-04
      0.440000          0.862983E-04
      0.445000          0.832618E-04
      0.450000          0.805154E-04
      0.455000          0.780980E-04
      0.460000          0.760440E-04
      0.465000          0.743818E-04
      0.470000          0.731326E-04
      0.475000          0.723098E-04
      0.480000          0.719181E-04
      0.485000          0.719534E-04
      0.490000          0.724024E-04
      0.495000          0.732431E-04
      0.500000          0.744452E-04
