 I_abs(s)[cm^-1]/c[mg/ml]
       0.00000          0.138753E-01
      0.500000E-02      0.138314E-01
      0.100000E-01      0.137005E-01
      0.150000E-01      0.134848E-01
      0.200000E-01      0.131883E-01
      0.250000E-01      0.128162E-01
      0.300000E-01      0.123750E-01
      0.350000E-01      0.118723E-01
      0.400000E-01      0.113166E-01
      0.450000E-01      0.107170E-01
      0.500000E-01      0.100830E-01
      0.550000E-01      0.942451E-02
      0.600000E-01      0.875116E-02
      0.650000E-01      0.807248E-02
      0.700000E-01      0.739749E-02
      0.750000E-01      0.673457E-02
      0.800000E-01      0.609132E-02
      0.850000E-01      0.547441E-02
      0.900000E-01      0.488948E-02
      0.950000E-01      0.434110E-02
      0.100000          0.383274E-02
      0.105000          0.336678E-02
      0.110000          0.294452E-02
      0.115000          0.256629E-02
      0.120000          0.223149E-02
      0.125000          0.193872E-02
      0.130000          0.168591E-02
      0.135000          0.147041E-02
      0.140000          0.128916E-02
      0.145000          0.113880E-02
      0.150000          0.101578E-02
      0.155000          0.916514E-03
      0.160000          0.837456E-03
      0.165000          0.775199E-03
      0.170000          0.726550E-03
      0.175000          0.688588E-03
      0.180000          0.658706E-03
      0.185000          0.634638E-03
      0.190000          0.614471E-03
      0.195000          0.596639E-03
      0.200000          0.579917E-03
      0.205000          0.563389E-03
      0.210000          0.546425E-03
      0.215000          0.528642E-03
      0.220000          0.509865E-03
      0.225000          0.490088E-03
      0.230000          0.469434E-03
      0.235000          0.448121E-03
      0.240000          0.426423E-03
      0.245000          0.404644E-03
      0.250000          0.383092E-03
      0.255000          0.362055E-03
      0.260000          0.341790E-03
      0.265000          0.322512E-03
      0.270000          0.304385E-03
      0.275000          0.287520E-03
      0.280000          0.271979E-03
      0.285000          0.257772E-03
      0.290000          0.244872E-03
      0.295000          0.233213E-03
      0.300000          0.222703E-03
      0.305000          0.213228E-03
      0.310000          0.204665E-03
      0.315000          0.196883E-03
      0.320000          0.189754E-03
      0.325000          0.183158E-03
      0.330000          0.176984E-03
      0.335000          0.171135E-03
      0.340000          0.165531E-03
      0.345000          0.160110E-03
      0.350000          0.154824E-03
      0.355000          0.149645E-03
      0.360000          0.144556E-03
      0.365000          0.139555E-03
      0.370000          0.134650E-03
      0.375000          0.129858E-03
      0.380000          0.125201E-03
      0.385000          0.120707E-03
      0.390000          0.116403E-03
      0.395000          0.112316E-03
      0.400000          0.108474E-03
      0.405000          0.104899E-03
      0.410000          0.101611E-03
      0.415000          0.986245E-04
      0.420000          0.959505E-04
      0.425000          0.935944E-04
      0.430000          0.915574E-04
      0.435000          0.898365E-04
      0.440000          0.884251E-04
      0.445000          0.873134E-04
      0.450000          0.864890E-04
      0.455000          0.859373E-04
      0.460000          0.856423E-04
      0.465000          0.855869E-04
      0.470000          0.857530E-04
      0.475000          0.861220E-04
      0.480000          0.866749E-04
      0.485000          0.873922E-04
      0.490000          0.882540E-04
      0.495000          0.892401E-04
      0.500000          0.903296E-04
