 I_abs(s)[cm^-1]/c[mg/ml]
       0.00000          0.142896E-01
      0.500000E-02      0.142511E-01
      0.100000E-01      0.141360E-01
      0.150000E-01      0.139463E-01
      0.200000E-01      0.136848E-01
      0.250000E-01      0.133556E-01
      0.300000E-01      0.129637E-01
      0.350000E-01      0.125151E-01
      0.400000E-01      0.120163E-01
      0.450000E-01      0.114745E-01
      0.500000E-01      0.108974E-01
      0.550000E-01      0.102928E-01
      0.600000E-01      0.966866E-02
      0.650000E-01      0.903273E-02
      0.700000E-01      0.839265E-02
      0.750000E-01      0.775560E-02
      0.800000E-01      0.712827E-02
      0.850000E-01      0.651673E-02
      0.900000E-01      0.592635E-02
      0.950000E-01      0.536171E-02
      0.100000          0.482663E-02
      0.105000          0.432405E-02
      0.110000          0.385615E-02
      0.115000          0.342428E-02
      0.120000          0.302906E-02
      0.125000          0.267042E-02
      0.130000          0.234769E-02
      0.135000          0.205963E-02
      0.140000          0.180459E-02
      0.145000          0.158054E-02
      0.150000          0.138519E-02
      0.155000          0.121608E-02
      0.160000          0.107062E-02
      0.165000          0.946234E-03
      0.170000          0.840373E-03
      0.175000          0.750588E-03
      0.180000          0.674576E-03
      0.185000          0.610215E-03
      0.190000          0.555585E-03
      0.195000          0.508988E-03
      0.200000          0.468950E-03
      0.205000          0.434216E-03
      0.210000          0.403746E-03
      0.215000          0.376696E-03
      0.220000          0.352400E-03
      0.225000          0.330348E-03
      0.230000          0.310163E-03
      0.235000          0.291577E-03
      0.240000          0.274409E-03
      0.245000          0.258543E-03
      0.250000          0.243908E-03
      0.255000          0.230463E-03
      0.260000          0.218181E-03
      0.265000          0.207041E-03
      0.270000          0.197017E-03
      0.275000          0.188072E-03
      0.280000          0.180158E-03
      0.285000          0.173215E-03
      0.290000          0.167168E-03
      0.295000          0.161929E-03
      0.300000          0.157406E-03
      0.305000          0.153499E-03
      0.310000          0.150107E-03
      0.315000          0.147130E-03
      0.320000          0.144474E-03
      0.325000          0.142050E-03
      0.330000          0.139780E-03
      0.335000          0.137597E-03
      0.340000          0.135445E-03
      0.345000          0.133278E-03
      0.350000          0.131064E-03
      0.355000          0.128782E-03
      0.360000          0.126418E-03
      0.365000          0.123971E-03
      0.370000          0.121443E-03
      0.375000          0.118846E-03
      0.380000          0.116196E-03
      0.385000          0.113510E-03
      0.390000          0.110810E-03
      0.395000          0.108119E-03
      0.400000          0.105460E-03
      0.405000          0.102856E-03
      0.410000          0.100330E-03
      0.415000          0.979026E-04
      0.420000          0.955943E-04
      0.425000          0.934229E-04
      0.430000          0.914043E-04
      0.435000          0.895523E-04
      0.440000          0.878782E-04
      0.445000          0.863909E-04
      0.450000          0.850967E-04
      0.455000          0.839991E-04
      0.460000          0.830988E-04
      0.465000          0.823936E-04
      0.470000          0.818785E-04
      0.475000          0.815458E-04
      0.480000          0.813849E-04
      0.485000          0.813830E-04
      0.490000          0.815248E-04
      0.495000          0.817930E-04
      0.500000          0.821687E-04
