 I_abs(s)[cm^-1]/c[mg/ml]
       0.00000          0.142346E-01
      0.500000E-02      0.141926E-01
      0.100000E-01      0.140676E-01
      0.150000E-01      0.138616E-01
      0.200000E-01      0.135785E-01
      0.250000E-01      0.132233E-01
      0.300000E-01      0.128022E-01
      0.350000E-01      0.123223E-01
      0.400000E-01      0.117919E-01
      0.450000E-01      0.112193E-01
      0.500000E-01      0.106137E-01
      0.550000E-01      0.998403E-02
      0.600000E-01      0.933939E-02
      0.650000E-01      0.868844E-02
      0.700000E-01      0.803939E-02
      0.750000E-01      0.739976E-02
      0.800000E-01      0.677632E-02
      0.850000E-01      0.617494E-02
      0.900000E-01      0.560052E-02
      0.950000E-01      0.505701E-02
      0.100000          0.454734E-02
      0.105000          0.407351E-02
      0.110000          0.363660E-02
      0.115000          0.323690E-02
      0.120000          0.287394E-02
      0.125000          0.254665E-02
      0.130000          0.225344E-02
      0.135000          0.199232E-02
      0.140000          0.176103E-02
      0.145000          0.155712E-02
      0.150000          0.137806E-02
      0.155000          0.122131E-02
      0.160000          0.108440E-02
      0.165000          0.964990E-03
      0.170000          0.860896E-03
      0.175000          0.770134E-03
      0.180000          0.690925E-03
      0.185000          0.621705E-03
      0.190000          0.561118E-03
      0.195000          0.508005E-03
      0.200000          0.461387E-03
      0.205000          0.420442E-03
      0.210000          0.384487E-03
      0.215000          0.352949E-03
      0.220000          0.325349E-03
      0.225000          0.301279E-03
      0.230000          0.280384E-03
      0.235000          0.262348E-03
      0.240000          0.246882E-03
      0.245000          0.233717E-03
      0.250000          0.222596E-03
      0.255000          0.213271E-03
      0.260000          0.205504E-03
      0.265000          0.199064E-03
      0.270000          0.193729E-03
      0.275000          0.189290E-03
      0.280000          0.185553E-03
      0.285000          0.182338E-03
      0.290000          0.179488E-03
      0.295000          0.176862E-03
      0.300000          0.174342E-03
      0.305000          0.171834E-03
      0.310000          0.169263E-03
      0.315000          0.166575E-03
      0.320000          0.163738E-03
      0.325000          0.160734E-03
      0.330000          0.157563E-03
      0.335000          0.154235E-03
      0.340000          0.150773E-03
      0.345000          0.147205E-03
      0.350000          0.143565E-03
      0.355000          0.139889E-03
      0.360000          0.136214E-03
      0.365000          0.132573E-03
      0.370000          0.129000E-03
      0.375000          0.125521E-03
      0.380000          0.122159E-03
      0.385000          0.118932E-03
      0.390000          0.115850E-03
      0.395000          0.112922E-03
      0.400000          0.110150E-03
      0.405000          0.107534E-03
      0.410000          0.105070E-03
      0.415000          0.102753E-03
      0.420000          0.100579E-03
      0.425000          0.985414E-04
      0.430000          0.966380E-04
      0.435000          0.948670E-04
      0.440000          0.932290E-04
      0.445000          0.917277E-04
      0.450000          0.903690E-04
      0.455000          0.891612E-04
      0.460000          0.881143E-04
      0.465000          0.872395E-04
      0.470000          0.865480E-04
      0.475000          0.860505E-04
      0.480000          0.857558E-04
      0.485000          0.856701E-04
      0.490000          0.857963E-04
      0.495000          0.861328E-04
      0.500000          0.866736E-04
