 I_abs(s)[cm^-1]/c[mg/ml]
       0.00000          0.138366E-01
      0.500000E-02      0.137840E-01
      0.100000E-01      0.136276E-01
      0.150000E-01      0.133709E-01
      0.200000E-01      0.130200E-01
      0.250000E-01      0.125828E-01
      0.300000E-01      0.120692E-01
      0.350000E-01      0.114904E-01
      0.400000E-01      0.108587E-01
      0.450000E-01      0.101870E-01
      0.500000E-01      0.948851E-02
      0.550000E-01      0.877616E-02
      0.600000E-01      0.806228E-02
      0.650000E-01      0.735833E-02
      0.700000E-01      0.667454E-02
      0.750000E-01      0.601971E-02
      0.800000E-01      0.540106E-02
      0.850000E-01      0.482417E-02
      0.900000E-01      0.429293E-02
      0.950000E-01      0.380960E-02
      0.100000          0.337496E-02
      0.105000          0.298841E-02
      0.110000          0.264818E-02
      0.115000          0.235157E-02
      0.120000          0.209515E-02
      0.125000          0.187498E-02
      0.130000          0.168685E-02
      0.135000          0.152646E-02
      0.140000          0.138962E-02
      0.145000          0.127234E-02
      0.150000          0.117101E-02
      0.155000          0.108241E-02
      0.160000          0.100381E-02
      0.165000          0.932940E-03
      0.170000          0.868022E-03
      0.175000          0.807710E-03
      0.180000          0.751056E-03
      0.185000          0.697448E-03
      0.190000          0.646552E-03
      0.195000          0.598246E-03
      0.200000          0.552555E-03
      0.205000          0.509599E-03
      0.210000          0.469540E-03
      0.215000          0.432543E-03
      0.220000          0.398748E-03
      0.225000          0.368242E-03
      0.230000          0.341051E-03
      0.235000          0.317133E-03
      0.240000          0.296378E-03
      0.245000          0.278616E-03
      0.250000          0.263622E-03
      0.255000          0.251134E-03
      0.260000          0.240861E-03
      0.265000          0.232498E-03
      0.270000          0.225736E-03
      0.275000          0.220275E-03
      0.280000          0.215831E-03
      0.285000          0.212143E-03
      0.290000          0.208980E-03
      0.295000          0.206142E-03
      0.300000          0.203463E-03
      0.305000          0.200810E-03
      0.310000          0.198082E-03
      0.315000          0.195207E-03
      0.320000          0.192142E-03
      0.325000          0.188866E-03
      0.330000          0.185377E-03
      0.335000          0.181689E-03
      0.340000          0.177828E-03
      0.345000          0.173828E-03
      0.350000          0.169727E-03
      0.355000          0.165568E-03
      0.360000          0.161390E-03
      0.365000          0.157232E-03
      0.370000          0.153128E-03
      0.375000          0.149109E-03
      0.380000          0.145198E-03
      0.385000          0.141415E-03
      0.390000          0.137776E-03
      0.395000          0.134291E-03
      0.400000          0.130966E-03
      0.405000          0.127804E-03
      0.410000          0.124808E-03
      0.415000          0.121978E-03
      0.420000          0.119314E-03
      0.425000          0.116813E-03
      0.430000          0.114476E-03
      0.435000          0.112301E-03
      0.440000          0.110286E-03
      0.445000          0.108432E-03
      0.450000          0.106735E-03
      0.455000          0.105192E-03
      0.460000          0.103800E-03
      0.465000          0.102553E-03
      0.470000          0.101443E-03
      0.475000          0.100461E-03
      0.480000          0.995957E-04
      0.485000          0.988346E-04
      0.490000          0.981634E-04
      0.495000          0.975671E-04
      0.500000          0.970304E-04
