 I_abs(s)[cm^-1]/c[mg/ml]
       0.00000          0.141561E-01
      0.500000E-02      0.141171E-01
      0.100000E-01      0.140006E-01
      0.150000E-01      0.138085E-01
      0.200000E-01      0.135439E-01
      0.250000E-01      0.132110E-01
      0.300000E-01      0.128150E-01
      0.350000E-01      0.123619E-01
      0.400000E-01      0.118586E-01
      0.450000E-01      0.113125E-01
      0.500000E-01      0.107313E-01
      0.550000E-01      0.101233E-01
      0.600000E-01      0.949645E-02
      0.650000E-01      0.885878E-02
      0.700000E-01      0.821801E-02
      0.750000E-01      0.758145E-02
      0.800000E-01      0.695586E-02
      0.850000E-01      0.634735E-02
      0.900000E-01      0.576126E-02
      0.950000E-01      0.520215E-02
      0.100000          0.467373E-02
      0.105000          0.417888E-02
      0.110000          0.371961E-02
      0.115000          0.329713E-02
      0.120000          0.291189E-02
      0.125000          0.256365E-02
      0.130000          0.225154E-02
      0.135000          0.197417E-02
      0.140000          0.172970E-02
      0.145000          0.151597E-02
      0.150000          0.133054E-02
      0.155000          0.117083E-02
      0.160000          0.103418E-02
      0.165000          0.917923E-03
      0.170000          0.819471E-03
      0.175000          0.736344E-03
      0.180000          0.666234E-03
      0.185000          0.607026E-03
      0.190000          0.556827E-03
      0.195000          0.513972E-03
      0.200000          0.477029E-03
      0.205000          0.444793E-03
      0.210000          0.416274E-03
      0.215000          0.390678E-03
      0.220000          0.367385E-03
      0.225000          0.345931E-03
      0.230000          0.325976E-03
      0.235000          0.307289E-03
      0.240000          0.289715E-03
      0.245000          0.273163E-03
      0.250000          0.257582E-03
      0.255000          0.242948E-03
      0.260000          0.229249E-03
      0.265000          0.216479E-03
      0.270000          0.204626E-03
      0.275000          0.193673E-03
      0.280000          0.183590E-03
      0.285000          0.174340E-03
      0.290000          0.165874E-03
      0.295000          0.158137E-03
      0.300000          0.151067E-03
      0.305000          0.144602E-03
      0.310000          0.138676E-03
      0.315000          0.133230E-03
      0.320000          0.128204E-03
      0.325000          0.123548E-03
      0.330000          0.119216E-03
      0.335000          0.115168E-03
      0.340000          0.111372E-03
      0.345000          0.107801E-03
      0.350000          0.104434E-03
      0.355000          0.101253E-03
      0.360000          0.982459E-04
      0.365000          0.954008E-04
      0.370000          0.927088E-04
      0.375000          0.901622E-04
      0.380000          0.877545E-04
      0.385000          0.854797E-04
      0.390000          0.833331E-04
      0.395000          0.813109E-04
      0.400000          0.794110E-04
      0.405000          0.776327E-04
      0.410000          0.759780E-04
      0.415000          0.744509E-04
      0.420000          0.730581E-04
      0.425000          0.718091E-04
      0.430000          0.707155E-04
      0.435000          0.697914E-04
      0.440000          0.690519E-04
      0.445000          0.685134E-04
      0.450000          0.681918E-04
      0.455000          0.681024E-04
      0.460000          0.682582E-04
      0.465000          0.686695E-04
      0.470000          0.693428E-04
      0.475000          0.702799E-04
      0.480000          0.714772E-04
      0.485000          0.729259E-04
      0.490000          0.746111E-04
      0.495000          0.765120E-04
      0.500000          0.786027E-04
