 I_abs(s)[cm^-1]/c[mg/ml]
       0.00000          0.140232E-01
      0.500000E-02      0.139835E-01
      0.100000E-01      0.138651E-01
      0.150000E-01      0.136700E-01
      0.200000E-01      0.134013E-01
      0.250000E-01      0.130635E-01
      0.300000E-01      0.126621E-01
      0.350000E-01      0.122033E-01
      0.400000E-01      0.116943E-01
      0.450000E-01      0.111429E-01
      0.500000E-01      0.105571E-01
      0.550000E-01      0.994528E-02
      0.600000E-01      0.931587E-02
      0.650000E-01      0.867706E-02
      0.700000E-01      0.803676E-02
      0.750000E-01      0.740238E-02
      0.800000E-01      0.678076E-02
      0.850000E-01      0.617801E-02
      0.900000E-01      0.559943E-02
      0.950000E-01      0.504947E-02
      0.100000          0.453171E-02
      0.105000          0.404881E-02
      0.110000          0.360256E-02
      0.115000          0.319392E-02
      0.120000          0.282306E-02
      0.125000          0.248946E-02
      0.130000          0.219199E-02
      0.135000          0.192898E-02
      0.140000          0.169835E-02
      0.145000          0.149770E-02
      0.150000          0.132442E-02
      0.155000          0.117574E-02
      0.160000          0.104889E-02
      0.165000          0.941119E-03
      0.170000          0.849769E-03
      0.175000          0.772350E-03
      0.180000          0.706568E-03
      0.185000          0.650354E-03
      0.190000          0.601885E-03
      0.195000          0.559594E-03
      0.200000          0.522163E-03
      0.205000          0.488516E-03
      0.210000          0.457803E-03
      0.215000          0.429376E-03
      0.220000          0.402768E-03
      0.225000          0.377661E-03
      0.230000          0.353863E-03
      0.235000          0.331279E-03
      0.240000          0.309886E-03
      0.245000          0.289708E-03
      0.250000          0.270798E-03
      0.255000          0.253219E-03
      0.260000          0.237032E-03
      0.265000          0.222281E-03
      0.270000          0.208993E-03
      0.275000          0.197166E-03
      0.280000          0.186773E-03
      0.285000          0.177757E-03
      0.290000          0.170039E-03
      0.295000          0.163518E-03
      0.300000          0.158074E-03
      0.305000          0.153577E-03
      0.310000          0.149890E-03
      0.315000          0.146872E-03
      0.320000          0.144387E-03
      0.325000          0.142304E-03
      0.330000          0.140503E-03
      0.335000          0.138875E-03
      0.340000          0.137328E-03
      0.345000          0.135781E-03
      0.350000          0.134175E-03
      0.355000          0.132462E-03
      0.360000          0.130611E-03
      0.365000          0.128604E-03
      0.370000          0.126436E-03
      0.375000          0.124113E-03
      0.380000          0.121649E-03
      0.385000          0.119066E-03
      0.390000          0.116391E-03
      0.395000          0.113655E-03
      0.400000          0.110891E-03
      0.405000          0.108133E-03
      0.410000          0.105413E-03
      0.415000          0.102766E-03
      0.420000          0.100221E-03
      0.425000          0.978059E-04
      0.430000          0.955467E-04
      0.435000          0.934653E-04
      0.440000          0.915806E-04
      0.445000          0.899082E-04
      0.450000          0.884604E-04
      0.455000          0.872461E-04
      0.460000          0.862712E-04
      0.465000          0.855382E-04
      0.470000          0.850464E-04
      0.475000          0.847921E-04
      0.480000          0.847686E-04
      0.485000          0.849659E-04
      0.490000          0.853711E-04
      0.495000          0.859683E-04
      0.500000          0.867388E-04
