 I_abs(s)[cm^-1]/c[mg/ml]
       0.00000          0.141404E-01
      0.500000E-02      0.141027E-01
      0.100000E-01      0.139900E-01
      0.150000E-01      0.138041E-01
      0.200000E-01      0.135480E-01
      0.250000E-01      0.132257E-01
      0.300000E-01      0.128420E-01
      0.350000E-01      0.124027E-01
      0.400000E-01      0.119143E-01
      0.450000E-01      0.113839E-01
      0.500000E-01      0.108190E-01
      0.550000E-01      0.102271E-01
      0.600000E-01      0.961601E-02
      0.650000E-01      0.899338E-02
      0.700000E-01      0.836660E-02
      0.750000E-01      0.774265E-02
      0.800000E-01      0.712804E-02
      0.850000E-01      0.652865E-02
      0.900000E-01      0.594967E-02
      0.950000E-01      0.539554E-02
      0.100000          0.486991E-02
      0.105000          0.437565E-02
      0.110000          0.391482E-02
      0.115000          0.348873E-02
      0.120000          0.309797E-02
      0.125000          0.274245E-02
      0.130000          0.242153E-02
      0.135000          0.213404E-02
      0.140000          0.187839E-02
      0.145000          0.165266E-02
      0.150000          0.145466E-02
      0.155000          0.128207E-02
      0.160000          0.113246E-02
      0.165000          0.100338E-02
      0.170000          0.892427E-03
      0.175000          0.797305E-03
      0.180000          0.715846E-03
      0.185000          0.646055E-03
      0.190000          0.586126E-03
      0.195000          0.534460E-03
      0.200000          0.489663E-03
      0.205000          0.450546E-03
      0.210000          0.416114E-03
      0.215000          0.385553E-03
      0.220000          0.358208E-03
      0.225000          0.333570E-03
      0.230000          0.311246E-03
      0.235000          0.290946E-03
      0.240000          0.272455E-03
      0.245000          0.255620E-03
      0.250000          0.240328E-03
      0.255000          0.226497E-03
      0.260000          0.214056E-03
      0.265000          0.202944E-03
      0.270000          0.193097E-03
      0.275000          0.184446E-03
      0.280000          0.176916E-03
      0.285000          0.170420E-03
      0.290000          0.164865E-03
      0.295000          0.160150E-03
      0.300000          0.156170E-03
      0.305000          0.152819E-03
      0.310000          0.149991E-03
      0.315000          0.147584E-03
      0.320000          0.145502E-03
      0.325000          0.143657E-03
      0.330000          0.141971E-03
      0.335000          0.140376E-03
      0.340000          0.138815E-03
      0.345000          0.137241E-03
      0.350000          0.135619E-03
      0.355000          0.133923E-03
      0.360000          0.132137E-03
      0.365000          0.130251E-03
      0.370000          0.128264E-03
      0.375000          0.126177E-03
      0.380000          0.124000E-03
      0.385000          0.121741E-03
      0.390000          0.119415E-03
      0.395000          0.117036E-03
      0.400000          0.114620E-03
      0.405000          0.112182E-03
      0.410000          0.109739E-03
      0.415000          0.107308E-03
      0.420000          0.104903E-03
      0.425000          0.102543E-03
      0.430000          0.100241E-03
      0.435000          0.980129E-04
      0.440000          0.958742E-04
      0.445000          0.938390E-04
      0.450000          0.919213E-04
      0.455000          0.901345E-04
      0.460000          0.884908E-04
      0.465000          0.870017E-04
      0.470000          0.856769E-04
      0.475000          0.845248E-04
      0.480000          0.835515E-04
      0.485000          0.827609E-04
      0.490000          0.821544E-04
      0.495000          0.817306E-04
      0.500000          0.814850E-04
