 I_abs(s)[cm^-1]/c[mg/ml]
       0.00000          0.133375E-01
      0.500000E-02      0.132796E-01
      0.100000E-01      0.131073E-01
      0.150000E-01      0.128249E-01
      0.200000E-01      0.124396E-01
      0.250000E-01      0.119607E-01
      0.300000E-01      0.113998E-01
      0.350000E-01      0.107702E-01
      0.400000E-01      0.100865E-01
      0.450000E-01      0.936371E-02
      0.500000E-01      0.861734E-02
      0.550000E-01      0.786247E-02
      0.600000E-01      0.711346E-02
      0.650000E-01      0.638349E-02
      0.700000E-01      0.568423E-02
      0.750000E-01      0.502554E-02
      0.800000E-01      0.441531E-02
      0.850000E-01      0.385935E-02
      0.900000E-01      0.336137E-02
      0.950000E-01      0.292306E-02
      0.100000          0.254421E-02
      0.105000          0.222294E-02
      0.110000          0.195591E-02
      0.115000          0.173866E-02
      0.120000          0.156582E-02
      0.125000          0.143150E-02
      0.130000          0.132953E-02
      0.135000          0.125374E-02
      0.140000          0.119819E-02
      0.145000          0.115740E-02
      0.150000          0.112645E-02
      0.155000          0.110112E-02
      0.160000          0.107794E-02
      0.165000          0.105420E-02
      0.170000          0.102798E-02
      0.175000          0.998033E-03
      0.180000          0.963739E-03
      0.185000          0.925022E-03
      0.190000          0.882233E-03
      0.195000          0.836043E-03
      0.200000          0.787346E-03
      0.205000          0.737151E-03
      0.210000          0.686507E-03
      0.215000          0.636423E-03
      0.220000          0.587814E-03
      0.225000          0.541463E-03
      0.230000          0.497994E-03
      0.235000          0.457860E-03
      0.240000          0.421344E-03
      0.245000          0.388574E-03
      0.250000          0.359536E-03
      0.255000          0.334097E-03
      0.260000          0.312035E-03
      0.265000          0.293059E-03
      0.270000          0.276836E-03
      0.275000          0.263014E-03
      0.280000          0.251239E-03
      0.285000          0.241171E-03
      0.290000          0.232495E-03
      0.295000          0.224928E-03
      0.300000          0.218221E-03
      0.305000          0.212166E-03
      0.310000          0.206590E-03
      0.315000          0.201352E-03
      0.320000          0.196345E-03
      0.325000          0.191486E-03
      0.330000          0.186716E-03
      0.335000          0.181993E-03
      0.340000          0.177293E-03
      0.345000          0.172603E-03
      0.350000          0.167920E-03
      0.355000          0.163252E-03
      0.360000          0.158613E-03
      0.365000          0.154023E-03
      0.370000          0.149510E-03
      0.375000          0.145103E-03
      0.380000          0.140840E-03
      0.385000          0.136756E-03
      0.390000          0.132893E-03
      0.395000          0.129291E-03
      0.400000          0.125987E-03
      0.405000          0.123018E-03
      0.410000          0.120417E-03
      0.415000          0.118208E-03
      0.420000          0.116409E-03
      0.425000          0.115029E-03
      0.430000          0.114069E-03
      0.435000          0.113517E-03
      0.440000          0.113352E-03
      0.445000          0.113542E-03
      0.450000          0.114045E-03
      0.455000          0.114812E-03
      0.460000          0.115783E-03
      0.465000          0.116896E-03
      0.470000          0.118082E-03
      0.475000          0.119272E-03
      0.480000          0.120398E-03
      0.485000          0.121392E-03
      0.490000          0.122193E-03
      0.495000          0.122747E-03
      0.500000          0.123008E-03
