 I_abs(s)[cm^-1]/c[mg/ml]
       0.00000          0.140778E-01
      0.500000E-02      0.140421E-01
      0.100000E-01      0.139356E-01
      0.150000E-01      0.137598E-01
      0.200000E-01      0.135172E-01
      0.250000E-01      0.132112E-01
      0.300000E-01      0.128460E-01
      0.350000E-01      0.124268E-01
      0.400000E-01      0.119592E-01
      0.450000E-01      0.114494E-01
      0.500000E-01      0.109040E-01
      0.550000E-01      0.103299E-01
      0.600000E-01      0.973413E-02
      0.650000E-01      0.912375E-02
      0.700000E-01      0.850564E-02
      0.750000E-01      0.788645E-02
      0.800000E-01      0.727249E-02
      0.850000E-01      0.666961E-02
      0.900000E-01      0.608312E-02
      0.950000E-01      0.551772E-02
      0.100000          0.497747E-02
      0.105000          0.446575E-02
      0.110000          0.398521E-02
      0.115000          0.353784E-02
      0.120000          0.312494E-02
      0.125000          0.274715E-02
      0.130000          0.240451E-02
      0.135000          0.209652E-02
      0.140000          0.182217E-02
      0.145000          0.158006E-02
      0.150000          0.136841E-02
      0.155000          0.118518E-02
      0.160000          0.102813E-02
      0.165000          0.894858E-03
      0.170000          0.782930E-03
      0.175000          0.689880E-03
      0.180000          0.613292E-03
      0.185000          0.550843E-03
      0.190000          0.500339E-03
      0.195000          0.459744E-03
      0.200000          0.427206E-03
      0.205000          0.401071E-03
      0.210000          0.379889E-03
      0.215000          0.362417E-03
      0.220000          0.347613E-03
      0.225000          0.334625E-03
      0.230000          0.322785E-03
      0.235000          0.311581E-03
      0.240000          0.300651E-03
      0.245000          0.289754E-03
      0.250000          0.278754E-03
      0.255000          0.267599E-03
      0.260000          0.256304E-03
      0.265000          0.244932E-03
      0.270000          0.233576E-03
      0.275000          0.222350E-03
      0.280000          0.211372E-03
      0.285000          0.200758E-03
      0.290000          0.190613E-03
      0.295000          0.181025E-03
      0.300000          0.172064E-03
      0.305000          0.163776E-03
      0.310000          0.156186E-03
      0.315000          0.149299E-03
      0.320000          0.143098E-03
      0.325000          0.137551E-03
      0.330000          0.132611E-03
      0.335000          0.128221E-03
      0.340000          0.124316E-03
      0.345000          0.120827E-03
      0.350000          0.117685E-03
      0.355000          0.114821E-03
      0.360000          0.112171E-03
      0.365000          0.109677E-03
      0.370000          0.107290E-03
      0.375000          0.104966E-03
      0.380000          0.102674E-03
      0.385000          0.100389E-03
      0.390000          0.980983E-04
      0.395000          0.957954E-04
      0.400000          0.934827E-04
      0.405000          0.911694E-04
      0.410000          0.888706E-04
      0.415000          0.866061E-04
      0.420000          0.843991E-04
      0.425000          0.822750E-04
      0.430000          0.802602E-04
      0.435000          0.783814E-04
      0.440000          0.766640E-04
      0.445000          0.751317E-04
      0.450000          0.738055E-04
      0.455000          0.727033E-04
      0.460000          0.718394E-04
      0.465000          0.712242E-04
      0.470000          0.708639E-04
      0.475000          0.707607E-04
      0.480000          0.709125E-04
      0.485000          0.713133E-04
      0.490000          0.719534E-04
      0.495000          0.728196E-04
      0.500000          0.738954E-04
