 I_abs(s)[cm^-1]/c[mg/ml]
       0.00000          0.142818E-01
      0.500000E-02      0.142430E-01
      0.100000E-01      0.141274E-01
      0.150000E-01      0.139367E-01
      0.200000E-01      0.136740E-01
      0.250000E-01      0.133432E-01
      0.300000E-01      0.129494E-01
      0.350000E-01      0.124987E-01
      0.400000E-01      0.119975E-01
      0.450000E-01      0.114533E-01
      0.500000E-01      0.108735E-01
      0.550000E-01      0.102662E-01
      0.600000E-01      0.963934E-02
      0.650000E-01      0.900074E-02
      0.700000E-01      0.835807E-02
      0.750000E-01      0.771859E-02
      0.800000E-01      0.708904E-02
      0.850000E-01      0.647554E-02
      0.900000E-01      0.588350E-02
      0.950000E-01      0.531754E-02
      0.100000          0.478149E-02
      0.105000          0.427833E-02
      0.110000          0.381025E-02
      0.115000          0.337859E-02
      0.120000          0.298397E-02
      0.125000          0.262630E-02
      0.130000          0.230488E-02
      0.135000          0.201843E-02
      0.140000          0.176526E-02
      0.145000          0.154329E-02
      0.150000          0.135017E-02
      0.155000          0.118339E-02
      0.160000          0.104032E-02
      0.165000          0.918316E-03
      0.170000          0.814777E-03
      0.175000          0.727211E-03
      0.180000          0.653277E-03
      0.185000          0.590822E-03
      0.190000          0.537903E-03
      0.195000          0.492807E-03
      0.200000          0.454054E-03
      0.205000          0.420395E-03
      0.210000          0.390799E-03
      0.215000          0.364439E-03
      0.220000          0.340673E-03
      0.225000          0.319019E-03
      0.230000          0.299130E-03
      0.235000          0.280772E-03
      0.240000          0.263794E-03
      0.245000          0.248112E-03
      0.250000          0.233680E-03
      0.255000          0.220483E-03
      0.260000          0.208512E-03
      0.265000          0.197759E-03
      0.270000          0.188205E-03
      0.275000          0.179818E-03
      0.280000          0.172546E-03
      0.285000          0.166321E-03
      0.290000          0.161055E-03
      0.295000          0.156649E-03
      0.300000          0.152990E-03
      0.305000          0.149961E-03
      0.310000          0.147441E-03
      0.315000          0.145313E-03
      0.320000          0.143465E-03
      0.325000          0.141795E-03
      0.330000          0.140211E-03
      0.335000          0.138637E-03
      0.340000          0.137011E-03
      0.345000          0.135285E-03
      0.350000          0.133426E-03
      0.355000          0.131416E-03
      0.360000          0.129247E-03
      0.365000          0.126923E-03
      0.370000          0.124456E-03
      0.375000          0.121867E-03
      0.380000          0.119177E-03
      0.385000          0.116417E-03
      0.390000          0.113613E-03
      0.395000          0.110795E-03
      0.400000          0.107993E-03
      0.405000          0.105233E-03
      0.410000          0.102539E-03
      0.415000          0.999354E-04
      0.420000          0.974408E-04
      0.425000          0.950729E-04
      0.430000          0.928463E-04
      0.435000          0.907737E-04
      0.440000          0.888652E-04
      0.445000          0.871295E-04
      0.450000          0.855733E-04
      0.455000          0.842017E-04
      0.460000          0.830184E-04
      0.465000          0.820256E-04
      0.470000          0.812241E-04
      0.475000          0.806132E-04
      0.480000          0.801905E-04
      0.485000          0.799519E-04
      0.490000          0.798916E-04
      0.495000          0.800018E-04
      0.500000          0.802726E-04
