 I_abs(s)[cm^-1]/c[mg/ml]
       0.00000          0.141718E-01
      0.500000E-02      0.141300E-01
      0.100000E-01      0.140056E-01
      0.150000E-01      0.138006E-01
      0.200000E-01      0.135186E-01
      0.250000E-01      0.131644E-01
      0.300000E-01      0.127439E-01
      0.350000E-01      0.122642E-01
      0.400000E-01      0.117329E-01
      0.450000E-01      0.111585E-01
      0.500000E-01      0.105498E-01
      0.550000E-01      0.991564E-02
      0.600000E-01      0.926501E-02
      0.650000E-01      0.860661E-02
      0.700000E-01      0.794874E-02
      0.750000E-01      0.729914E-02
      0.800000E-01      0.666481E-02
      0.850000E-01      0.605198E-02
      0.900000E-01      0.546595E-02
      0.950000E-01      0.491108E-02
      0.100000          0.439077E-02
      0.105000          0.390746E-02
      0.110000          0.346267E-02
      0.115000          0.305704E-02
      0.120000          0.269044E-02
      0.125000          0.236204E-02
      0.130000          0.207039E-02
      0.135000          0.181358E-02
      0.140000          0.158930E-02
      0.145000          0.139495E-02
      0.150000          0.122779E-02
      0.155000          0.108498E-02
      0.160000          0.963671E-03
      0.165000          0.861114E-03
      0.170000          0.774678E-03
      0.175000          0.701919E-03
      0.180000          0.640605E-03
      0.185000          0.588741E-03
      0.190000          0.544579E-03
      0.195000          0.506618E-03
      0.200000          0.473600E-03
      0.205000          0.444490E-03
      0.210000          0.418464E-03
      0.215000          0.394879E-03
      0.220000          0.373257E-03
      0.225000          0.353250E-03
      0.230000          0.334624E-03
      0.235000          0.317226E-03
      0.240000          0.300971E-03
      0.245000          0.285815E-03
      0.250000          0.271742E-03
      0.255000          0.258747E-03
      0.260000          0.246829E-03
      0.265000          0.235979E-03
      0.270000          0.226175E-03
      0.275000          0.217382E-03
      0.280000          0.209544E-03
      0.285000          0.202592E-03
      0.290000          0.196440E-03
      0.295000          0.190990E-03
      0.300000          0.186136E-03
      0.305000          0.181767E-03
      0.310000          0.177771E-03
      0.315000          0.174040E-03
      0.320000          0.170472E-03
      0.325000          0.166975E-03
      0.330000          0.163470E-03
      0.335000          0.159891E-03
      0.340000          0.156190E-03
      0.345000          0.152334E-03
      0.350000          0.148305E-03
      0.355000          0.144104E-03
      0.360000          0.139741E-03
      0.365000          0.135244E-03
      0.370000          0.130648E-03
      0.375000          0.125996E-03
      0.380000          0.121339E-03
      0.385000          0.116729E-03
      0.390000          0.112221E-03
      0.395000          0.107868E-03
      0.400000          0.103721E-03
      0.405000          0.998237E-04
      0.410000          0.962177E-04
      0.415000          0.929362E-04
      0.420000          0.900054E-04
      0.425000          0.874444E-04
      0.430000          0.852651E-04
      0.435000          0.834724E-04
      0.440000          0.820649E-04
      0.445000          0.810355E-04
      0.450000          0.803722E-04
      0.455000          0.800585E-04
      0.460000          0.800747E-04
      0.465000          0.803983E-04
      0.470000          0.810043E-04
      0.475000          0.818665E-04
      0.480000          0.829570E-04
      0.485000          0.842471E-04
      0.490000          0.857075E-04
      0.495000          0.873083E-04
      0.500000          0.890190E-04
