 I_abs(s)[cm^-1]/c[mg/ml]
       0.00000          0.139453E-01
      0.500000E-02      0.139021E-01
      0.100000E-01      0.137733E-01
      0.150000E-01      0.135612E-01
      0.200000E-01      0.132697E-01
      0.250000E-01      0.129038E-01
      0.300000E-01      0.124701E-01
      0.350000E-01      0.119758E-01
      0.400000E-01      0.114293E-01
      0.450000E-01      0.108397E-01
      0.500000E-01      0.102162E-01
      0.550000E-01      0.956840E-02
      0.600000E-01      0.890583E-02
      0.650000E-01      0.823772E-02
      0.700000E-01      0.757284E-02
      0.750000E-01      0.691933E-02
      0.800000E-01      0.628454E-02
      0.850000E-01      0.567487E-02
      0.900000E-01      0.509574E-02
      0.950000E-01      0.455151E-02
      0.100000          0.404545E-02
      0.105000          0.357979E-02
      0.110000          0.315571E-02
      0.115000          0.277343E-02
      0.120000          0.243235E-02
      0.125000          0.213106E-02
      0.130000          0.186755E-02
      0.135000          0.163928E-02
      0.140000          0.144335E-02
      0.145000          0.127661E-02
      0.150000          0.113575E-02
      0.155000          0.101748E-02
      0.160000          0.918552E-03
      0.165000          0.835908E-03
      0.170000          0.766700E-03
      0.175000          0.708361E-03
      0.180000          0.658632E-03
      0.185000          0.615578E-03
      0.190000          0.577593E-03
      0.195000          0.543388E-03
      0.200000          0.511968E-03
      0.205000          0.482610E-03
      0.210000          0.454819E-03
      0.215000          0.428297E-03
      0.220000          0.402901E-03
      0.225000          0.378603E-03
      0.230000          0.355458E-03
      0.235000          0.333566E-03
      0.240000          0.313048E-03
      0.245000          0.294020E-03
      0.250000          0.276577E-03
      0.255000          0.260783E-03
      0.260000          0.246659E-03
      0.265000          0.234183E-03
      0.270000          0.223294E-03
      0.275000          0.213890E-03
      0.280000          0.205842E-03
      0.285000          0.198993E-03
      0.290000          0.193177E-03
      0.295000          0.188217E-03
      0.300000          0.183942E-03
      0.305000          0.180188E-03
      0.310000          0.176806E-03
      0.315000          0.173666E-03
      0.320000          0.170658E-03
      0.325000          0.167695E-03
      0.330000          0.164715E-03
      0.335000          0.161672E-03
      0.340000          0.158542E-03
      0.345000          0.155316E-03
      0.350000          0.151998E-03
      0.355000          0.148599E-03
      0.360000          0.145141E-03
      0.365000          0.141644E-03
      0.370000          0.138134E-03
      0.375000          0.134634E-03
      0.380000          0.131165E-03
      0.385000          0.127745E-03
      0.390000          0.124390E-03
      0.395000          0.121113E-03
      0.400000          0.117925E-03
      0.405000          0.114834E-03
      0.410000          0.111849E-03
      0.415000          0.108976E-03
      0.420000          0.106225E-03
      0.425000          0.103604E-03
      0.430000          0.101124E-03
      0.435000          0.987977E-04
      0.440000          0.966385E-04
      0.445000          0.946610E-04
      0.450000          0.928804E-04
      0.455000          0.913112E-04
      0.460000          0.899674E-04
      0.465000          0.888605E-04
      0.470000          0.879997E-04
      0.475000          0.873904E-04
      0.480000          0.870338E-04
      0.485000          0.869265E-04
      0.490000          0.870600E-04
      0.495000          0.874207E-04
      0.500000          0.879901E-04
