 I_abs(s)[cm^-1]/c[mg/ml]
       0.00000          0.143527E-01
      0.500000E-02      0.143136E-01
      0.100000E-01      0.141969E-01
      0.150000E-01      0.140044E-01
      0.200000E-01      0.137392E-01
      0.250000E-01      0.134053E-01
      0.300000E-01      0.130079E-01
      0.350000E-01      0.125529E-01
      0.400000E-01      0.120472E-01
      0.450000E-01      0.114981E-01
      0.500000E-01      0.109132E-01
      0.550000E-01      0.103005E-01
      0.600000E-01      0.966815E-02
      0.650000E-01      0.902407E-02
      0.700000E-01      0.837595E-02
      0.750000E-01      0.773112E-02
      0.800000E-01      0.709636E-02
      0.850000E-01      0.647784E-02
      0.900000E-01      0.588099E-02
      0.950000E-01      0.531049E-02
      0.100000          0.477017E-02
      0.105000          0.426304E-02
      0.110000          0.379128E-02
      0.115000          0.335627E-02
      0.120000          0.295862E-02
      0.125000          0.259825E-02
      0.130000          0.227445E-02
      0.135000          0.198597E-02
      0.140000          0.173110E-02
      0.145000          0.150777E-02
      0.150000          0.131364E-02
      0.155000          0.114618E-02
      0.160000          0.100277E-02
      0.165000          0.880741E-03
      0.170000          0.777498E-03
      0.175000          0.690529E-03
      0.180000          0.617473E-03
      0.185000          0.556155E-03
      0.190000          0.504605E-03
      0.195000          0.461081E-03
      0.200000          0.424069E-03
      0.205000          0.392284E-03
      0.210000          0.364660E-03
      0.215000          0.340336E-03
      0.220000          0.318636E-03
      0.225000          0.299045E-03
      0.230000          0.281190E-03
      0.235000          0.264812E-03
      0.240000          0.249741E-03
      0.245000          0.235879E-03
      0.250000          0.223174E-03
      0.255000          0.211606E-03
      0.260000          0.201168E-03
      0.265000          0.191860E-03
      0.270000          0.183671E-03
      0.275000          0.176580E-03
      0.280000          0.170551E-03
      0.285000          0.165527E-03
      0.290000          0.161435E-03
      0.295000          0.158186E-03
      0.300000          0.155677E-03
      0.305000          0.153798E-03
      0.310000          0.152431E-03
      0.315000          0.151458E-03
      0.320000          0.150764E-03
      0.325000          0.150238E-03
      0.330000          0.149782E-03
      0.335000          0.149305E-03
      0.340000          0.148733E-03
      0.345000          0.148002E-03
      0.350000          0.147067E-03
      0.355000          0.145894E-03
      0.360000          0.144462E-03
      0.365000          0.142765E-03
      0.370000          0.140805E-03
      0.375000          0.138596E-03
      0.380000          0.136158E-03
      0.385000          0.133517E-03
      0.390000          0.130704E-03
      0.395000          0.127752E-03
      0.400000          0.124698E-03
      0.405000          0.121575E-03
      0.410000          0.118421E-03
      0.415000          0.115270E-03
      0.420000          0.112153E-03
      0.425000          0.109102E-03
      0.430000          0.106144E-03
      0.435000          0.103307E-03
      0.440000          0.100613E-03
      0.445000          0.980846E-04
      0.450000          0.957400E-04
      0.455000          0.935959E-04
      0.460000          0.916666E-04
      0.465000          0.899640E-04
      0.470000          0.884975E-04
      0.475000          0.872740E-04
      0.480000          0.862978E-04
      0.485000          0.855703E-04
      0.490000          0.850899E-04
      0.495000          0.848522E-04
      0.500000          0.848494E-04
