 I_abs(s)[cm^-1]/c[mg/ml]
       0.00000          0.141718E-01
      0.500000E-02      0.141309E-01
      0.100000E-01      0.140088E-01
      0.150000E-01      0.138078E-01
      0.200000E-01      0.135314E-01
      0.250000E-01      0.131843E-01
      0.300000E-01      0.127724E-01
      0.350000E-01      0.123027E-01
      0.400000E-01      0.117827E-01
      0.450000E-01      0.112208E-01
      0.500000E-01      0.106255E-01
      0.550000E-01      0.100055E-01
      0.600000E-01      0.936971E-02
      0.650000E-01      0.872645E-02
      0.700000E-01      0.808377E-02
      0.750000E-01      0.744909E-02
      0.800000E-01      0.682913E-02
      0.850000E-01      0.622975E-02
      0.900000E-01      0.565595E-02
      0.950000E-01      0.511176E-02
      0.100000          0.460030E-02
      0.105000          0.412373E-02
      0.110000          0.368336E-02
      0.115000          0.327967E-02
      0.120000          0.291239E-02
      0.125000          0.258065E-02
      0.130000          0.228301E-02
      0.135000          0.201763E-02
      0.140000          0.178235E-02
      0.145000          0.157477E-02
      0.150000          0.139241E-02
      0.155000          0.123273E-02
      0.160000          0.109323E-02
      0.165000          0.971539E-03
      0.170000          0.865407E-03
      0.175000          0.772781E-03
      0.180000          0.691816E-03
      0.185000          0.620880E-03
      0.190000          0.558560E-03
      0.195000          0.503652E-03
      0.200000          0.455148E-03
      0.205000          0.412215E-03
      0.210000          0.374174E-03
      0.215000          0.340475E-03
      0.220000          0.310672E-03
      0.225000          0.284405E-03
      0.230000          0.261374E-03
      0.235000          0.241322E-03
      0.240000          0.224022E-03
      0.245000          0.209261E-03
      0.250000          0.196835E-03
      0.255000          0.186541E-03
      0.260000          0.178172E-03
      0.265000          0.171521E-03
      0.270000          0.166376E-03
      0.275000          0.162523E-03
      0.280000          0.159754E-03
      0.285000          0.157864E-03
      0.290000          0.156657E-03
      0.295000          0.155949E-03
      0.300000          0.155573E-03
      0.305000          0.155377E-03
      0.310000          0.155231E-03
      0.315000          0.155021E-03
      0.320000          0.154657E-03
      0.325000          0.154067E-03
      0.330000          0.153198E-03
      0.335000          0.152017E-03
      0.340000          0.150505E-03
      0.345000          0.148656E-03
      0.350000          0.146479E-03
      0.355000          0.143993E-03
      0.360000          0.141221E-03
      0.365000          0.138198E-03
      0.370000          0.134958E-03
      0.375000          0.131543E-03
      0.380000          0.127991E-03
      0.385000          0.124345E-03
      0.390000          0.120646E-03
      0.395000          0.116932E-03
      0.400000          0.113241E-03
      0.405000          0.109610E-03
      0.410000          0.106070E-03
      0.415000          0.102652E-03
      0.420000          0.993830E-04
      0.425000          0.962884E-04
      0.430000          0.933897E-04
      0.435000          0.907058E-04
      0.440000          0.882531E-04
      0.445000          0.860452E-04
      0.450000          0.840928E-04
      0.455000          0.824042E-04
      0.460000          0.809848E-04
      0.465000          0.798375E-04
      0.470000          0.789626E-04
      0.475000          0.783576E-04
      0.480000          0.780178E-04
      0.485000          0.779356E-04
      0.490000          0.781012E-04
      0.495000          0.785024E-04
      0.500000          0.791246E-04
