 I_abs(s)[cm^-1]/c[mg/ml]
       0.00000          0.141796E-01
      0.500000E-02      0.141414E-01
      0.100000E-01      0.140275E-01
      0.150000E-01      0.138395E-01
      0.200000E-01      0.135805E-01
      0.250000E-01      0.132542E-01
      0.300000E-01      0.128655E-01
      0.350000E-01      0.124203E-01
      0.400000E-01      0.119250E-01
      0.450000E-01      0.113867E-01
      0.500000E-01      0.108126E-01
      0.550000E-01      0.102107E-01
      0.600000E-01      0.958871E-02
      0.650000E-01      0.895434E-02
      0.700000E-01      0.831515E-02
      0.750000E-01      0.767834E-02
      0.800000E-01      0.705061E-02
      0.850000E-01      0.643809E-02
      0.900000E-01      0.584623E-02
      0.950000E-01      0.527976E-02
      0.100000          0.474261E-02
      0.105000          0.423790E-02
      0.110000          0.376797E-02
      0.115000          0.333435E-02
      0.120000          0.293781E-02
      0.125000          0.257843E-02
      0.130000          0.225566E-02
      0.135000          0.196839E-02
      0.140000          0.171500E-02
      0.145000          0.149353E-02
      0.150000          0.130169E-02
      0.155000          0.113697E-02
      0.160000          0.996749E-03
      0.165000          0.878344E-03
      0.170000          0.779096E-03
      0.175000          0.696423E-03
      0.180000          0.627878E-03
      0.185000          0.571186E-03
      0.190000          0.524275E-03
      0.195000          0.485299E-03
      0.200000          0.452644E-03
      0.205000          0.424935E-03
      0.210000          0.401026E-03
      0.215000          0.379990E-03
      0.220000          0.361099E-03
      0.225000          0.343805E-03
      0.230000          0.327715E-03
      0.235000          0.312566E-03
      0.240000          0.298198E-03
      0.245000          0.284534E-03
      0.250000          0.271552E-03
      0.255000          0.259267E-03
      0.260000          0.247718E-03
      0.265000          0.236944E-03
      0.270000          0.226981E-03
      0.275000          0.217850E-03
      0.280000          0.209555E-03
      0.285000          0.202077E-03
      0.290000          0.195373E-03
      0.295000          0.189385E-03
      0.300000          0.184033E-03
      0.305000          0.179227E-03
      0.310000          0.174869E-03
      0.315000          0.170857E-03
      0.320000          0.167091E-03
      0.325000          0.163475E-03
      0.330000          0.159926E-03
      0.335000          0.156371E-03
      0.340000          0.152752E-03
      0.345000          0.149028E-03
      0.350000          0.145174E-03
      0.355000          0.141179E-03
      0.360000          0.137049E-03
      0.365000          0.132803E-03
      0.370000          0.128468E-03
      0.375000          0.124083E-03
      0.380000          0.119693E-03
      0.385000          0.115346E-03
      0.390000          0.111091E-03
      0.395000          0.106977E-03
      0.400000          0.103051E-03
      0.405000          0.993535E-04
      0.410000          0.959226E-04
      0.415000          0.927883E-04
      0.420000          0.899740E-04
      0.425000          0.874959E-04
      0.430000          0.853633E-04
      0.435000          0.835784E-04
      0.440000          0.821371E-04
      0.445000          0.810296E-04
      0.450000          0.802410E-04
      0.455000          0.797520E-04
      0.460000          0.795399E-04
      0.465000          0.795793E-04
      0.470000          0.798428E-04
      0.475000          0.803020E-04
      0.480000          0.809277E-04
      0.485000          0.816907E-04
      0.490000          0.825625E-04
      0.495000          0.835154E-04
      0.500000          0.845231E-04
