 I_abs(s)[cm^-1]/c[mg/ml]
       0.00000          0.142110E-01
      0.500000E-02      0.141707E-01
      0.100000E-01      0.140505E-01
      0.150000E-01      0.138524E-01
      0.200000E-01      0.135797E-01
      0.250000E-01      0.132368E-01
      0.300000E-01      0.128292E-01
      0.350000E-01      0.123633E-01
      0.400000E-01      0.118465E-01
      0.450000E-01      0.112866E-01
      0.500000E-01      0.106917E-01
      0.550000E-01      0.100704E-01
      0.600000E-01      0.943112E-02
      0.650000E-01      0.878225E-02
      0.700000E-01      0.813180E-02
      0.750000E-01      0.748731E-02
      0.800000E-01      0.685569E-02
      0.850000E-01      0.624316E-02
      0.900000E-01      0.565510E-02
      0.950000E-01      0.509605E-02
      0.100000          0.456961E-02
      0.105000          0.407851E-02
      0.110000          0.362457E-02
      0.115000          0.320876E-02
      0.120000          0.283129E-02
      0.125000          0.249163E-02
      0.130000          0.218863E-02
      0.135000          0.192063E-02
      0.140000          0.168553E-02
      0.145000          0.148092E-02
      0.150000          0.130415E-02
      0.155000          0.115246E-02
      0.160000          0.102305E-02
      0.165000          0.913157E-03
      0.170000          0.820109E-03
      0.175000          0.741403E-03
      0.180000          0.674736E-03
      0.185000          0.618028E-03
      0.190000          0.569448E-03
      0.195000          0.527417E-03
      0.200000          0.490605E-03
      0.205000          0.457921E-03
      0.210000          0.428495E-03
      0.215000          0.401658E-03
      0.220000          0.376914E-03
      0.225000          0.353912E-03
      0.230000          0.332422E-03
      0.235000          0.312309E-03
      0.240000          0.293502E-03
      0.245000          0.275978E-03
      0.250000          0.259740E-03
      0.255000          0.244802E-03
      0.260000          0.231173E-03
      0.265000          0.218856E-03
      0.270000          0.207831E-03
      0.275000          0.198062E-03
      0.280000          0.189489E-03
      0.285000          0.182034E-03
      0.290000          0.175600E-03
      0.295000          0.170077E-03
      0.300000          0.165347E-03
      0.305000          0.161283E-03
      0.310000          0.157763E-03
      0.315000          0.154666E-03
      0.320000          0.151878E-03
      0.325000          0.149296E-03
      0.330000          0.146829E-03
      0.335000          0.144402E-03
      0.340000          0.141951E-03
      0.345000          0.139429E-03
      0.350000          0.136803E-03
      0.355000          0.134054E-03
      0.360000          0.131174E-03
      0.365000          0.128165E-03
      0.370000          0.125041E-03
      0.375000          0.121820E-03
      0.380000          0.118528E-03
      0.385000          0.115194E-03
      0.390000          0.111852E-03
      0.395000          0.108534E-03
      0.400000          0.105275E-03
      0.405000          0.102110E-03
      0.410000          0.990700E-04
      0.415000          0.961867E-04
      0.420000          0.934879E-04
      0.425000          0.909984E-04
      0.430000          0.887400E-04
      0.435000          0.867308E-04
      0.440000          0.849849E-04
      0.445000          0.835126E-04
      0.450000          0.823200E-04
      0.455000          0.814091E-04
      0.460000          0.807777E-04
      0.465000          0.804194E-04
      0.470000          0.803241E-04
      0.475000          0.804776E-04
      0.480000          0.808623E-04
      0.485000          0.814574E-04
      0.490000          0.822391E-04
      0.495000          0.831811E-04
      0.500000          0.842554E-04
