 I_abs(s)[cm^-1]/c[mg/ml]
       0.00000          0.142189E-01
      0.500000E-02      0.141814E-01
      0.100000E-01      0.140694E-01
      0.150000E-01      0.138847E-01
      0.200000E-01      0.136300E-01
      0.250000E-01      0.133091E-01
      0.300000E-01      0.129268E-01
      0.350000E-01      0.124885E-01
      0.400000E-01      0.120005E-01
      0.450000E-01      0.114696E-01
      0.500000E-01      0.109031E-01
      0.550000E-01      0.103083E-01
      0.600000E-01      0.969294E-02
      0.650000E-01      0.906451E-02
      0.700000E-01      0.843035E-02
      0.750000E-01      0.779750E-02
      0.800000E-01      0.717254E-02
      0.850000E-01      0.656151E-02
      0.900000E-01      0.596982E-02
      0.950000E-01      0.540217E-02
      0.100000          0.486253E-02
      0.105000          0.435410E-02
      0.110000          0.387930E-02
      0.115000          0.343980E-02
      0.120000          0.303653E-02
      0.125000          0.266974E-02
      0.130000          0.233906E-02
      0.135000          0.204356E-02
      0.140000          0.178185E-02
      0.145000          0.155212E-02
      0.150000          0.135225E-02
      0.155000          0.117989E-02
      0.160000          0.103254E-02
      0.165000          0.907634E-03
      0.170000          0.802570E-03
      0.175000          0.714814E-03
      0.180000          0.641932E-03
      0.185000          0.581634E-03
      0.190000          0.531809E-03
      0.195000          0.490546E-03
      0.200000          0.456152E-03
      0.205000          0.427154E-03
      0.210000          0.402304E-03
      0.215000          0.380566E-03
      0.220000          0.361105E-03
      0.225000          0.343275E-03
      0.230000          0.326591E-03
      0.235000          0.310715E-03
      0.240000          0.295429E-03
      0.245000          0.280617E-03
      0.250000          0.266236E-03
      0.255000          0.252306E-03
      0.260000          0.238882E-03
      0.265000          0.226045E-03
      0.270000          0.213883E-03
      0.275000          0.202487E-03
      0.280000          0.191932E-03
      0.285000          0.182281E-03
      0.290000          0.173576E-03
      0.295000          0.165834E-03
      0.300000          0.159052E-03
      0.305000          0.153201E-03
      0.310000          0.148234E-03
      0.315000          0.144086E-03
      0.320000          0.140677E-03
      0.325000          0.137915E-03
      0.330000          0.135703E-03
      0.335000          0.133938E-03
      0.340000          0.132517E-03
      0.345000          0.131340E-03
      0.350000          0.130312E-03
      0.355000          0.129344E-03
      0.360000          0.128359E-03
      0.365000          0.127288E-03
      0.370000          0.126076E-03
      0.375000          0.124679E-03
      0.380000          0.123065E-03
      0.385000          0.121216E-03
      0.390000          0.119125E-03
      0.395000          0.116795E-03
      0.400000          0.114242E-03
      0.405000          0.111490E-03
      0.410000          0.108570E-03
      0.415000          0.105523E-03
      0.420000          0.102391E-03
      0.425000          0.992231E-04
      0.430000          0.960704E-04
      0.435000          0.929841E-04
      0.440000          0.900155E-04
      0.445000          0.872140E-04
      0.450000          0.846259E-04
      0.455000          0.822933E-04
      0.460000          0.802532E-04
      0.465000          0.785366E-04
      0.470000          0.771679E-04
      0.475000          0.761642E-04
      0.480000          0.755354E-04
      0.485000          0.752838E-04
      0.490000          0.754041E-04
      0.495000          0.758841E-04
      0.500000          0.767047E-04
