 I_abs(s)[cm^-1]/c[mg/ml]
       0.00000          0.141483E-01
      0.500000E-02      0.141105E-01
      0.100000E-01      0.139980E-01
      0.150000E-01      0.138123E-01
      0.200000E-01      0.135564E-01
      0.250000E-01      0.132341E-01
      0.300000E-01      0.128504E-01
      0.350000E-01      0.124110E-01
      0.400000E-01      0.119222E-01
      0.450000E-01      0.113911E-01
      0.500000E-01      0.108251E-01
      0.550000E-01      0.102316E-01
      0.600000E-01      0.961855E-02
      0.650000E-01      0.899342E-02
      0.700000E-01      0.836364E-02
      0.750000E-01      0.773620E-02
      0.800000E-01      0.711765E-02
      0.850000E-01      0.651392E-02
      0.900000E-01      0.593028E-02
      0.950000E-01      0.537124E-02
      0.100000          0.484058E-02
      0.105000          0.434125E-02
      0.110000          0.387544E-02
      0.115000          0.344456E-02
      0.120000          0.304931E-02
      0.125000          0.268974E-02
      0.130000          0.236526E-02
      0.135000          0.207479E-02
      0.140000          0.181682E-02
      0.145000          0.158945E-02
      0.150000          0.139054E-02
      0.155000          0.121776E-02
      0.160000          0.106866E-02
      0.165000          0.940785E-03
      0.170000          0.831674E-03
      0.175000          0.738968E-03
      0.180000          0.660433E-03
      0.185000          0.593994E-03
      0.190000          0.537764E-03
      0.195000          0.490057E-03
      0.200000          0.449395E-03
      0.205000          0.414506E-03
      0.210000          0.384320E-03
      0.215000          0.357951E-03
      0.220000          0.334684E-03
      0.225000          0.313957E-03
      0.230000          0.295334E-03
      0.235000          0.278490E-03
      0.240000          0.263187E-03
      0.245000          0.249256E-03
      0.250000          0.236576E-03
      0.255000          0.225062E-03
      0.260000          0.214650E-03
      0.265000          0.205287E-03
      0.270000          0.196920E-03
      0.275000          0.189497E-03
      0.280000          0.182957E-03
      0.285000          0.177231E-03
      0.290000          0.172242E-03
      0.295000          0.167906E-03
      0.300000          0.164133E-03
      0.305000          0.160831E-03
      0.310000          0.157907E-03
      0.315000          0.155273E-03
      0.320000          0.152842E-03
      0.325000          0.150538E-03
      0.330000          0.148292E-03
      0.335000          0.146044E-03
      0.340000          0.143748E-03
      0.345000          0.141365E-03
      0.350000          0.138871E-03
      0.355000          0.136248E-03
      0.360000          0.133491E-03
      0.365000          0.130600E-03
      0.370000          0.127585E-03
      0.375000          0.124459E-03
      0.380000          0.121243E-03
      0.385000          0.117959E-03
      0.390000          0.114633E-03
      0.395000          0.111292E-03
      0.400000          0.107963E-03
      0.405000          0.104674E-03
      0.410000          0.101453E-03
      0.415000          0.983269E-04
      0.420000          0.953198E-04
      0.425000          0.924559E-04
      0.430000          0.897569E-04
      0.435000          0.872424E-04
      0.440000          0.849299E-04
      0.445000          0.828343E-04
      0.450000          0.809678E-04
      0.455000          0.793398E-04
      0.460000          0.779568E-04
      0.465000          0.768221E-04
      0.470000          0.759360E-04
      0.475000          0.752953E-04
      0.480000          0.748938E-04
      0.485000          0.747220E-04
      0.490000          0.747675E-04
      0.495000          0.750149E-04
      0.500000          0.754465E-04
