 I_abs(s)[cm^-1]/c[mg/ml]
       0.00000          0.142346E-01
      0.500000E-02      0.141962E-01
      0.100000E-01      0.140818E-01
      0.150000E-01      0.138931E-01
      0.200000E-01      0.136330E-01
      0.250000E-01      0.133056E-01
      0.300000E-01      0.129158E-01
      0.350000E-01      0.124694E-01
      0.400000E-01      0.119731E-01
      0.450000E-01      0.114340E-01
      0.500000E-01      0.108597E-01
      0.550000E-01      0.102578E-01
      0.600000E-01      0.963641E-02
      0.650000E-01      0.900319E-02
      0.700000E-01      0.836574E-02
      0.750000E-01      0.773121E-02
      0.800000E-01      0.710630E-02
      0.850000E-01      0.649705E-02
      0.900000E-01      0.590884E-02
      0.950000E-01      0.534628E-02
      0.100000          0.481317E-02
      0.105000          0.431250E-02
      0.110000          0.384645E-02
      0.115000          0.341640E-02
      0.120000          0.302300E-02
      0.125000          0.266618E-02
      0.130000          0.234528E-02
      0.135000          0.205909E-02
      0.140000          0.180593E-02
      0.145000          0.158377E-02
      0.150000          0.139032E-02
      0.155000          0.122307E-02
      0.160000          0.107944E-02
      0.165000          0.956794E-03
      0.170000          0.852564E-03
      0.175000          0.764262E-03
      0.180000          0.689552E-03
      0.185000          0.626278E-03
      0.190000          0.572494E-03
      0.195000          0.526478E-03
      0.200000          0.486739E-03
      0.205000          0.452013E-03
      0.210000          0.421257E-03
      0.215000          0.393634E-03
      0.220000          0.368491E-03
      0.225000          0.345337E-03
      0.230000          0.323823E-03
      0.235000          0.303711E-03
      0.240000          0.284856E-03
      0.245000          0.267179E-03
      0.250000          0.250646E-03
      0.255000          0.235253E-03
      0.260000          0.221010E-03
      0.265000          0.207927E-03
      0.270000          0.196006E-03
      0.275000          0.185235E-03
      0.280000          0.175584E-03
      0.285000          0.167005E-03
      0.290000          0.159431E-03
      0.295000          0.152781E-03
      0.300000          0.146959E-03
      0.305000          0.141863E-03
      0.310000          0.137384E-03
      0.315000          0.133416E-03
      0.320000          0.129854E-03
      0.325000          0.126602E-03
      0.330000          0.123575E-03
      0.335000          0.120698E-03
      0.340000          0.117910E-03
      0.345000          0.115164E-03
      0.350000          0.112428E-03
      0.355000          0.109681E-03
      0.360000          0.106915E-03
      0.365000          0.104133E-03
      0.370000          0.101345E-03
      0.375000          0.985680E-04
      0.380000          0.958242E-04
      0.385000          0.931386E-04
      0.390000          0.905375E-04
      0.395000          0.880471E-04
      0.400000          0.856926E-04
      0.405000          0.834968E-04
      0.410000          0.814801E-04
      0.415000          0.796597E-04
      0.420000          0.780496E-04
      0.425000          0.766606E-04
      0.430000          0.755005E-04
      0.435000          0.745743E-04
      0.440000          0.738846E-04
      0.445000          0.734317E-04
      0.450000          0.732142E-04
      0.455000          0.732292E-04
      0.460000          0.734723E-04
      0.465000          0.739379E-04
      0.470000          0.746194E-04
      0.475000          0.755090E-04
      0.480000          0.765977E-04
      0.485000          0.778753E-04
      0.490000          0.793302E-04
      0.495000          0.809492E-04
      0.500000          0.827176E-04
