 I_abs(s)[cm^-1]/c[mg/ml]
       0.00000          0.142032E-01
      0.500000E-02      0.141635E-01
      0.100000E-01      0.140452E-01
      0.150000E-01      0.138502E-01
      0.200000E-01      0.135816E-01
      0.250000E-01      0.132437E-01
      0.300000E-01      0.128417E-01
      0.350000E-01      0.123820E-01
      0.400000E-01      0.118714E-01
      0.450000E-01      0.113176E-01
      0.500000E-01      0.107286E-01
      0.550000E-01      0.101125E-01
      0.600000E-01      0.947775E-02
      0.650000E-01      0.883242E-02
      0.700000E-01      0.818443E-02
      0.750000E-01      0.754125E-02
      0.800000E-01      0.690977E-02
      0.850000E-01      0.629620E-02
      0.900000E-01      0.570600E-02
      0.950000E-01      0.514379E-02
      0.100000          0.461333E-02
      0.105000          0.411749E-02
      0.110000          0.365828E-02
      0.115000          0.323686E-02
      0.120000          0.285360E-02
      0.125000          0.250818E-02
      0.130000          0.219959E-02
      0.135000          0.192632E-02
      0.140000          0.168639E-02
      0.145000          0.147745E-02
      0.150000          0.129693E-02
      0.155000          0.114207E-02
      0.160000          0.101006E-02
      0.165000          0.898110E-03
      0.170000          0.803490E-03
      0.175000          0.723625E-03
      0.180000          0.656126E-03
      0.185000          0.598828E-03
      0.190000          0.549813E-03
      0.195000          0.507421E-03
      0.200000          0.470253E-03
      0.205000          0.437163E-03
      0.210000          0.407244E-03
      0.215000          0.379806E-03
      0.220000          0.354350E-03
      0.225000          0.330543E-03
      0.230000          0.308186E-03
      0.235000          0.287187E-03
      0.240000          0.267529E-03
      0.245000          0.249249E-03
      0.250000          0.232411E-03
      0.255000          0.217089E-03
      0.260000          0.203347E-03
      0.265000          0.191232E-03
      0.270000          0.180761E-03
      0.275000          0.171918E-03
      0.280000          0.164651E-03
      0.285000          0.158873E-03
      0.290000          0.154467E-03
      0.295000          0.151288E-03
      0.300000          0.149169E-03
      0.305000          0.147929E-03
      0.310000          0.147381E-03
      0.315000          0.147334E-03
      0.320000          0.147605E-03
      0.325000          0.148022E-03
      0.330000          0.148426E-03
      0.335000          0.148680E-03
      0.340000          0.148668E-03
      0.345000          0.148297E-03
      0.350000          0.147501E-03
      0.355000          0.146235E-03
      0.360000          0.144479E-03
      0.365000          0.142232E-03
      0.370000          0.139515E-03
      0.375000          0.136364E-03
      0.380000          0.132829E-03
      0.385000          0.128971E-03
      0.390000          0.124860E-03
      0.395000          0.120569E-03
      0.400000          0.116177E-03
      0.405000          0.111761E-03
      0.410000          0.107397E-03
      0.415000          0.103158E-03
      0.420000          0.991091E-04
      0.425000          0.953122E-04
      0.430000          0.918203E-04
      0.435000          0.886780E-04
      0.440000          0.859216E-04
      0.445000          0.835783E-04
      0.450000          0.816665E-04
      0.455000          0.801955E-04
      0.460000          0.791664E-04
      0.465000          0.785718E-04
      0.470000          0.783970E-04
      0.475000          0.786204E-04
      0.480000          0.792143E-04
      0.485000          0.801455E-04
      0.490000          0.813764E-04
      0.495000          0.828658E-04
      0.500000          0.845700E-04
