 I_abs(s)[cm^-1]/c[mg/ml]
       0.00000          0.142267E-01
      0.500000E-02      0.141888E-01
      0.100000E-01      0.140756E-01
      0.150000E-01      0.138888E-01
      0.200000E-01      0.136313E-01
      0.250000E-01      0.133069E-01
      0.300000E-01      0.129204E-01
      0.350000E-01      0.124775E-01
      0.400000E-01      0.119845E-01
      0.450000E-01      0.114483E-01
      0.500000E-01      0.108763E-01
      0.550000E-01      0.102761E-01
      0.600000E-01      0.965545E-02
      0.650000E-01      0.902197E-02
      0.700000E-01      0.838315E-02
      0.750000E-01      0.774615E-02
      0.800000E-01      0.711764E-02
      0.850000E-01      0.650376E-02
      0.900000E-01      0.590998E-02
      0.950000E-01      0.534105E-02
      0.100000          0.480097E-02
      0.105000          0.429292E-02
      0.110000          0.381931E-02
      0.115000          0.338175E-02
      0.120000          0.298111E-02
      0.125000          0.261754E-02
      0.130000          0.229058E-02
      0.135000          0.199916E-02
      0.140000          0.174177E-02
      0.145000          0.151646E-02
      0.150000          0.132098E-02
      0.155000          0.115286E-02
      0.160000          0.100947E-02
      0.165000          0.888142E-03
      0.170000          0.786185E-03
      0.175000          0.701000E-03
      0.180000          0.630109E-03
      0.185000          0.571200E-03
      0.190000          0.522166E-03
      0.195000          0.481123E-03
      0.200000          0.446427E-03
      0.205000          0.416672E-03
      0.210000          0.390694E-03
      0.215000          0.367552E-03
      0.220000          0.346516E-03
      0.225000          0.327042E-03
      0.230000          0.308752E-03
      0.235000          0.291405E-03
      0.240000          0.274872E-03
      0.245000          0.259109E-03
      0.250000          0.244132E-03
      0.255000          0.229998E-03
      0.260000          0.216783E-03
      0.265000          0.204564E-03
      0.270000          0.193411E-03
      0.275000          0.183372E-03
      0.280000          0.174472E-03
      0.285000          0.166703E-03
      0.290000          0.160032E-03
      0.295000          0.154393E-03
      0.300000          0.149697E-03
      0.305000          0.145836E-03
      0.310000          0.142685E-03
      0.315000          0.140110E-03
      0.320000          0.137978E-03
      0.325000          0.136154E-03
      0.330000          0.134515E-03
      0.335000          0.132947E-03
      0.340000          0.131354E-03
      0.345000          0.129658E-03
      0.350000          0.127800E-03
      0.355000          0.125740E-03
      0.360000          0.123459E-03
      0.365000          0.120953E-03
      0.370000          0.118237E-03
      0.375000          0.115338E-03
      0.380000          0.112294E-03
      0.385000          0.109149E-03
      0.390000          0.105955E-03
      0.395000          0.102765E-03
      0.400000          0.996301E-04
      0.405000          0.966008E-04
      0.410000          0.937223E-04
      0.415000          0.910344E-04
      0.420000          0.885701E-04
      0.425000          0.863549E-04
      0.430000          0.844074E-04
      0.435000          0.827385E-04
      0.440000          0.813526E-04
      0.445000          0.802480E-04
      0.450000          0.794178E-04
      0.455000          0.788507E-04
      0.460000          0.785323E-04
      0.465000          0.784458E-04
      0.470000          0.785729E-04
      0.475000          0.788947E-04
      0.480000          0.793924E-04
      0.485000          0.800476E-04
      0.490000          0.808430E-04
      0.495000          0.817623E-04
      0.500000          0.827904E-04
