 I_abs(s)[cm^-1]/c[mg/ml]
       0.00000          0.145825E-01
      0.500000E-02      0.145437E-01
      0.100000E-01      0.144282E-01
      0.150000E-01      0.142375E-01
      0.200000E-01      0.139747E-01
      0.250000E-01      0.136437E-01
      0.300000E-01      0.132496E-01
      0.350000E-01      0.127982E-01
      0.400000E-01      0.122960E-01
      0.450000E-01      0.117501E-01
      0.500000E-01      0.111682E-01
      0.550000E-01      0.105580E-01
      0.600000E-01      0.992733E-02
      0.650000E-01      0.928403E-02
      0.700000E-01      0.863566E-02
      0.750000E-01      0.798937E-02
      0.800000E-01      0.735187E-02
      0.850000E-01      0.672923E-02
      0.900000E-01      0.612686E-02
      0.950000E-01      0.554940E-02
      0.100000          0.500073E-02
      0.105000          0.448392E-02
      0.110000          0.400123E-02
      0.115000          0.355416E-02
      0.120000          0.314348E-02
      0.125000          0.276928E-02
      0.130000          0.243103E-02
      0.135000          0.212770E-02
      0.140000          0.185778E-02
      0.145000          0.161943E-02
      0.150000          0.141052E-02
      0.155000          0.122871E-02
      0.160000          0.107159E-02
      0.165000          0.936679E-03
      0.170000          0.821517E-03
      0.175000          0.723728E-03
      0.180000          0.641052E-03
      0.185000          0.571382E-03
      0.190000          0.512787E-03
      0.195000          0.463529E-03
      0.200000          0.422069E-03
      0.205000          0.387065E-03
      0.210000          0.357366E-03
      0.215000          0.332000E-03
      0.220000          0.310159E-03
      0.225000          0.291183E-03
      0.230000          0.274536E-03
      0.235000          0.259793E-03
      0.240000          0.246617E-03
      0.245000          0.234745E-03
      0.250000          0.223968E-03
      0.255000          0.214125E-03
      0.260000          0.205082E-03
      0.265000          0.196735E-03
      0.270000          0.188992E-03
      0.275000          0.181776E-03
      0.280000          0.175019E-03
      0.285000          0.168661E-03
      0.290000          0.162648E-03
      0.295000          0.156935E-03
      0.300000          0.151482E-03
      0.305000          0.146259E-03
      0.310000          0.141242E-03
      0.315000          0.136418E-03
      0.320000          0.131779E-03
      0.325000          0.127326E-03
      0.330000          0.123065E-03
      0.335000          0.119008E-03
      0.340000          0.115168E-03
      0.345000          0.111561E-03
      0.350000          0.108202E-03
      0.355000          0.105103E-03
      0.360000          0.102273E-03
      0.365000          0.997157E-04
      0.370000          0.974286E-04
      0.375000          0.954039E-04
      0.380000          0.936270E-04
      0.385000          0.920780E-04
      0.390000          0.907319E-04
      0.395000          0.895599E-04
      0.400000          0.885308E-04
      0.405000          0.876125E-04
      0.410000          0.867734E-04
      0.415000          0.859842E-04
      0.420000          0.852189E-04
      0.425000          0.844561E-04
      0.430000          0.836803E-04
      0.435000          0.828819E-04
      0.440000          0.820579E-04
      0.445000          0.812118E-04
      0.450000          0.803532E-04
      0.455000          0.794969E-04
      0.460000          0.786625E-04
      0.465000          0.778728E-04
      0.470000          0.771529E-04
      0.475000          0.765286E-04
      0.480000          0.760252E-04
      0.485000          0.756662E-04
      0.490000          0.754722E-04
      0.495000          0.754598E-04
      0.500000          0.756408E-04
