 I_abs(s)[cm^-1]/c[mg/ml]
       0.00000          0.142424E-01
      0.500000E-02      0.142039E-01
      0.100000E-01      0.140890E-01
      0.150000E-01      0.138996E-01
      0.200000E-01      0.136385E-01
      0.250000E-01      0.133099E-01
      0.300000E-01      0.129187E-01
      0.350000E-01      0.124709E-01
      0.400000E-01      0.119732E-01
      0.450000E-01      0.114326E-01
      0.500000E-01      0.108569E-01
      0.550000E-01      0.102539E-01
      0.600000E-01      0.963146E-02
      0.650000E-01      0.899746E-02
      0.700000E-01      0.835946E-02
      0.750000E-01      0.772465E-02
      0.800000E-01      0.709971E-02
      0.850000E-01      0.649067E-02
      0.900000E-01      0.590289E-02
      0.950000E-01      0.534092E-02
      0.100000          0.480855E-02
      0.105000          0.430871E-02
      0.110000          0.384353E-02
      0.115000          0.341435E-02
      0.120000          0.302176E-02
      0.125000          0.266568E-02
      0.130000          0.234541E-02
      0.135000          0.205969E-02
      0.140000          0.180687E-02
      0.145000          0.158489E-02
      0.150000          0.139146E-02
      0.155000          0.122410E-02
      0.160000          0.108024E-02
      0.165000          0.957284E-03
      0.170000          0.852676E-03
      0.175000          0.763967E-03
      0.180000          0.688852E-03
      0.185000          0.625207E-03
      0.190000          0.571112E-03
      0.195000          0.524869E-03
      0.200000          0.485005E-03
      0.205000          0.450269E-03
      0.210000          0.419627E-03
      0.215000          0.392242E-03
      0.220000          0.367460E-03
      0.225000          0.344783E-03
      0.230000          0.323851E-03
      0.235000          0.304417E-03
      0.240000          0.286322E-03
      0.245000          0.269474E-03
      0.250000          0.253830E-03
      0.255000          0.239374E-03
      0.260000          0.226109E-03
      0.265000          0.214038E-03
      0.270000          0.203161E-03
      0.275000          0.193463E-03
      0.280000          0.184916E-03
      0.285000          0.177470E-03
      0.290000          0.171061E-03
      0.295000          0.165605E-03
      0.300000          0.161005E-03
      0.305000          0.157154E-03
      0.310000          0.153938E-03
      0.315000          0.151237E-03
      0.320000          0.148934E-03
      0.325000          0.146915E-03
      0.330000          0.145074E-03
      0.335000          0.143314E-03
      0.340000          0.141547E-03
      0.345000          0.139702E-03
      0.350000          0.137720E-03
      0.355000          0.135554E-03
      0.360000          0.133174E-03
      0.365000          0.130563E-03
      0.370000          0.127715E-03
      0.375000          0.124637E-03
      0.380000          0.121345E-03
      0.385000          0.117864E-03
      0.390000          0.114227E-03
      0.395000          0.110472E-03
      0.400000          0.106643E-03
      0.405000          0.102784E-03
      0.410000          0.989440E-04
      0.415000          0.951695E-04
      0.420000          0.915077E-04
      0.425000          0.880038E-04
      0.430000          0.847000E-04
      0.435000          0.816353E-04
      0.440000          0.788441E-04
      0.445000          0.763562E-04
      0.450000          0.741960E-04
      0.455000          0.723823E-04
      0.460000          0.709280E-04
      0.465000          0.698398E-04
      0.470000          0.691183E-04
      0.475000          0.687583E-04
      0.480000          0.687483E-04
      0.485000          0.690715E-04
      0.490000          0.697059E-04
      0.495000          0.706245E-04
      0.500000          0.717963E-04
