 I_abs(s)[cm^-1]/c[mg/ml]
       0.00000          0.142582E-01
      0.500000E-02      0.142202E-01
      0.100000E-01      0.141071E-01
      0.150000E-01      0.139204E-01
      0.200000E-01      0.136630E-01
      0.250000E-01      0.133388E-01
      0.300000E-01      0.129526E-01
      0.350000E-01      0.125101E-01
      0.400000E-01      0.120176E-01
      0.450000E-01      0.114822E-01
      0.500000E-01      0.109111E-01
      0.550000E-01      0.103120E-01
      0.600000E-01      0.969257E-02
      0.650000E-01      0.906052E-02
      0.700000E-01      0.842327E-02
      0.750000E-01      0.778796E-02
      0.800000E-01      0.716121E-02
      0.850000E-01      0.654910E-02
      0.900000E-01      0.595704E-02
      0.950000E-01      0.538973E-02
      0.100000          0.485109E-02
      0.105000          0.434425E-02
      0.110000          0.387155E-02
      0.115000          0.343455E-02
      0.120000          0.303406E-02
      0.125000          0.267021E-02
      0.130000          0.234251E-02
      0.135000          0.204990E-02
      0.140000          0.179085E-02
      0.145000          0.156345E-02
      0.150000          0.136548E-02
      0.155000          0.119452E-02
      0.160000          0.104801E-02
      0.165000          0.923332E-03
      0.170000          0.817886E-03
      0.175000          0.729145E-03
      0.180000          0.654709E-03
      0.185000          0.592344E-03
      0.190000          0.540012E-03
      0.195000          0.495892E-03
      0.200000          0.458392E-03
      0.205000          0.426150E-03
      0.210000          0.398028E-03
      0.215000          0.373103E-03
      0.220000          0.350647E-03
      0.225000          0.330110E-03
      0.230000          0.311093E-03
      0.235000          0.293326E-03
      0.240000          0.276643E-03
      0.245000          0.260956E-03
      0.250000          0.246237E-03
      0.255000          0.232495E-03
      0.260000          0.219758E-03
      0.265000          0.208061E-03
      0.270000          0.197432E-03
      0.275000          0.187887E-03
      0.280000          0.179421E-03
      0.285000          0.172008E-03
      0.290000          0.165601E-03
      0.295000          0.160128E-03
      0.300000          0.155502E-03
      0.305000          0.151621E-03
      0.310000          0.148373E-03
      0.315000          0.145640E-03
      0.320000          0.143307E-03
      0.325000          0.141258E-03
      0.330000          0.139391E-03
      0.335000          0.137610E-03
      0.340000          0.135835E-03
      0.345000          0.134002E-03
      0.350000          0.132060E-03
      0.355000          0.129977E-03
      0.360000          0.127732E-03
      0.365000          0.125320E-03
      0.370000          0.122748E-03
      0.375000          0.120034E-03
      0.380000          0.117200E-03
      0.385000          0.114278E-03
      0.390000          0.111301E-03
      0.395000          0.108304E-03
      0.400000          0.105323E-03
      0.405000          0.102391E-03
      0.410000          0.995394E-04
      0.415000          0.967964E-04
      0.420000          0.941857E-04
      0.425000          0.917270E-04
      0.430000          0.894363E-04
      0.435000          0.873255E-04
      0.440000          0.854032E-04
      0.445000          0.836750E-04
      0.450000          0.821441E-04
      0.455000          0.808119E-04
      0.460000          0.796781E-04
      0.465000          0.787417E-04
      0.470000          0.780007E-04
      0.475000          0.774530E-04
      0.480000          0.770960E-04
      0.485000          0.769265E-04
      0.490000          0.769414E-04
      0.495000          0.771365E-04
      0.500000          0.775071E-04
