 I_abs(s)[cm^-1]/c[mg/ml]
       0.00000          0.142582E-01
      0.500000E-02      0.142200E-01
      0.100000E-01      0.141060E-01
      0.150000E-01      0.139181E-01
      0.200000E-01      0.136591E-01
      0.250000E-01      0.133330E-01
      0.300000E-01      0.129450E-01
      0.350000E-01      0.125007E-01
      0.400000E-01      0.120068E-01
      0.450000E-01      0.114703E-01
      0.500000E-01      0.108989E-01
      0.550000E-01      0.103002E-01
      0.600000E-01      0.968204E-02
      0.650000E-01      0.905222E-02
      0.700000E-01      0.841816E-02
      0.750000E-01      0.778696E-02
      0.800000E-01      0.716518E-02
      0.850000E-01      0.655878E-02
      0.900000E-01      0.597301E-02
      0.950000E-01      0.541238E-02
      0.100000          0.488059E-02
      0.105000          0.438053E-02
      0.110000          0.391431E-02
      0.115000          0.348326E-02
      0.120000          0.308797E-02
      0.125000          0.272839E-02
      0.130000          0.240386E-02
      0.135000          0.211321E-02
      0.140000          0.185484E-02
      0.145000          0.162681E-02
      0.150000          0.142694E-02
      0.155000          0.125287E-02
      0.160000          0.110215E-02
      0.165000          0.972321E-03
      0.170000          0.860964E-03
      0.175000          0.765755E-03
      0.180000          0.684509E-03
      0.185000          0.615212E-03
      0.190000          0.556042E-03
      0.195000          0.505380E-03
      0.200000          0.461817E-03
      0.205000          0.424143E-03
      0.210000          0.391347E-03
      0.215000          0.362593E-03
      0.220000          0.337208E-03
      0.225000          0.314658E-03
      0.230000          0.294529E-03
      0.235000          0.276503E-03
      0.240000          0.260339E-03
      0.245000          0.245857E-03
      0.250000          0.232914E-03
      0.255000          0.221397E-03
      0.260000          0.211208E-03
      0.265000          0.202256E-03
      0.270000          0.194451E-03
      0.275000          0.187698E-03
      0.280000          0.181898E-03
      0.285000          0.176945E-03
      0.290000          0.172728E-03
      0.295000          0.169135E-03
      0.300000          0.166051E-03
      0.305000          0.163367E-03
      0.310000          0.160974E-03
      0.315000          0.158775E-03
      0.320000          0.156681E-03
      0.325000          0.154615E-03
      0.330000          0.152510E-03
      0.335000          0.150316E-03
      0.340000          0.147992E-03
      0.345000          0.145512E-03
      0.350000          0.142859E-03
      0.355000          0.140028E-03
      0.360000          0.137023E-03
      0.365000          0.133854E-03
      0.370000          0.130538E-03
      0.375000          0.127096E-03
      0.380000          0.123552E-03
      0.385000          0.119932E-03
      0.390000          0.116264E-03
      0.395000          0.112575E-03
      0.400000          0.108894E-03
      0.405000          0.105246E-03
      0.410000          0.101658E-03
      0.415000          0.981550E-04
      0.420000          0.947613E-04
      0.425000          0.914999E-04
      0.430000          0.883932E-04
      0.435000          0.854622E-04
      0.440000          0.827274E-04
      0.445000          0.802079E-04
      0.450000          0.779219E-04
      0.455000          0.758859E-04
      0.460000          0.741151E-04
      0.465000          0.726226E-04
      0.470000          0.714194E-04
      0.475000          0.705136E-04
      0.480000          0.699108E-04
      0.485000          0.696129E-04
      0.490000          0.696186E-04
      0.495000          0.699226E-04
      0.500000          0.705155E-04
