 I_abs(s)[cm^-1]/c[mg/ml]
       0.00000          0.142896E-01
      0.500000E-02      0.142504E-01
      0.100000E-01      0.141334E-01
      0.150000E-01      0.139405E-01
      0.200000E-01      0.136746E-01
      0.250000E-01      0.133401E-01
      0.300000E-01      0.129420E-01
      0.350000E-01      0.124864E-01
      0.400000E-01      0.119802E-01
      0.450000E-01      0.114306E-01
      0.500000E-01      0.108456E-01
      0.550000E-01      0.102332E-01
      0.600000E-01      0.960145E-02
      0.650000E-01      0.895836E-02
      0.700000E-01      0.831166E-02
      0.750000E-01      0.766870E-02
      0.800000E-01      0.703625E-02
      0.850000E-01      0.642046E-02
      0.900000E-01      0.582674E-02
      0.950000E-01      0.525972E-02
      0.100000          0.472319E-02
      0.105000          0.422012E-02
      0.110000          0.375262E-02
      0.115000          0.332201E-02
      0.120000          0.292885E-02
      0.125000          0.257302E-02
      0.130000          0.225375E-02
      0.135000          0.196976E-02
      0.140000          0.171931E-02
      0.145000          0.150031E-02
      0.150000          0.131040E-02
      0.155000          0.114704E-02
      0.160000          0.100759E-02
      0.165000          0.889407E-03
      0.170000          0.789875E-03
      0.175000          0.706486E-03
      0.180000          0.636875E-03
      0.185000          0.578860E-03
      0.190000          0.530459E-03
      0.195000          0.489915E-03
      0.200000          0.455693E-03
      0.205000          0.426481E-03
      0.210000          0.401185E-03
      0.215000          0.378909E-03
      0.220000          0.358944E-03
      0.225000          0.340741E-03
      0.230000          0.323894E-03
      0.235000          0.308117E-03
      0.240000          0.293218E-03
      0.245000          0.279084E-03
      0.250000          0.265656E-03
      0.255000          0.252918E-03
      0.260000          0.240876E-03
      0.265000          0.229550E-03
      0.270000          0.218966E-03
      0.275000          0.209144E-03
      0.280000          0.200095E-03
      0.285000          0.191820E-03
      0.290000          0.184306E-03
      0.295000          0.177527E-03
      0.300000          0.171446E-03
      0.305000          0.166014E-03
      0.310000          0.161174E-03
      0.315000          0.156864E-03
      0.320000          0.153019E-03
      0.325000          0.149572E-03
      0.330000          0.146459E-03
      0.335000          0.143616E-03
      0.340000          0.140988E-03
      0.345000          0.138522E-03
      0.350000          0.136173E-03
      0.355000          0.133904E-03
      0.360000          0.131684E-03
      0.365000          0.129487E-03
      0.370000          0.127296E-03
      0.375000          0.125100E-03
      0.380000          0.122892E-03
      0.385000          0.120669E-03
      0.390000          0.118434E-03
      0.395000          0.116192E-03
      0.400000          0.113950E-03
      0.405000          0.111717E-03
      0.410000          0.109505E-03
      0.415000          0.107324E-03
      0.420000          0.105186E-03
      0.425000          0.103104E-03
      0.430000          0.101089E-03
      0.435000          0.991530E-04
      0.440000          0.973062E-04
      0.445000          0.955590E-04
      0.450000          0.939205E-04
      0.455000          0.923989E-04
      0.460000          0.910015E-04
      0.465000          0.897342E-04
      0.470000          0.886019E-04
      0.475000          0.876079E-04
      0.480000          0.867543E-04
      0.485000          0.860415E-04
      0.490000          0.854686E-04
      0.495000          0.850328E-04
      0.500000          0.847300E-04
