 I_abs(s)[cm^-1]/c[mg/ml]
       0.00000          0.144634E-01
      0.500000E-02      0.144230E-01
      0.100000E-01      0.143025E-01
      0.150000E-01      0.141039E-01
      0.200000E-01      0.138305E-01
      0.250000E-01      0.134865E-01
      0.300000E-01      0.130776E-01
      0.350000E-01      0.126100E-01
      0.400000E-01      0.120911E-01
      0.450000E-01      0.115286E-01
      0.500000E-01      0.109306E-01
      0.550000E-01      0.103055E-01
      0.600000E-01      0.966188E-02
      0.650000E-01      0.900788E-02
      0.700000E-01      0.835152E-02
      0.750000E-01      0.770030E-02
      0.800000E-01      0.706111E-02
      0.850000E-01      0.644015E-02
      0.900000E-01      0.584283E-02
      0.950000E-01      0.527369E-02
      0.100000          0.473641E-02
      0.105000          0.423379E-02
      0.110000          0.376775E-02
      0.115000          0.333939E-02
      0.120000          0.294904E-02
      0.125000          0.259634E-02
      0.130000          0.228029E-02
      0.135000          0.199941E-02
      0.140000          0.175176E-02
      0.145000          0.153509E-02
      0.150000          0.134690E-02
      0.155000          0.118458E-02
      0.160000          0.104542E-02
      0.165000          0.926749E-03
      0.170000          0.825963E-03
      0.175000          0.740591E-03
      0.180000          0.668329E-03
      0.185000          0.607079E-03
      0.190000          0.554959E-03
      0.195000          0.510319E-03
      0.200000          0.471742E-03
      0.205000          0.438035E-03
      0.210000          0.408218E-03
      0.215000          0.381506E-03
      0.220000          0.357289E-03
      0.225000          0.335111E-03
      0.230000          0.314644E-03
      0.235000          0.295664E-03
      0.240000          0.278032E-03
      0.245000          0.261668E-03
      0.250000          0.246535E-03
      0.255000          0.232626E-03
      0.260000          0.219940E-03
      0.265000          0.208483E-03
      0.270000          0.198252E-03
      0.275000          0.189230E-03
      0.280000          0.181385E-03
      0.285000          0.174667E-03
      0.290000          0.169007E-03
      0.295000          0.164321E-03
      0.300000          0.160510E-03
      0.305000          0.157464E-03
      0.310000          0.155066E-03
      0.315000          0.153195E-03
      0.320000          0.151733E-03
      0.325000          0.150561E-03
      0.330000          0.149571E-03
      0.335000          0.148663E-03
      0.340000          0.147748E-03
      0.345000          0.146751E-03
      0.350000          0.145610E-03
      0.355000          0.144279E-03
      0.360000          0.142724E-03
      0.365000          0.140928E-03
      0.370000          0.138884E-03
      0.375000          0.136598E-03
      0.380000          0.134087E-03
      0.385000          0.131374E-03
      0.390000          0.128492E-03
      0.395000          0.125477E-03
      0.400000          0.122370E-03
      0.405000          0.119213E-03
      0.410000          0.116049E-03
      0.415000          0.112921E-03
      0.420000          0.109869E-03
      0.425000          0.106931E-03
      0.430000          0.104141E-03
      0.435000          0.101529E-03
      0.440000          0.991219E-04
      0.445000          0.969397E-04
      0.450000          0.949989E-04
      0.455000          0.933107E-04
      0.460000          0.918816E-04
      0.465000          0.907136E-04
      0.470000          0.898041E-04
      0.475000          0.891467E-04
      0.480000          0.887310E-04
      0.485000          0.885433E-04
      0.490000          0.885668E-04
      0.495000          0.887820E-04
      0.500000          0.891671E-04
