 I_abs(s)[cm^-1]/c[mg/ml]
       0.00000          0.142818E-01
      0.500000E-02      0.142403E-01
      0.100000E-01      0.141166E-01
      0.150000E-01      0.139129E-01
      0.200000E-01      0.136328E-01
      0.250000E-01      0.132809E-01
      0.300000E-01      0.128634E-01
      0.350000E-01      0.123872E-01
      0.400000E-01      0.118600E-01
      0.450000E-01      0.112902E-01
      0.500000E-01      0.106865E-01
      0.550000E-01      0.100578E-01
      0.600000E-01      0.941294E-02
      0.650000E-01      0.876057E-02
      0.700000E-01      0.810884E-02
      0.750000E-01      0.746531E-02
      0.800000E-01      0.683685E-02
      0.850000E-01      0.622946E-02
      0.900000E-01      0.564826E-02
      0.950000E-01      0.509741E-02
      0.100000          0.458008E-02
      0.105000          0.409854E-02
      0.110000          0.365412E-02
      0.115000          0.324731E-02
      0.120000          0.287787E-02
      0.125000          0.254487E-02
      0.130000          0.224684E-02
      0.135000          0.198187E-02
      0.140000          0.174772E-02
      0.145000          0.154190E-02
      0.150000          0.136183E-02
      0.155000          0.120486E-02
      0.160000          0.106841E-02
      0.165000          0.949982E-03
      0.170000          0.847253E-03
      0.175000          0.758087E-03
      0.180000          0.680564E-03
      0.185000          0.612993E-03
      0.190000          0.553912E-03
      0.195000          0.502079E-03
      0.200000          0.456455E-03
      0.205000          0.416186E-03
      0.210000          0.380579E-03
      0.215000          0.349072E-03
      0.220000          0.321215E-03
      0.225000          0.296640E-03
      0.230000          0.275042E-03
      0.235000          0.256162E-03
      0.240000          0.239766E-03
      0.245000          0.225637E-03
      0.250000          0.213566E-03
      0.255000          0.203345E-03
      0.260000          0.194766E-03
      0.265000          0.187622E-03
      0.270000          0.181706E-03
      0.275000          0.176815E-03
      0.280000          0.172754E-03
      0.285000          0.169341E-03
      0.290000          0.166406E-03
      0.295000          0.163800E-03
      0.300000          0.161394E-03
      0.305000          0.159078E-03
      0.310000          0.156769E-03
      0.315000          0.154403E-03
      0.320000          0.151935E-03
      0.325000          0.149344E-03
      0.330000          0.146620E-03
      0.335000          0.143770E-03
      0.340000          0.140809E-03
      0.345000          0.137763E-03
      0.350000          0.134658E-03
      0.355000          0.131527E-03
      0.360000          0.128401E-03
      0.365000          0.125308E-03
      0.370000          0.122277E-03
      0.375000          0.119329E-03
      0.380000          0.116484E-03
      0.385000          0.113755E-03
      0.390000          0.111153E-03
      0.395000          0.108685E-03
      0.400000          0.106354E-03
      0.405000          0.104161E-03
      0.410000          0.102107E-03
      0.415000          0.100192E-03
      0.420000          0.984138E-04
      0.425000          0.967733E-04
      0.430000          0.952711E-04
      0.435000          0.939096E-04
      0.440000          0.926923E-04
      0.445000          0.916241E-04
      0.450000          0.907109E-04
      0.455000          0.899596E-04
      0.460000          0.893772E-04
      0.465000          0.889706E-04
      0.470000          0.887460E-04
      0.475000          0.887083E-04
      0.480000          0.888603E-04
      0.485000          0.892026E-04
      0.490000          0.897328E-04
      0.495000          0.904452E-04
      0.500000          0.913308E-04
