 I_abs(s)[cm^-1]/c[mg/ml]
       0.00000          0.139998E-01
      0.500000E-02      0.139628E-01
      0.100000E-01      0.138524E-01
      0.150000E-01      0.136702E-01
      0.200000E-01      0.134190E-01
      0.250000E-01      0.131024E-01
      0.300000E-01      0.127251E-01
      0.350000E-01      0.122925E-01
      0.400000E-01      0.118107E-01
      0.450000E-01      0.112864E-01
      0.500000E-01      0.107267E-01
      0.550000E-01      0.101390E-01
      0.600000E-01      0.953074E-02
      0.650000E-01      0.890938E-02
      0.700000E-01      0.828222E-02
      0.750000E-01      0.765625E-02
      0.800000E-01      0.703803E-02
      0.850000E-01      0.643358E-02
      0.900000E-01      0.584835E-02
      0.950000E-01      0.528706E-02
      0.100000          0.475374E-02
      0.105000          0.425162E-02
      0.110000          0.378319E-02
      0.115000          0.335016E-02
      0.120000          0.295353E-02
      0.125000          0.259358E-02
      0.130000          0.226998E-02
      0.135000          0.198181E-02
      0.140000          0.172765E-02
      0.145000          0.150568E-02
      0.150000          0.131375E-02
      0.155000          0.114943E-02
      0.160000          0.101016E-02
      0.165000          0.893257E-03
      0.170000          0.796038E-03
      0.175000          0.715859E-03
      0.180000          0.650177E-03
      0.185000          0.596598E-03
      0.190000          0.552911E-03
      0.195000          0.517118E-03
      0.200000          0.487453E-03
      0.205000          0.462386E-03
      0.210000          0.440630E-03
      0.215000          0.421131E-03
      0.220000          0.403058E-03
      0.225000          0.385783E-03
      0.230000          0.368864E-03
      0.235000          0.352018E-03
      0.240000          0.335098E-03
      0.245000          0.318067E-03
      0.250000          0.300976E-03
      0.255000          0.283936E-03
      0.260000          0.267098E-03
      0.265000          0.250638E-03
      0.270000          0.234734E-03
      0.275000          0.219558E-03
      0.280000          0.205264E-03
      0.285000          0.191977E-03
      0.290000          0.179793E-03
      0.295000          0.168776E-03
      0.300000          0.158951E-03
      0.305000          0.150317E-03
      0.310000          0.142837E-03
      0.315000          0.136454E-03
      0.320000          0.131086E-03
      0.325000          0.126636E-03
      0.330000          0.122995E-03
      0.335000          0.120051E-03
      0.340000          0.117687E-03
      0.345000          0.115789E-03
      0.350000          0.114250E-03
      0.355000          0.112970E-03
      0.360000          0.111862E-03
      0.365000          0.110848E-03
      0.370000          0.109866E-03
      0.375000          0.108863E-03
      0.380000          0.107804E-03
      0.385000          0.106662E-03
      0.390000          0.105423E-03
      0.395000          0.104082E-03
      0.400000          0.102644E-03
      0.405000          0.101119E-03
      0.410000          0.995239E-04
      0.415000          0.978804E-04
      0.420000          0.962124E-04
      0.425000          0.945455E-04
      0.430000          0.929064E-04
      0.435000          0.913211E-04
      0.440000          0.898148E-04
      0.445000          0.884111E-04
      0.450000          0.871312E-04
      0.455000          0.859937E-04
      0.460000          0.850145E-04
      0.465000          0.842063E-04
      0.470000          0.835785E-04
      0.475000          0.831376E-04
      0.480000          0.828865E-04
      0.485000          0.828254E-04
      0.490000          0.829510E-04
      0.495000          0.832574E-04
      0.500000          0.837359E-04
