 I_abs(s)[cm^-1]/c[mg/ml]
       0.00000          0.139920E-01
      0.500000E-02      0.139552E-01
      0.100000E-01      0.138455E-01
      0.150000E-01      0.136644E-01
      0.200000E-01      0.134147E-01
      0.250000E-01      0.131000E-01
      0.300000E-01      0.127250E-01
      0.350000E-01      0.122950E-01
      0.400000E-01      0.118161E-01
      0.450000E-01      0.112949E-01
      0.500000E-01      0.107385E-01
      0.550000E-01      0.101542E-01
      0.600000E-01      0.954931E-02
      0.650000E-01      0.893130E-02
      0.700000E-01      0.830735E-02
      0.750000E-01      0.768435E-02
      0.800000E-01      0.706879E-02
      0.850000E-01      0.646662E-02
      0.900000E-01      0.588319E-02
      0.950000E-01      0.532317E-02
      0.100000          0.479051E-02
      0.105000          0.428843E-02
      0.110000          0.381938E-02
      0.115000          0.338506E-02
      0.120000          0.298648E-02
      0.125000          0.262396E-02
      0.130000          0.229720E-02
      0.135000          0.200536E-02
      0.140000          0.174710E-02
      0.145000          0.152070E-02
      0.150000          0.132410E-02
      0.155000          0.115499E-02
      0.160000          0.101092E-02
      0.165000          0.889333E-03
      0.170000          0.787644E-03
      0.175000          0.703314E-03
      0.180000          0.633889E-03
      0.185000          0.577050E-03
      0.190000          0.530646E-03
      0.195000          0.492721E-03
      0.200000          0.461529E-03
      0.205000          0.435546E-03
      0.210000          0.413470E-03
      0.215000          0.394218E-03
      0.220000          0.376913E-03
      0.225000          0.360870E-03
      0.230000          0.345582E-03
      0.235000          0.330693E-03
      0.240000          0.315982E-03
      0.245000          0.301338E-03
      0.250000          0.286737E-03
      0.255000          0.272223E-03
      0.260000          0.257889E-03
      0.265000          0.243857E-03
      0.270000          0.230264E-03
      0.275000          0.217249E-03
      0.280000          0.204944E-03
      0.285000          0.193461E-03
      0.290000          0.182892E-03
      0.295000          0.173301E-03
      0.300000          0.164725E-03
      0.305000          0.157170E-03
      0.310000          0.150619E-03
      0.315000          0.145025E-03
      0.320000          0.140324E-03
      0.325000          0.136431E-03
      0.330000          0.133250E-03
      0.335000          0.130673E-03
      0.340000          0.128590E-03
      0.345000          0.126887E-03
      0.350000          0.125455E-03
      0.355000          0.124190E-03
      0.360000          0.122999E-03
      0.365000          0.121798E-03
      0.370000          0.120517E-03
      0.375000          0.119102E-03
      0.380000          0.117510E-03
      0.385000          0.115718E-03
      0.390000          0.113712E-03
      0.395000          0.111495E-03
      0.400000          0.109083E-03
      0.405000          0.106500E-03
      0.410000          0.103781E-03
      0.415000          0.100968E-03
      0.420000          0.981083E-04
      0.425000          0.952521E-04
      0.430000          0.924511E-04
      0.435000          0.897563E-04
      0.440000          0.872169E-04
      0.445000          0.848780E-04
      0.450000          0.827798E-04
      0.455000          0.809566E-04
      0.460000          0.794359E-04
      0.465000          0.782380E-04
      0.470000          0.773755E-04
      0.475000          0.768537E-04
      0.480000          0.766704E-04
      0.485000          0.768167E-04
      0.490000          0.772771E-04
      0.495000          0.780305E-04
      0.500000          0.790510E-04
