 I_abs(s)[cm^-1]/c[mg/ml]
       0.00000          0.144001E-01
      0.500000E-02      0.143609E-01
      0.100000E-01      0.142439E-01
      0.150000E-01      0.140509E-01
      0.200000E-01      0.137850E-01
      0.250000E-01      0.134501E-01
      0.300000E-01      0.130515E-01
      0.350000E-01      0.125949E-01
      0.400000E-01      0.120872E-01
      0.450000E-01      0.115357E-01
      0.500000E-01      0.109480E-01
      0.550000E-01      0.103321E-01
      0.600000E-01      0.969618E-02
      0.650000E-01      0.904813E-02
      0.700000E-01      0.839574E-02
      0.750000E-01      0.774640E-02
      0.800000E-01      0.710697E-02
      0.850000E-01      0.648374E-02
      0.900000E-01      0.588225E-02
      0.950000E-01      0.530729E-02
      0.100000          0.476283E-02
      0.105000          0.425200E-02
      0.110000          0.377709E-02
      0.115000          0.333957E-02
      0.120000          0.294016E-02
      0.125000          0.257883E-02
      0.130000          0.225491E-02
      0.135000          0.196717E-02
      0.140000          0.171389E-02
      0.145000          0.149297E-02
      0.150000          0.130199E-02
      0.155000          0.113836E-02
      0.160000          0.999321E-03
      0.165000          0.882120E-03
      0.170000          0.784013E-03
      0.175000          0.702354E-03
      0.180000          0.634643E-03
      0.185000          0.578567E-03
      0.190000          0.532026E-03
      0.195000          0.493160E-03
      0.200000          0.460349E-03
      0.205000          0.432219E-03
      0.210000          0.407633E-03
      0.215000          0.385680E-03
      0.220000          0.365648E-03
      0.225000          0.347012E-03
      0.230000          0.329400E-03
      0.235000          0.312573E-03
      0.240000          0.296396E-03
      0.245000          0.280813E-03
      0.250000          0.265829E-03
      0.255000          0.251482E-03
      0.260000          0.237833E-03
      0.265000          0.224944E-03
      0.270000          0.212876E-03
      0.275000          0.201672E-03
      0.280000          0.191357E-03
      0.285000          0.181937E-03
      0.290000          0.173393E-03
      0.295000          0.165687E-03
      0.300000          0.158763E-03
      0.305000          0.152552E-03
      0.310000          0.146973E-03
      0.315000          0.141944E-03
      0.320000          0.137377E-03
      0.325000          0.133192E-03
      0.330000          0.129311E-03
      0.335000          0.125668E-03
      0.340000          0.122205E-03
      0.345000          0.118877E-03
      0.350000          0.115651E-03
      0.355000          0.112506E-03
      0.360000          0.109429E-03
      0.365000          0.106421E-03
      0.370000          0.103486E-03
      0.375000          0.100639E-03
      0.380000          0.978947E-04
      0.385000          0.952732E-04
      0.390000          0.927948E-04
      0.395000          0.904790E-04
      0.400000          0.883439E-04
      0.405000          0.864051E-04
      0.410000          0.846747E-04
      0.415000          0.831615E-04
      0.420000          0.818709E-04
      0.425000          0.808045E-04
      0.430000          0.799610E-04
      0.435000          0.793359E-04
      0.440000          0.789229E-04
      0.445000          0.787136E-04
      0.450000          0.786984E-04
      0.455000          0.788668E-04
      0.460000          0.792079E-04
      0.465000          0.797106E-04
      0.470000          0.803640E-04
      0.475000          0.811572E-04
      0.480000          0.820795E-04
      0.485000          0.831205E-04
      0.490000          0.842696E-04
      0.495000          0.855161E-04
      0.500000          0.868487E-04
