 I_abs(s)[cm^-1]/c[mg/ml]
       0.00000          0.142346E-01
      0.500000E-02      0.141938E-01
      0.100000E-01      0.140720E-01
      0.150000E-01      0.138714E-01
      0.200000E-01      0.135954E-01
      0.250000E-01      0.132487E-01
      0.300000E-01      0.128370E-01
      0.350000E-01      0.123672E-01
      0.400000E-01      0.118468E-01
      0.450000E-01      0.112838E-01
      0.500000E-01      0.106868E-01
      0.550000E-01      0.100644E-01
      0.600000E-01      0.942531E-02
      0.650000E-01      0.877794E-02
      0.700000E-01      0.813032E-02
      0.750000E-01      0.748990E-02
      0.800000E-01      0.686349E-02
      0.850000E-01      0.625708E-02
      0.900000E-01      0.567581E-02
      0.950000E-01      0.512391E-02
      0.100000          0.460468E-02
      0.105000          0.412053E-02
      0.110000          0.367296E-02
      0.115000          0.326267E-02
      0.120000          0.288962E-02
      0.125000          0.255307E-02
      0.130000          0.225177E-02
      0.135000          0.198395E-02
      0.140000          0.174753E-02
      0.145000          0.154014E-02
      0.150000          0.135925E-02
      0.155000          0.120225E-02
      0.160000          0.106653E-02
      0.165000          0.949567E-03
      0.170000          0.848922E-03
      0.175000          0.762341E-03
      0.180000          0.687758E-03
      0.185000          0.623321E-03
      0.190000          0.567398E-03
      0.195000          0.518583E-03
      0.200000          0.475685E-03
      0.205000          0.437717E-03
      0.210000          0.403877E-03
      0.215000          0.373530E-03
      0.220000          0.346182E-03
      0.225000          0.321460E-03
      0.230000          0.299088E-03
      0.235000          0.278863E-03
      0.240000          0.260639E-03
      0.245000          0.244305E-03
      0.250000          0.229773E-03
      0.255000          0.216963E-03
      0.260000          0.205796E-03
      0.265000          0.196185E-03
      0.270000          0.188030E-03
      0.275000          0.181219E-03
      0.280000          0.175622E-03
      0.285000          0.171098E-03
      0.290000          0.167496E-03
      0.295000          0.164657E-03
      0.300000          0.162419E-03
      0.305000          0.160624E-03
      0.310000          0.159118E-03
      0.315000          0.157760E-03
      0.320000          0.156421E-03
      0.325000          0.154991E-03
      0.330000          0.153378E-03
      0.335000          0.151514E-03
      0.340000          0.149350E-03
      0.345000          0.146860E-03
      0.350000          0.144038E-03
      0.355000          0.140896E-03
      0.360000          0.137462E-03
      0.365000          0.133780E-03
      0.370000          0.129901E-03
      0.375000          0.125887E-03
      0.380000          0.121800E-03
      0.385000          0.117706E-03
      0.390000          0.113668E-03
      0.395000          0.109747E-03
      0.400000          0.105995E-03
      0.405000          0.102458E-03
      0.410000          0.991746E-04
      0.415000          0.961722E-04
      0.420000          0.934704E-04
      0.425000          0.910797E-04
      0.430000          0.890026E-04
      0.435000          0.872344E-04
      0.440000          0.857645E-04
      0.445000          0.845776E-04
      0.450000          0.836550E-04
      0.455000          0.829759E-04
      0.460000          0.825185E-04
      0.465000          0.822615E-04
      0.470000          0.821842E-04
      0.475000          0.822680E-04
      0.480000          0.824964E-04
      0.485000          0.828555E-04
      0.490000          0.833338E-04
      0.495000          0.839224E-04
      0.500000          0.846145E-04
