 I_abs(s)[cm^-1]/c[mg/ml]
       0.00000          0.142503E-01
      0.500000E-02      0.142124E-01
      0.100000E-01      0.140992E-01
      0.150000E-01      0.139124E-01
      0.200000E-01      0.136549E-01
      0.250000E-01      0.133307E-01
      0.300000E-01      0.129445E-01
      0.350000E-01      0.125020E-01
      0.400000E-01      0.120096E-01
      0.450000E-01      0.114742E-01
      0.500000E-01      0.109033E-01
      0.550000E-01      0.103044E-01
      0.600000E-01      0.968529E-02
      0.650000E-01      0.905350E-02
      0.700000E-01      0.841648E-02
      0.750000E-01      0.778132E-02
      0.800000E-01      0.715461E-02
      0.850000E-01      0.654237E-02
      0.900000E-01      0.594999E-02
      0.950000E-01      0.538211E-02
      0.100000          0.484262E-02
      0.105000          0.433464E-02
      0.110000          0.386051E-02
      0.115000          0.342180E-02
      0.120000          0.301936E-02
      0.125000          0.265337E-02
      0.130000          0.232340E-02
      0.135000          0.202847E-02
      0.140000          0.176714E-02
      0.145000          0.153762E-02
      0.150000          0.133779E-02
      0.155000          0.116532E-02
      0.160000          0.101777E-02
      0.165000          0.892588E-03
      0.170000          0.787263E-03
      0.175000          0.699316E-03
      0.180000          0.626376E-03
      0.185000          0.566215E-03
      0.190000          0.516773E-03
      0.195000          0.476184E-03
      0.200000          0.442783E-03
      0.205000          0.415115E-03
      0.210000          0.391931E-03
      0.215000          0.372182E-03
      0.220000          0.355005E-03
      0.225000          0.339708E-03
      0.230000          0.325756E-03
      0.235000          0.312746E-03
      0.240000          0.300391E-03
      0.245000          0.288500E-03
      0.250000          0.276958E-03
      0.255000          0.265710E-03
      0.260000          0.254744E-03
      0.265000          0.244077E-03
      0.270000          0.233746E-03
      0.275000          0.223795E-03
      0.280000          0.214267E-03
      0.285000          0.205202E-03
      0.290000          0.196631E-03
      0.295000          0.188573E-03
      0.300000          0.181035E-03
      0.305000          0.174010E-03
      0.310000          0.167482E-03
      0.315000          0.161425E-03
      0.320000          0.155803E-03
      0.325000          0.150576E-03
      0.330000          0.145701E-03
      0.335000          0.141133E-03
      0.340000          0.136827E-03
      0.345000          0.132744E-03
      0.350000          0.128845E-03
      0.355000          0.125100E-03
      0.360000          0.121483E-03
      0.365000          0.117975E-03
      0.370000          0.114565E-03
      0.375000          0.111247E-03
      0.380000          0.108022E-03
      0.385000          0.104897E-03
      0.390000          0.101881E-03
      0.395000          0.989911E-04
      0.400000          0.962431E-04
      0.405000          0.936566E-04
      0.410000          0.912509E-04
      0.415000          0.890451E-04
      0.420000          0.870568E-04
      0.425000          0.853014E-04
      0.430000          0.837912E-04
      0.435000          0.825351E-04
      0.440000          0.815378E-04
      0.445000          0.808001E-04
      0.450000          0.803181E-04
      0.455000          0.800837E-04
      0.460000          0.800846E-04
      0.465000          0.803047E-04
      0.470000          0.807242E-04
      0.475000          0.813204E-04
      0.480000          0.820682E-04
      0.485000          0.829405E-04
      0.490000          0.839090E-04
      0.495000          0.849447E-04
      0.500000          0.860189E-04
