 I_abs(s)[cm^-1]/c[mg/ml]
       0.00000          0.141796E-01
      0.500000E-02      0.141382E-01
      0.100000E-01      0.140147E-01
      0.150000E-01      0.138112E-01
      0.200000E-01      0.135310E-01
      0.250000E-01      0.131789E-01
      0.300000E-01      0.127606E-01
      0.350000E-01      0.122828E-01
      0.400000E-01      0.117532E-01
      0.450000E-01      0.111800E-01
      0.500000E-01      0.105716E-01
      0.550000E-01      0.993700E-02
      0.600000E-01      0.928504E-02
      0.650000E-01      0.862441E-02
      0.700000E-01      0.796346E-02
      0.750000E-01      0.731002E-02
      0.800000E-01      0.667128E-02
      0.850000E-01      0.605365E-02
      0.900000E-01      0.546267E-02
      0.950000E-01      0.490296E-02
      0.100000          0.437819E-02
      0.105000          0.389105E-02
      0.110000          0.344329E-02
      0.115000          0.303575E-02
      0.120000          0.266846E-02
      0.125000          0.234066E-02
      0.130000          0.205096E-02
      0.135000          0.179741E-02
      0.140000          0.157759E-02
      0.145000          0.138880E-02
      0.150000          0.122807E-02
      0.155000          0.109234E-02
      0.160000          0.978515E-03
      0.165000          0.883563E-03
      0.170000          0.804587E-03
      0.175000          0.738885E-03
      0.180000          0.683989E-03
      0.185000          0.637703E-03
      0.190000          0.598115E-03
      0.195000          0.563610E-03
      0.200000          0.532858E-03
      0.205000          0.504804E-03
      0.210000          0.478647E-03
      0.215000          0.453809E-03
      0.220000          0.429911E-03
      0.225000          0.406733E-03
      0.230000          0.384185E-03
      0.235000          0.362276E-03
      0.240000          0.341080E-03
      0.245000          0.320713E-03
      0.250000          0.301308E-03
      0.255000          0.282996E-03
      0.260000          0.265891E-03
      0.265000          0.250082E-03
      0.270000          0.235624E-03
      0.275000          0.222534E-03
      0.280000          0.210795E-03
      0.285000          0.200353E-03
      0.290000          0.191129E-03
      0.295000          0.183017E-03
      0.300000          0.175895E-03
      0.305000          0.169632E-03
      0.310000          0.164091E-03
      0.315000          0.159140E-03
      0.320000          0.154653E-03
      0.325000          0.150516E-03
      0.330000          0.146629E-03
      0.335000          0.142912E-03
      0.340000          0.139298E-03
      0.345000          0.135742E-03
      0.350000          0.132214E-03
      0.355000          0.128697E-03
      0.360000          0.125191E-03
      0.365000          0.121705E-03
      0.370000          0.118254E-03
      0.375000          0.114862E-03
      0.380000          0.111554E-03
      0.385000          0.108356E-03
      0.390000          0.105295E-03
      0.395000          0.102393E-03
      0.400000          0.996690E-04
      0.405000          0.971390E-04
      0.410000          0.948132E-04
      0.415000          0.926970E-04
      0.420000          0.907915E-04
      0.425000          0.890933E-04
      0.430000          0.875957E-04
      0.435000          0.862888E-04
      0.440000          0.851607E-04
      0.445000          0.841980E-04
      0.450000          0.833865E-04
      0.455000          0.827120E-04
      0.460000          0.821607E-04
      0.465000          0.817196E-04
      0.470000          0.813769E-04
      0.475000          0.811224E-04
      0.480000          0.809470E-04
      0.485000          0.808433E-04
      0.490000          0.808054E-04
      0.495000          0.808283E-04
      0.500000          0.809086E-04
