 I_abs(s)[cm^-1]/c[mg/ml]
       0.00000          0.140544E-01
      0.500000E-02      0.140096E-01
      0.100000E-01      0.138761E-01
      0.150000E-01      0.136564E-01
      0.200000E-01      0.133545E-01
      0.250000E-01      0.129762E-01
      0.300000E-01      0.125281E-01
      0.350000E-01      0.120183E-01
      0.400000E-01      0.114558E-01
      0.450000E-01      0.108501E-01
      0.500000E-01      0.102111E-01
      0.550000E-01      0.954894E-02
      0.600000E-01      0.887361E-02
      0.650000E-01      0.819478E-02
      0.700000E-01      0.752153E-02
      0.750000E-01      0.686220E-02
      0.800000E-01      0.622422E-02
      0.850000E-01      0.561401E-02
      0.900000E-01      0.503686E-02
      0.950000E-01      0.449691E-02
      0.100000          0.399712E-02
      0.105000          0.353935E-02
      0.110000          0.312437E-02
      0.115000          0.275196E-02
      0.120000          0.242105E-02
      0.125000          0.212981E-02
      0.130000          0.187582E-02
      0.135000          0.165619E-02
      0.140000          0.146773E-02
      0.145000          0.130704E-02
      0.150000          0.117071E-02
      0.155000          0.105536E-02
      0.160000          0.957768E-03
      0.165000          0.874953E-03
      0.170000          0.804220E-03
      0.175000          0.743202E-03
      0.180000          0.689877E-03
      0.185000          0.642576E-03
      0.190000          0.599964E-03
      0.195000          0.561022E-03
      0.200000          0.525009E-03
      0.205000          0.491422E-03
      0.210000          0.459957E-03
      0.215000          0.430458E-03
      0.220000          0.402876E-03
      0.225000          0.377232E-03
      0.230000          0.353576E-03
      0.235000          0.331964E-03
      0.240000          0.312429E-03
      0.245000          0.294972E-03
      0.250000          0.279546E-03
      0.255000          0.266058E-03
      0.260000          0.254365E-03
      0.265000          0.244288E-03
      0.270000          0.235614E-03
      0.275000          0.228108E-03
      0.280000          0.221530E-03
      0.285000          0.215641E-03
      0.290000          0.210217E-03
      0.295000          0.205059E-03
      0.300000          0.199998E-03
      0.305000          0.194900E-03
      0.310000          0.189671E-03
      0.315000          0.184255E-03
      0.320000          0.178633E-03
      0.325000          0.172819E-03
      0.330000          0.166852E-03
      0.335000          0.160796E-03
      0.340000          0.154727E-03
      0.345000          0.148729E-03
      0.350000          0.142888E-03
      0.355000          0.137286E-03
      0.360000          0.131996E-03
      0.365000          0.127079E-03
      0.370000          0.122579E-03
      0.375000          0.118527E-03
      0.380000          0.114934E-03
      0.385000          0.111800E-03
      0.390000          0.109106E-03
      0.395000          0.106827E-03
      0.400000          0.104925E-03
      0.405000          0.103357E-03
      0.410000          0.102080E-03
      0.415000          0.101045E-03
      0.420000          0.100209E-03
      0.425000          0.995325E-04
      0.430000          0.989789E-04
      0.435000          0.985192E-04
      0.440000          0.981304E-04
      0.445000          0.977959E-04
      0.450000          0.975049E-04
      0.455000          0.972517E-04
      0.460000          0.970348E-04
      0.465000          0.968556E-04
      0.470000          0.967174E-04
      0.475000          0.966242E-04
      0.480000          0.965797E-04
      0.485000          0.965868E-04
      0.490000          0.966463E-04
      0.495000          0.967571E-04
      0.500000          0.969155E-04
