 I_abs(s)[cm^-1]/c[mg/ml]
       0.00000          0.139686E-01
      0.500000E-02      0.139240E-01
      0.100000E-01      0.137911E-01
      0.150000E-01      0.135724E-01
      0.200000E-01      0.132719E-01
      0.250000E-01      0.128952E-01
      0.300000E-01      0.124491E-01
      0.350000E-01      0.119417E-01
      0.400000E-01      0.113816E-01
      0.450000E-01      0.107786E-01
      0.500000E-01      0.101425E-01
      0.550000E-01      0.948333E-02
      0.600000E-01      0.881111E-02
      0.650000E-01      0.813546E-02
      0.700000E-01      0.746544E-02
      0.750000E-01      0.680939E-02
      0.800000E-01      0.617475E-02
      0.850000E-01      0.556790E-02
      0.900000E-01      0.499417E-02
      0.950000E-01      0.445768E-02
      0.100000          0.396145E-02
      0.105000          0.350731E-02
      0.110000          0.309606E-02
      0.115000          0.272749E-02
      0.120000          0.240054E-02
      0.125000          0.211337E-02
      0.130000          0.186355E-02
      0.135000          0.164818E-02
      0.140000          0.146402E-02
      0.145000          0.130765E-02
      0.150000          0.117559E-02
      0.155000          0.106440E-02
      0.160000          0.970793E-03
      0.165000          0.891719E-03
      0.170000          0.824402E-03
      0.175000          0.766396E-03
      0.180000          0.715608E-03
      0.185000          0.670301E-03
      0.190000          0.629084E-03
      0.195000          0.590893E-03
      0.200000          0.554960E-03
      0.205000          0.520771E-03
      0.210000          0.488030E-03
      0.215000          0.456608E-03
      0.220000          0.426505E-03
      0.225000          0.397806E-03
      0.230000          0.370645E-03
      0.235000          0.345173E-03
      0.240000          0.321532E-03
      0.245000          0.299837E-03
      0.250000          0.280161E-03
      0.255000          0.262526E-03
      0.260000          0.246906E-03
      0.265000          0.233224E-03
      0.270000          0.221359E-03
      0.275000          0.211154E-03
      0.280000          0.202428E-03
      0.285000          0.194981E-03
      0.290000          0.188610E-03
      0.295000          0.183114E-03
      0.300000          0.178303E-03
      0.305000          0.174005E-03
      0.310000          0.170072E-03
      0.315000          0.166380E-03
      0.320000          0.162831E-03
      0.325000          0.159352E-03
      0.330000          0.155897E-03
      0.335000          0.152439E-03
      0.340000          0.148967E-03
      0.345000          0.145488E-03
      0.350000          0.142014E-03
      0.355000          0.138568E-03
      0.360000          0.135174E-03
      0.365000          0.131854E-03
      0.370000          0.128631E-03
      0.375000          0.125523E-03
      0.380000          0.122546E-03
      0.385000          0.119708E-03
      0.390000          0.117016E-03
      0.395000          0.114471E-03
      0.400000          0.112072E-03
      0.405000          0.109816E-03
      0.410000          0.107700E-03
      0.415000          0.105719E-03
      0.420000          0.103871E-03
      0.425000          0.102154E-03
      0.430000          0.100568E-03
      0.435000          0.991132E-04
      0.440000          0.977937E-04
      0.445000          0.966133E-04
      0.450000          0.955767E-04
      0.455000          0.946888E-04
      0.460000          0.939534E-04
      0.465000          0.933736E-04
      0.470000          0.929500E-04
      0.475000          0.926812E-04
      0.480000          0.925630E-04
      0.485000          0.925881E-04
      0.490000          0.927463E-04
      0.495000          0.930245E-04
      0.500000          0.934071E-04
