 I_abs(s)[cm^-1]/c[mg/ml]
       0.00000          0.141875E-01
      0.500000E-02      0.141511E-01
      0.100000E-01      0.140425E-01
      0.150000E-01      0.138632E-01
      0.200000E-01      0.136159E-01
      0.250000E-01      0.133041E-01
      0.300000E-01      0.129322E-01
      0.350000E-01      0.125056E-01
      0.400000E-01      0.120300E-01
      0.450000E-01      0.115120E-01
      0.500000E-01      0.109583E-01
      0.550000E-01      0.103760E-01
      0.600000E-01      0.977250E-02
      0.650000E-01      0.915491E-02
      0.700000E-01      0.853031E-02
      0.750000E-01      0.790550E-02
      0.800000E-01      0.728689E-02
      0.850000E-01      0.668039E-02
      0.900000E-01      0.609135E-02
      0.950000E-01      0.552447E-02
      0.100000          0.498377E-02
      0.105000          0.447255E-02
      0.110000          0.399339E-02
      0.115000          0.354814E-02
      0.120000          0.313797E-02
      0.125000          0.276337E-02
      0.130000          0.242424E-02
      0.135000          0.211991E-02
      0.140000          0.184923E-02
      0.145000          0.161065E-02
      0.150000          0.140227E-02
      0.155000          0.122194E-02
      0.160000          0.106732E-02
      0.165000          0.935949E-03
      0.170000          0.825332E-03
      0.175000          0.732980E-03
      0.180000          0.656471E-03
      0.185000          0.593492E-03
      0.190000          0.541878E-03
      0.195000          0.499640E-03
      0.200000          0.464983E-03
      0.205000          0.436318E-03
      0.210000          0.412271E-03
      0.215000          0.391674E-03
      0.220000          0.373566E-03
      0.225000          0.357174E-03
      0.230000          0.341904E-03
      0.235000          0.327317E-03
      0.240000          0.313114E-03
      0.245000          0.299113E-03
      0.250000          0.285230E-03
      0.255000          0.271454E-03
      0.260000          0.257836E-03
      0.265000          0.244465E-03
      0.270000          0.231452E-03
      0.275000          0.218923E-03
      0.280000          0.207001E-03
      0.285000          0.195800E-03
      0.290000          0.185417E-03
      0.295000          0.175927E-03
      0.300000          0.167383E-03
      0.305000          0.159809E-03
      0.310000          0.153205E-03
      0.315000          0.147546E-03
      0.320000          0.142785E-03
      0.325000          0.138855E-03
      0.330000          0.135673E-03
      0.335000          0.133145E-03
      0.340000          0.131169E-03
      0.345000          0.129636E-03
      0.350000          0.128438E-03
      0.355000          0.127470E-03
      0.360000          0.126632E-03
      0.365000          0.125831E-03
      0.370000          0.124985E-03
      0.375000          0.124023E-03
      0.380000          0.122889E-03
      0.385000          0.121538E-03
      0.390000          0.119940E-03
      0.395000          0.118079E-03
      0.400000          0.115950E-03
      0.405000          0.113562E-03
      0.410000          0.110935E-03
      0.415000          0.108099E-03
      0.420000          0.105089E-03
      0.425000          0.101951E-03
      0.430000          0.987334E-04
      0.435000          0.954871E-04
      0.440000          0.922656E-04
      0.445000          0.891219E-04
      0.450000          0.861072E-04
      0.455000          0.832699E-04
      0.460000          0.806538E-04
      0.465000          0.782976E-04
      0.470000          0.762339E-04
      0.475000          0.744884E-04
      0.480000          0.730798E-04
      0.485000          0.720192E-04
      0.490000          0.713103E-04
      0.495000          0.709496E-04
      0.500000          0.709264E-04
