 I_abs(s)[cm^-1]/c[mg/ml]
       0.00000          0.142032E-01
      0.500000E-02      0.141654E-01
      0.100000E-01      0.140528E-01
      0.150000E-01      0.138671E-01
      0.200000E-01      0.136110E-01
      0.250000E-01      0.132885E-01
      0.300000E-01      0.129043E-01
      0.350000E-01      0.124640E-01
      0.400000E-01      0.119741E-01
      0.450000E-01      0.114413E-01
      0.500000E-01      0.108731E-01
      0.550000E-01      0.102770E-01
      0.600000E-01      0.966063E-02
      0.650000E-01      0.903164E-02
      0.700000E-01      0.839742E-02
      0.750000E-01      0.776504E-02
      0.800000E-01      0.714108E-02
      0.850000E-01      0.653158E-02
      0.900000E-01      0.594191E-02
      0.950000E-01      0.537674E-02
      0.100000          0.483996E-02
      0.105000          0.433468E-02
      0.110000          0.386324E-02
      0.115000          0.342718E-02
      0.120000          0.302734E-02
      0.125000          0.266387E-02
      0.130000          0.233628E-02
      0.135000          0.204356E-02
      0.140000          0.178423E-02
      0.145000          0.155641E-02
      0.150000          0.135793E-02
      0.155000          0.118643E-02
      0.160000          0.103938E-02
      0.165000          0.914229E-03
      0.170000          0.808410E-03
      0.175000          0.719439E-03
      0.180000          0.644947E-03
      0.185000          0.582726E-03
      0.190000          0.530753E-03
      0.195000          0.487218E-03
      0.200000          0.450525E-03
      0.205000          0.419304E-03
      0.210000          0.392401E-03
      0.215000          0.368869E-03
      0.220000          0.347950E-03
      0.225000          0.329060E-03
      0.230000          0.311763E-03
      0.235000          0.295752E-03
      0.240000          0.280823E-03
      0.245000          0.266854E-03
      0.250000          0.253783E-03
      0.255000          0.241590E-03
      0.260000          0.230281E-03
      0.265000          0.219871E-03
      0.270000          0.210378E-03
      0.275000          0.201812E-03
      0.280000          0.194166E-03
      0.285000          0.187421E-03
      0.290000          0.181535E-03
      0.295000          0.176453E-03
      0.300000          0.172100E-03
      0.305000          0.168390E-03
      0.310000          0.165229E-03
      0.315000          0.162514E-03
      0.320000          0.160144E-03
      0.325000          0.158016E-03
      0.330000          0.156036E-03
      0.335000          0.154117E-03
      0.340000          0.152180E-03
      0.345000          0.150162E-03
      0.350000          0.148010E-03
      0.355000          0.145685E-03
      0.360000          0.143163E-03
      0.365000          0.140430E-03
      0.370000          0.137486E-03
      0.375000          0.134340E-03
      0.380000          0.131011E-03
      0.385000          0.127525E-03
      0.390000          0.123915E-03
      0.395000          0.120216E-03
      0.400000          0.116469E-03
      0.405000          0.112713E-03
      0.410000          0.108991E-03
      0.415000          0.105342E-03
      0.420000          0.101805E-03
      0.425000          0.984150E-04
      0.430000          0.952058E-04
      0.435000          0.922060E-04
      0.440000          0.894408E-04
      0.445000          0.869311E-04
      0.450000          0.846933E-04
      0.455000          0.827396E-04
      0.460000          0.810777E-04
      0.465000          0.797110E-04
      0.470000          0.786388E-04
      0.475000          0.778563E-04
      0.480000          0.773550E-04
      0.485000          0.771229E-04
      0.490000          0.771447E-04
      0.495000          0.774023E-04
      0.500000          0.778749E-04
