 I_abs(s)[cm^-1]/c[mg/ml]
       0.00000          0.142085E-01
      0.500000E-02      0.141416E-01
      0.100000E-01      0.139429E-01
      0.150000E-01      0.136185E-01
      0.200000E-01      0.131783E-01
      0.250000E-01      0.126353E-01
      0.300000E-01      0.120050E-01
      0.350000E-01      0.113049E-01
      0.400000E-01      0.105531E-01
      0.450000E-01      0.976812E-02
      0.500000E-01      0.896783E-02
      0.550000E-01      0.816878E-02
      0.600000E-01      0.738577E-02
      0.650000E-01      0.663139E-02
      0.700000E-01      0.591588E-02
      0.750000E-01      0.524698E-02
      0.800000E-01      0.463004E-02
      0.850000E-01      0.406817E-02
      0.900000E-01      0.356252E-02
      0.950000E-01      0.311254E-02
      0.100000          0.271634E-02
      0.105000          0.237101E-02
      0.110000          0.207289E-02
      0.115000          0.181790E-02
      0.120000          0.160169E-02
      0.125000          0.141988E-02
      0.130000          0.126816E-02
      0.135000          0.114242E-02
      0.140000          0.103879E-02
      0.145000          0.953707E-03
      0.150000          0.883942E-03
      0.155000          0.826601E-03
      0.160000          0.779139E-03
      0.165000          0.739358E-03
      0.170000          0.705390E-03
      0.175000          0.675684E-03
      0.180000          0.648980E-03
      0.185000          0.624283E-03
      0.190000          0.600828E-03
      0.195000          0.578047E-03
      0.200000          0.555534E-03
      0.205000          0.533014E-03
      0.210000          0.510316E-03
      0.215000          0.487351E-03
      0.220000          0.464098E-03
      0.225000          0.440590E-03
      0.230000          0.416914E-03
      0.235000          0.393206E-03
      0.240000          0.369646E-03
      0.245000          0.346457E-03
      0.250000          0.323898E-03
      0.255000          0.302248E-03
      0.260000          0.281794E-03
      0.265000          0.262811E-03
      0.270000          0.245539E-03
      0.275000          0.230166E-03
      0.280000          0.216810E-03
      0.285000          0.205507E-03
      0.290000          0.196205E-03
      0.295000          0.188769E-03
      0.300000          0.182990E-03
      0.305000          0.178604E-03
      0.310000          0.175311E-03
      0.315000          0.172801E-03
      0.320000          0.170778E-03
      0.325000          0.168980E-03
      0.330000          0.167199E-03
      0.335000          0.165286E-03
      0.340000          0.163157E-03
      0.345000          0.160788E-03
      0.350000          0.158208E-03
      0.355000          0.155480E-03
      0.360000          0.152689E-03
      0.365000          0.149925E-03
      0.370000          0.147269E-03
      0.375000          0.144777E-03
      0.380000          0.142481E-03
      0.385000          0.140378E-03
      0.390000          0.138439E-03
      0.395000          0.136613E-03
      0.400000          0.134833E-03
      0.405000          0.133027E-03
      0.410000          0.131130E-03
      0.415000          0.129087E-03
      0.420000          0.126866E-03
      0.425000          0.124456E-03
      0.430000          0.121868E-03
      0.435000          0.119138E-03
      0.440000          0.116315E-03
      0.445000          0.113463E-03
      0.450000          0.110649E-03
      0.455000          0.107938E-03
      0.460000          0.105390E-03
      0.465000          0.103054E-03
      0.470000          0.100964E-03
      0.475000          0.991382E-04
      0.480000          0.975816E-04
      0.485000          0.962840E-04
      0.490000          0.952242E-04
      0.495000          0.943719E-04
      0.500000          0.936909E-04
