 I_abs(s)[cm^-1]/c[mg/ml]
       0.00000          0.141146E-01
      0.500000E-02      0.140520E-01
      0.100000E-01      0.138663E-01
      0.150000E-01      0.135629E-01
      0.200000E-01      0.131505E-01
      0.250000E-01      0.126411E-01
      0.300000E-01      0.120488E-01
      0.350000E-01      0.113897E-01
      0.400000E-01      0.106808E-01
      0.450000E-01      0.993948E-02
      0.500000E-01      0.918289E-02
      0.550000E-01      0.842709E-02
      0.600000E-01      0.768661E-02
      0.650000E-01      0.697396E-02
      0.700000E-01      0.629937E-02
      0.750000E-01      0.567052E-02
      0.800000E-01      0.509262E-02
      0.850000E-01      0.456839E-02
      0.900000E-01      0.409833E-02
      0.950000E-01      0.368101E-02
      0.100000          0.331340E-02
      0.105000          0.299129E-02
      0.110000          0.270970E-02
      0.115000          0.246327E-02
      0.120000          0.224659E-02
      0.125000          0.205454E-02
      0.130000          0.188249E-02
      0.135000          0.172649E-02
      0.140000          0.158332E-02
      0.145000          0.145056E-02
      0.150000          0.132648E-02
      0.155000          0.121006E-02
      0.160000          0.110077E-02
      0.165000          0.998490E-03
      0.170000          0.903371E-03
      0.175000          0.815682E-03
      0.180000          0.735703E-03
      0.185000          0.663633E-03
      0.190000          0.599525E-03
      0.195000          0.543246E-03
      0.200000          0.494471E-03
      0.205000          0.452692E-03
      0.210000          0.417253E-03
      0.215000          0.387390E-03
      0.220000          0.362284E-03
      0.225000          0.341108E-03
      0.230000          0.323072E-03
      0.235000          0.307464E-03
      0.240000          0.293673E-03
      0.245000          0.281208E-03
      0.250000          0.269696E-03
      0.255000          0.258885E-03
      0.260000          0.248621E-03
      0.265000          0.238834E-03
      0.270000          0.229516E-03
      0.275000          0.220693E-03
      0.280000          0.212410E-03
      0.285000          0.204709E-03
      0.290000          0.197619E-03
      0.295000          0.191144E-03
      0.300000          0.185267E-03
      0.305000          0.179941E-03
      0.310000          0.175102E-03
      0.315000          0.170672E-03
      0.320000          0.166565E-03
      0.325000          0.162701E-03
      0.330000          0.159004E-03
      0.335000          0.155415E-03
      0.340000          0.151891E-03
      0.345000          0.148407E-03
      0.350000          0.144957E-03
      0.355000          0.141547E-03
      0.360000          0.138197E-03
      0.365000          0.134933E-03
      0.370000          0.131783E-03
      0.375000          0.128775E-03
      0.380000          0.125930E-03
      0.385000          0.123267E-03
      0.390000          0.120793E-03
      0.395000          0.118510E-03
      0.400000          0.116413E-03
      0.405000          0.114492E-03
      0.410000          0.112733E-03
      0.415000          0.111123E-03
      0.420000          0.109650E-03
      0.425000          0.108304E-03
      0.430000          0.107077E-03
      0.435000          0.105969E-03
      0.440000          0.104978E-03
      0.445000          0.104107E-03
      0.450000          0.103359E-03
      0.455000          0.102736E-03
      0.460000          0.102237E-03
      0.465000          0.101855E-03
      0.470000          0.101581E-03
      0.475000          0.101394E-03
      0.480000          0.101272E-03
      0.485000          0.101184E-03
      0.490000          0.101095E-03
      0.495000          0.100968E-03
      0.500000          0.100764E-03
