 I_abs(s)[cm^-1]/c[mg/ml]
       0.00000          0.145317E-01
      0.500000E-02      0.144661E-01
      0.100000E-01      0.142712E-01
      0.150000E-01      0.139524E-01
      0.200000E-01      0.135184E-01
      0.250000E-01      0.129810E-01
      0.300000E-01      0.123543E-01
      0.350000E-01      0.116543E-01
      0.400000E-01      0.108982E-01
      0.450000E-01      0.101038E-01
      0.500000E-01      0.928855E-02
      0.550000E-01      0.846933E-02
      0.600000E-01      0.766156E-02
      0.650000E-01      0.687889E-02
      0.700000E-01      0.613289E-02
      0.750000E-01      0.543275E-02
      0.800000E-01      0.478529E-02
      0.850000E-01      0.419492E-02
      0.900000E-01      0.366378E-02
      0.950000E-01      0.319200E-02
      0.100000          0.277796E-02
      0.105000          0.241858E-02
      0.110000          0.210977E-02
      0.115000          0.184666E-02
      0.120000          0.162402E-02
      0.125000          0.143650E-02
      0.130000          0.127889E-02
      0.135000          0.114630E-02
      0.140000          0.103434E-02
      0.145000          0.939157E-03
      0.150000          0.857509E-03
      0.155000          0.786740E-03
      0.160000          0.724755E-03
      0.165000          0.669956E-03
      0.170000          0.621171E-03
      0.175000          0.577568E-03
      0.180000          0.538579E-03
      0.185000          0.503818E-03
      0.190000          0.473018E-03
      0.195000          0.445974E-03
      0.200000          0.422499E-03
      0.205000          0.402398E-03
      0.210000          0.385441E-03
      0.215000          0.371362E-03
      0.220000          0.359850E-03
      0.225000          0.350559E-03
      0.230000          0.343114E-03
      0.235000          0.337123E-03
      0.240000          0.332190E-03
      0.245000          0.327931E-03
      0.250000          0.323982E-03
      0.255000          0.320013E-03
      0.260000          0.315740E-03
      0.265000          0.310930E-03
      0.270000          0.305409E-03
      0.275000          0.299064E-03
      0.280000          0.291847E-03
      0.285000          0.283768E-03
      0.290000          0.274897E-03
      0.295000          0.265352E-03
      0.300000          0.255293E-03
      0.305000          0.244910E-03
      0.310000          0.234411E-03
      0.315000          0.224013E-03
      0.320000          0.213923E-03
      0.325000          0.204332E-03
      0.330000          0.195403E-03
      0.335000          0.187263E-03
      0.340000          0.179998E-03
      0.345000          0.173648E-03
      0.350000          0.168210E-03
      0.355000          0.163641E-03
      0.360000          0.159858E-03
      0.365000          0.156753E-03
      0.370000          0.154195E-03
      0.375000          0.152042E-03
      0.380000          0.150151E-03
      0.385000          0.148383E-03
      0.390000          0.146615E-03
      0.395000          0.144745E-03
      0.400000          0.142693E-03
      0.405000          0.140407E-03
      0.410000          0.137862E-03
      0.415000          0.135057E-03
      0.420000          0.132014E-03
      0.425000          0.128774E-03
      0.430000          0.125391E-03
      0.435000          0.121926E-03
      0.440000          0.118443E-03
      0.445000          0.115005E-03
      0.450000          0.111669E-03
      0.455000          0.108484E-03
      0.460000          0.105487E-03
      0.465000          0.102703E-03
      0.470000          0.100148E-03
      0.475000          0.978244E-04
      0.480000          0.957265E-04
      0.485000          0.938412E-04
      0.490000          0.921497E-04
      0.495000          0.906304E-04
      0.500000          0.892604E-04
