 I_abs(s)[cm^-1]/c[mg/ml]
       0.00000          0.142320E-01
      0.500000E-02      0.141764E-01
      0.100000E-01      0.140108E-01
      0.150000E-01      0.137391E-01
      0.200000E-01      0.133673E-01
      0.250000E-01      0.129039E-01
      0.300000E-01      0.123590E-01
      0.350000E-01      0.117444E-01
      0.400000E-01      0.110729E-01
      0.450000E-01      0.103581E-01
      0.500000E-01      0.961365E-02
      0.550000E-01      0.885333E-02
      0.600000E-01      0.809022E-02
      0.650000E-01      0.733653E-02
      0.700000E-01      0.660330E-02
      0.750000E-01      0.590012E-02
      0.800000E-01      0.523498E-02
      0.850000E-01      0.461421E-02
      0.900000E-01      0.404238E-02
      0.950000E-01      0.352241E-02
      0.100000          0.305563E-02
      0.105000          0.264190E-02
      0.110000          0.227983E-02
      0.115000          0.196697E-02
      0.120000          0.170001E-02
      0.125000          0.147503E-02
      0.130000          0.128771E-02
      0.135000          0.113351E-02
      0.140000          0.100788E-02
      0.145000          0.906391E-03
      0.150000          0.824874E-03
      0.155000          0.759504E-03
      0.160000          0.706870E-03
      0.165000          0.664011E-03
      0.170000          0.628428E-03
      0.175000          0.598075E-03
      0.180000          0.571335E-03
      0.185000          0.546980E-03
      0.190000          0.524126E-03
      0.195000          0.502182E-03
      0.200000          0.480796E-03
      0.205000          0.459807E-03
      0.210000          0.439193E-03
      0.215000          0.419034E-03
      0.220000          0.399468E-03
      0.225000          0.380665E-03
      0.230000          0.362803E-03
      0.235000          0.346042E-03
      0.240000          0.330520E-03
      0.245000          0.316336E-03
      0.250000          0.303549E-03
      0.255000          0.292177E-03
      0.260000          0.282195E-03
      0.265000          0.273541E-03
      0.270000          0.266122E-03
      0.275000          0.259816E-03
      0.280000          0.254482E-03
      0.285000          0.249964E-03
      0.290000          0.246104E-03
      0.295000          0.242740E-03
      0.300000          0.239718E-03
      0.305000          0.236897E-03
      0.310000          0.234152E-03
      0.315000          0.231374E-03
      0.320000          0.228480E-03
      0.325000          0.225405E-03
      0.330000          0.222108E-03
      0.335000          0.218568E-03
      0.340000          0.214782E-03
      0.345000          0.210761E-03
      0.350000          0.206530E-03
      0.355000          0.202121E-03
      0.360000          0.197571E-03
      0.365000          0.192918E-03
      0.370000          0.188200E-03
      0.375000          0.183451E-03
      0.380000          0.178699E-03
      0.385000          0.173966E-03
      0.390000          0.169269E-03
      0.395000          0.164620E-03
      0.400000          0.160022E-03
      0.405000          0.155479E-03
      0.410000          0.150990E-03
      0.415000          0.146555E-03
      0.420000          0.142172E-03
      0.425000          0.137844E-03
      0.430000          0.133575E-03
      0.435000          0.129372E-03
      0.440000          0.125246E-03
      0.445000          0.121211E-03
      0.450000          0.117282E-03
      0.455000          0.113478E-03
      0.460000          0.109817E-03
      0.465000          0.106317E-03
      0.470000          0.102995E-03
      0.475000          0.998641E-04
      0.480000          0.969348E-04
      0.485000          0.942139E-04
      0.490000          0.917035E-04
      0.495000          0.894018E-04
      0.500000          0.873026E-04
