 I_abs(s)[cm^-1]/c[mg/ml]
       0.00000          0.143184E-01
      0.500000E-02      0.142502E-01
      0.100000E-01      0.140473E-01
      0.150000E-01      0.137154E-01
      0.200000E-01      0.132638E-01
      0.250000E-01      0.127049E-01
      0.300000E-01      0.120534E-01
      0.350000E-01      0.113264E-01
      0.400000E-01      0.105419E-01
      0.450000E-01      0.971886E-02
      0.500000E-01      0.887580E-02
      0.550000E-01      0.803059E-02
      0.600000E-01      0.719967E-02
      0.650000E-01      0.639762E-02
      0.700000E-01      0.563677E-02
      0.750000E-01      0.492695E-02
      0.800000E-01      0.427539E-02
      0.850000E-01      0.368674E-02
      0.900000E-01      0.316318E-02
      0.950000E-01      0.270464E-02
      0.100000          0.230911E-02
      0.105000          0.197303E-02
      0.110000          0.169158E-02
      0.115000          0.145916E-02
      0.120000          0.126970E-02
      0.125000          0.111699E-02
      0.130000          0.995000E-03
      0.135000          0.898079E-03
      0.140000          0.821130E-03
      0.145000          0.759711E-03
      0.150000          0.710090E-03
      0.155000          0.669238E-03
      0.160000          0.634796E-03
      0.165000          0.604999E-03
      0.170000          0.578590E-03
      0.175000          0.554722E-03
      0.180000          0.532859E-03
      0.185000          0.512688E-03
      0.190000          0.494037E-03
      0.195000          0.476812E-03
      0.200000          0.460950E-03
      0.205000          0.446389E-03
      0.210000          0.433047E-03
      0.215000          0.420821E-03
      0.220000          0.409587E-03
      0.225000          0.399206E-03
      0.230000          0.389540E-03
      0.235000          0.380458E-03
      0.240000          0.371845E-03
      0.245000          0.363607E-03
      0.250000          0.355675E-03
      0.255000          0.348001E-03
      0.260000          0.340553E-03
      0.265000          0.333314E-03
      0.270000          0.326269E-03
      0.275000          0.319403E-03
      0.280000          0.312695E-03
      0.285000          0.306113E-03
      0.290000          0.299617E-03
      0.295000          0.293153E-03
      0.300000          0.286663E-03
      0.305000          0.280087E-03
      0.310000          0.273367E-03
      0.315000          0.266454E-03
      0.320000          0.259310E-03
      0.325000          0.251919E-03
      0.330000          0.244282E-03
      0.335000          0.236422E-03
      0.340000          0.228383E-03
      0.345000          0.220226E-03
      0.350000          0.212027E-03
      0.355000          0.203869E-03
      0.360000          0.195841E-03
      0.365000          0.188031E-03
      0.370000          0.180517E-03
      0.375000          0.173368E-03
      0.380000          0.166639E-03
      0.385000          0.160364E-03
      0.390000          0.154564E-03
      0.395000          0.149240E-03
      0.400000          0.144377E-03
      0.405000          0.139947E-03
      0.410000          0.135911E-03
      0.415000          0.132226E-03
      0.420000          0.128843E-03
      0.425000          0.125716E-03
      0.430000          0.122803E-03
      0.435000          0.120068E-03
      0.440000          0.117485E-03
      0.445000          0.115038E-03
      0.450000          0.112719E-03
      0.455000          0.110532E-03
      0.460000          0.108490E-03
      0.465000          0.106610E-03
      0.470000          0.104916E-03
      0.475000          0.103432E-03
      0.480000          0.102180E-03
      0.485000          0.101182E-03
      0.490000          0.100449E-03
      0.495000          0.999877E-04
      0.500000          0.997946E-04
