 I_abs(s)[cm^-1]/c[mg/ml]
       0.00000          0.144842E-01
      0.500000E-02      0.144390E-01
      0.100000E-01      0.143045E-01
      0.150000E-01      0.140833E-01
      0.200000E-01      0.137797E-01
      0.250000E-01      0.133995E-01
      0.300000E-01      0.129499E-01
      0.350000E-01      0.124393E-01
      0.400000E-01      0.118769E-01
      0.450000E-01      0.112725E-01
      0.500000E-01      0.106361E-01
      0.550000E-01      0.997783E-02
      0.600000E-01      0.930765E-02
      0.650000E-01      0.863497E-02
      0.700000E-01      0.796850E-02
      0.750000E-01      0.731611E-02
      0.800000E-01      0.668467E-02
      0.850000E-01      0.607993E-02
      0.900000E-01      0.550655E-02
      0.950000E-01      0.496800E-02
      0.100000          0.446666E-02
      0.105000          0.400387E-02
      0.110000          0.357999E-02
      0.115000          0.319457E-02
      0.120000          0.284645E-02
      0.125000          0.253389E-02
      0.130000          0.225471E-02
      0.135000          0.200646E-02
      0.140000          0.178648E-02
      0.145000          0.159205E-02
      0.150000          0.142050E-02
      0.155000          0.126923E-02
      0.160000          0.113582E-02
      0.165000          0.101805E-02
      0.170000          0.913914E-03
      0.175000          0.821649E-03
      0.180000          0.739720E-03
      0.185000          0.666809E-03
      0.190000          0.601802E-03
      0.195000          0.543758E-03
      0.200000          0.491891E-03
      0.205000          0.445536E-03
      0.210000          0.404133E-03
      0.215000          0.367199E-03
      0.220000          0.334313E-03
      0.225000          0.305097E-03
      0.230000          0.279210E-03
      0.235000          0.256335E-03
      0.240000          0.236178E-03
      0.245000          0.218460E-03
      0.250000          0.202922E-03
      0.255000          0.189319E-03
      0.260000          0.177426E-03
      0.265000          0.167034E-03
      0.270000          0.157956E-03
      0.275000          0.150021E-03
      0.280000          0.143079E-03
      0.285000          0.136999E-03
      0.290000          0.131666E-03
      0.295000          0.126979E-03
      0.300000          0.122853E-03
      0.305000          0.119212E-03
      0.310000          0.115990E-03
      0.315000          0.113130E-03
      0.320000          0.110578E-03
      0.325000          0.108287E-03
      0.330000          0.106214E-03
      0.335000          0.104318E-03
      0.340000          0.102563E-03
      0.345000          0.100916E-03
      0.350000          0.993460E-04
      0.355000          0.978282E-04
      0.360000          0.963409E-04
      0.365000          0.948669E-04
      0.370000          0.933939E-04
      0.375000          0.919140E-04
      0.380000          0.904240E-04
      0.385000          0.889246E-04
      0.390000          0.874203E-04
      0.395000          0.859188E-04
      0.400000          0.844303E-04
      0.405000          0.829666E-04
      0.410000          0.815405E-04
      0.415000          0.801654E-04
      0.420000          0.788543E-04
      0.425000          0.776194E-04
      0.430000          0.764714E-04
      0.435000          0.754196E-04
      0.440000          0.744714E-04
      0.445000          0.736320E-04
      0.450000          0.729047E-04
      0.455000          0.722904E-04
      0.460000          0.717883E-04
      0.465000          0.713956E-04
      0.470000          0.711079E-04
      0.475000          0.709191E-04
      0.480000          0.708219E-04
      0.485000          0.708081E-04
      0.490000          0.708683E-04
      0.495000          0.709927E-04
      0.500000          0.711708E-04
