 I_abs(s)[cm^-1]/c[mg/ml]
       0.00000          0.148826E-01
      0.500000E-02      0.148268E-01
      0.100000E-01      0.146605E-01
      0.150000E-01      0.143874E-01
      0.200000E-01      0.140130E-01
      0.250000E-01      0.135453E-01
      0.300000E-01      0.129938E-01
      0.350000E-01      0.123695E-01
      0.400000E-01      0.116845E-01
      0.450000E-01      0.109519E-01
      0.500000E-01      0.101849E-01
      0.550000E-01      0.939669E-02
      0.600000E-01      0.860022E-02
      0.650000E-01      0.780770E-02
      0.700000E-01      0.703032E-02
      0.750000E-01      0.627811E-02
      0.800000E-01      0.555968E-02
      0.850000E-01      0.488215E-02
      0.900000E-01      0.425107E-02
      0.950000E-01      0.367045E-02
      0.100000          0.314277E-02
      0.105000          0.266911E-02
      0.110000          0.224926E-02
      0.115000          0.188191E-02
      0.120000          0.156478E-02
      0.125000          0.129486E-02
      0.130000          0.106855E-02
      0.135000          0.881869E-03
      0.140000          0.730611E-03
      0.145000          0.610497E-03
      0.150000          0.517300E-03
      0.155000          0.446953E-03
      0.160000          0.395630E-03
      0.165000          0.359808E-03
      0.170000          0.336302E-03
      0.175000          0.322291E-03
      0.180000          0.315322E-03
      0.185000          0.313303E-03
      0.190000          0.314488E-03
      0.195000          0.317452E-03
      0.200000          0.321064E-03
      0.205000          0.324461E-03
      0.210000          0.327012E-03
      0.215000          0.328291E-03
      0.220000          0.328045E-03
      0.225000          0.326171E-03
      0.230000          0.322683E-03
      0.235000          0.317694E-03
      0.240000          0.311389E-03
      0.245000          0.304006E-03
      0.250000          0.295814E-03
      0.255000          0.287100E-03
      0.260000          0.278148E-03
      0.265000          0.269226E-03
      0.270000          0.260576E-03
      0.275000          0.252402E-03
      0.280000          0.244866E-03
      0.285000          0.238079E-03
      0.290000          0.232103E-03
      0.295000          0.226951E-03
      0.300000          0.222590E-03
      0.305000          0.218946E-03
      0.310000          0.215915E-03
      0.315000          0.213368E-03
      0.320000          0.211159E-03
      0.325000          0.209140E-03
      0.330000          0.207165E-03
      0.335000          0.205104E-03
      0.340000          0.202840E-03
      0.345000          0.200287E-03
      0.350000          0.197383E-03
      0.355000          0.194095E-03
      0.360000          0.190422E-03
      0.365000          0.186388E-03
      0.370000          0.182042E-03
      0.375000          0.177449E-03
      0.380000          0.172694E-03
      0.385000          0.167865E-03
      0.390000          0.163055E-03
      0.395000          0.158356E-03
      0.400000          0.153852E-03
      0.405000          0.149615E-03
      0.410000          0.145707E-03
      0.415000          0.142170E-03
      0.420000          0.139033E-03
      0.425000          0.136307E-03
      0.430000          0.133988E-03
      0.435000          0.132059E-03
      0.440000          0.130488E-03
      0.445000          0.129235E-03
      0.450000          0.128251E-03
      0.455000          0.127483E-03
      0.460000          0.126875E-03
      0.465000          0.126369E-03
      0.470000          0.125908E-03
      0.475000          0.125439E-03
      0.480000          0.124913E-03
      0.485000          0.124283E-03
      0.490000          0.123513E-03
      0.495000          0.122568E-03
      0.500000          0.121423E-03
