 I_abs(s)[cm^-1]/c[mg/ml]
       0.00000          0.139044E-01
      0.500000E-02      0.138441E-01
      0.100000E-01      0.136646E-01
      0.150000E-01      0.133712E-01
      0.200000E-01      0.129716E-01
      0.250000E-01      0.124767E-01
      0.300000E-01      0.118996E-01
      0.350000E-01      0.112549E-01
      0.400000E-01      0.105586E-01
      0.450000E-01      0.982711E-02
      0.500000E-01      0.907681E-02
      0.550000E-01      0.832334E-02
      0.600000E-01      0.758113E-02
      0.650000E-01      0.686300E-02
      0.700000E-01      0.617977E-02
      0.750000E-01      0.554002E-02
      0.800000E-01      0.495005E-02
      0.850000E-01      0.441379E-02
      0.900000E-01      0.393298E-02
      0.950000E-01      0.350733E-02
      0.100000          0.313480E-02
      0.105000          0.281193E-02
      0.110000          0.253420E-02
      0.115000          0.229636E-02
      0.120000          0.209283E-02
      0.125000          0.191800E-02
      0.130000          0.176649E-02
      0.135000          0.163341E-02
      0.140000          0.151451E-02
      0.145000          0.140626E-02
      0.150000          0.130592E-02
      0.155000          0.121151E-02
      0.160000          0.112175E-02
      0.165000          0.103598E-02
      0.170000          0.954028E-03
      0.175000          0.876085E-03
      0.180000          0.802564E-03
      0.185000          0.733984E-03
      0.190000          0.670858E-03
      0.195000          0.613604E-03
      0.200000          0.562484E-03
      0.205000          0.517563E-03
      0.210000          0.478696E-03
      0.215000          0.445541E-03
      0.220000          0.417578E-03
      0.225000          0.394152E-03
      0.230000          0.374522E-03
      0.235000          0.357909E-03
      0.240000          0.343545E-03
      0.245000          0.330716E-03
      0.250000          0.318799E-03
      0.255000          0.307288E-03
      0.260000          0.295805E-03
      0.265000          0.284107E-03
      0.270000          0.272078E-03
      0.275000          0.259717E-03
      0.280000          0.247118E-03
      0.285000          0.234446E-03
      0.290000          0.221909E-03
      0.295000          0.209739E-03
      0.300000          0.198163E-03
      0.305000          0.187388E-03
      0.310000          0.177586E-03
      0.315000          0.168880E-03
      0.320000          0.161343E-03
      0.325000          0.154993E-03
      0.330000          0.149801E-03
      0.335000          0.145690E-03
      0.340000          0.142549E-03
      0.345000          0.140240E-03
      0.350000          0.138605E-03
      0.355000          0.137480E-03
      0.360000          0.136701E-03
      0.365000          0.136112E-03
      0.370000          0.135571E-03
      0.375000          0.134956E-03
      0.380000          0.134164E-03
      0.385000          0.133118E-03
      0.390000          0.131761E-03
      0.395000          0.130063E-03
      0.400000          0.128012E-03
      0.405000          0.125616E-03
      0.410000          0.122901E-03
      0.415000          0.119905E-03
      0.420000          0.116677E-03
      0.425000          0.113276E-03
      0.430000          0.109763E-03
      0.435000          0.106201E-03
      0.440000          0.102655E-03
      0.445000          0.991838E-04
      0.450000          0.958411E-04
      0.455000          0.926737E-04
      0.460000          0.897185E-04
      0.465000          0.870027E-04
      0.470000          0.845421E-04
      0.475000          0.823418E-04
      0.480000          0.803959E-04
      0.485000          0.786891E-04
      0.490000          0.771975E-04
      0.495000          0.758910E-04
      0.500000          0.747345E-04
