 I_abs(s)[cm^-1]/c[mg/ml]
       0.00000          0.144288E-01
      0.500000E-02      0.143659E-01
      0.100000E-01      0.141786E-01
      0.150000E-01      0.138719E-01
      0.200000E-01      0.134538E-01
      0.250000E-01      0.129348E-01
      0.300000E-01      0.123281E-01
      0.350000E-01      0.116483E-01
      0.400000E-01      0.109114E-01
      0.450000E-01      0.101340E-01
      0.500000E-01      0.933281E-02
      0.550000E-01      0.852381E-02
      0.600000E-01      0.772211E-02
      0.650000E-01      0.694129E-02
      0.700000E-01      0.619311E-02
      0.750000E-01      0.548724E-02
      0.800000E-01      0.483118E-02
      0.850000E-01      0.423015E-02
      0.900000E-01      0.368723E-02
      0.950000E-01      0.320345E-02
      0.100000          0.277802E-02
      0.105000          0.240861E-02
      0.110000          0.209168E-02
      0.115000          0.182273E-02
      0.120000          0.159667E-02
      0.125000          0.140814E-02
      0.130000          0.125169E-02
      0.135000          0.112209E-02
      0.140000          0.101449E-02
      0.145000          0.924530E-03
      0.150000          0.848429E-03
      0.155000          0.783048E-03
      0.160000          0.725862E-03
      0.165000          0.674940E-03
      0.170000          0.628877E-03
      0.175000          0.586718E-03
      0.180000          0.547876E-03
      0.185000          0.512038E-03
      0.190000          0.479084E-03
      0.195000          0.449006E-03
      0.200000          0.421847E-03
      0.205000          0.397645E-03
      0.210000          0.376400E-03
      0.215000          0.358050E-03
      0.220000          0.342458E-03
      0.225000          0.329414E-03
      0.230000          0.318644E-03
      0.235000          0.309826E-03
      0.240000          0.302606E-03
      0.245000          0.296618E-03
      0.250000          0.291507E-03
      0.255000          0.286943E-03
      0.260000          0.282633E-03
      0.265000          0.278339E-03
      0.270000          0.273874E-03
      0.275000          0.269112E-03
      0.280000          0.263981E-03
      0.285000          0.258459E-03
      0.290000          0.252570E-03
      0.295000          0.246368E-03
      0.300000          0.239932E-03
      0.305000          0.233356E-03
      0.310000          0.226735E-03
      0.315000          0.220163E-03
      0.320000          0.213722E-03
      0.325000          0.207478E-03
      0.330000          0.201481E-03
      0.335000          0.195761E-03
      0.340000          0.190331E-03
      0.345000          0.185190E-03
      0.350000          0.180322E-03
      0.355000          0.175707E-03
      0.360000          0.171317E-03
      0.365000          0.167126E-03
      0.370000          0.163110E-03
      0.375000          0.159249E-03
      0.380000          0.155532E-03
      0.385000          0.151952E-03
      0.390000          0.148509E-03
      0.395000          0.145210E-03
      0.400000          0.142062E-03
      0.405000          0.139076E-03
      0.410000          0.136258E-03
      0.415000          0.133616E-03
      0.420000          0.131147E-03
      0.425000          0.128847E-03
      0.430000          0.126703E-03
      0.435000          0.124697E-03
      0.440000          0.122806E-03
      0.445000          0.121002E-03
      0.450000          0.119257E-03
      0.455000          0.117542E-03
      0.460000          0.115831E-03
      0.465000          0.114101E-03
      0.470000          0.112335E-03
      0.475000          0.110521E-03
      0.480000          0.108657E-03
      0.485000          0.106744E-03
      0.490000          0.104791E-03
      0.495000          0.102812E-03
      0.500000          0.100825E-03
