 I_abs(s)[cm^-1]/c[mg/ml]
       0.00000          0.141772E-01
      0.500000E-02      0.141161E-01
      0.100000E-01      0.139346E-01
      0.150000E-01      0.136374E-01
      0.200000E-01      0.132322E-01
      0.250000E-01      0.127291E-01
      0.300000E-01      0.121409E-01
      0.350000E-01      0.114817E-01
      0.400000E-01      0.107669E-01
      0.450000E-01      0.100125E-01
      0.500000E-01      0.923476E-02
      0.550000E-01      0.844907E-02
      0.600000E-01      0.767002E-02
      0.650000E-01      0.691075E-02
      0.700000E-01      0.618264E-02
      0.750000E-01      0.549508E-02
      0.800000E-01      0.485535E-02
      0.850000E-01      0.426856E-02
      0.900000E-01      0.373775E-02
      0.950000E-01      0.326399E-02
      0.100000          0.284661E-02
      0.105000          0.248345E-02
      0.110000          0.217117E-02
      0.115000          0.190551E-02
      0.120000          0.168165E-02
      0.125000          0.149443E-02
      0.130000          0.133865E-02
      0.135000          0.120928E-02
      0.140000          0.110160E-02
      0.145000          0.101136E-02
      0.150000          0.934857E-03
      0.155000          0.868948E-03
      0.160000          0.811085E-03
      0.165000          0.759267E-03
      0.170000          0.711996E-03
      0.175000          0.668210E-03
      0.180000          0.627203E-03
      0.185000          0.588556E-03
      0.190000          0.552054E-03
      0.195000          0.517624E-03
      0.200000          0.485276E-03
      0.205000          0.455052E-03
      0.210000          0.426997E-03
      0.215000          0.401131E-03
      0.220000          0.377436E-03
      0.225000          0.355848E-03
      0.230000          0.336263E-03
      0.235000          0.318537E-03
      0.240000          0.302498E-03
      0.245000          0.287956E-03
      0.250000          0.274710E-03
      0.255000          0.262564E-03
      0.260000          0.251328E-03
      0.265000          0.240832E-03
      0.270000          0.230924E-03
      0.275000          0.221478E-03
      0.280000          0.212395E-03
      0.285000          0.203601E-03
      0.290000          0.195048E-03
      0.295000          0.186714E-03
      0.300000          0.178597E-03
      0.305000          0.170714E-03
      0.310000          0.163099E-03
      0.315000          0.155799E-03
      0.320000          0.148869E-03
      0.325000          0.142372E-03
      0.330000          0.136372E-03
      0.335000          0.130930E-03
      0.340000          0.126105E-03
      0.345000          0.121945E-03
      0.350000          0.118490E-03
      0.355000          0.115764E-03
      0.360000          0.113776E-03
      0.365000          0.112519E-03
      0.370000          0.111965E-03
      0.375000          0.112071E-03
      0.380000          0.112776E-03
      0.385000          0.114003E-03
      0.390000          0.115661E-03
      0.395000          0.117649E-03
      0.400000          0.119858E-03
      0.405000          0.122178E-03
      0.410000          0.124495E-03
      0.415000          0.126704E-03
      0.420000          0.128706E-03
      0.425000          0.130416E-03
      0.430000          0.131762E-03
      0.435000          0.132690E-03
      0.440000          0.133165E-03
      0.445000          0.133173E-03
      0.450000          0.132718E-03
      0.455000          0.131821E-03
      0.460000          0.130522E-03
      0.465000          0.128873E-03
      0.470000          0.126935E-03
      0.475000          0.124779E-03
      0.480000          0.122475E-03
      0.485000          0.120094E-03
      0.490000          0.117703E-03
      0.495000          0.115361E-03
      0.500000          0.113117E-03
