 I_abs(s)[cm^-1]/c[mg/ml]
       0.00000          0.144921E-01
      0.500000E-02      0.144463E-01
      0.100000E-01      0.143100E-01
      0.150000E-01      0.140857E-01
      0.200000E-01      0.137781E-01
      0.250000E-01      0.133932E-01
      0.300000E-01      0.129383E-01
      0.350000E-01      0.124221E-01
      0.400000E-01      0.118540E-01
      0.450000E-01      0.112441E-01
      0.500000E-01      0.106026E-01
      0.550000E-01      0.993982E-02
      0.600000E-01      0.926581E-02
      0.650000E-01      0.859004E-02
      0.700000E-01      0.792124E-02
      0.750000E-01      0.726724E-02
      0.800000E-01      0.663482E-02
      0.850000E-01      0.602961E-02
      0.900000E-01      0.545609E-02
      0.950000E-01      0.491758E-02
      0.100000          0.441628E-02
      0.105000          0.395338E-02
      0.110000          0.352912E-02
      0.115000          0.314295E-02
      0.120000          0.279366E-02
      0.125000          0.247952E-02
      0.130000          0.219839E-02
      0.135000          0.194791E-02
      0.140000          0.172556E-02
      0.145000          0.152877E-02
      0.150000          0.135505E-02
      0.155000          0.120200E-02
      0.160000          0.106736E-02
      0.165000          0.949090E-03
      0.170000          0.845319E-03
      0.175000          0.754389E-03
      0.180000          0.674827E-03
      0.185000          0.605339E-03
      0.190000          0.544783E-03
      0.195000          0.492152E-03
      0.200000          0.446550E-03
      0.205000          0.407175E-03
      0.210000          0.373299E-03
      0.215000          0.344260E-03
      0.220000          0.319445E-03
      0.225000          0.298291E-03
      0.230000          0.280276E-03
      0.235000          0.264923E-03
      0.240000          0.251793E-03
      0.245000          0.240494E-03
      0.250000          0.230679E-03
      0.255000          0.222043E-03
      0.260000          0.214331E-03
      0.265000          0.207328E-03
      0.270000          0.200864E-03
      0.275000          0.194805E-03
      0.280000          0.189052E-03
      0.285000          0.183537E-03
      0.290000          0.178211E-03
      0.295000          0.173048E-03
      0.300000          0.168032E-03
      0.305000          0.163157E-03
      0.310000          0.158422E-03
      0.315000          0.153827E-03
      0.320000          0.149374E-03
      0.325000          0.145060E-03
      0.330000          0.140884E-03
      0.335000          0.136841E-03
      0.340000          0.132924E-03
      0.345000          0.129128E-03
      0.350000          0.125446E-03
      0.355000          0.121875E-03
      0.360000          0.118414E-03
      0.365000          0.115062E-03
      0.370000          0.111825E-03
      0.375000          0.108709E-03
      0.380000          0.105725E-03
      0.385000          0.102885E-03
      0.390000          0.100201E-03
      0.395000          0.976887E-04
      0.400000          0.953595E-04
      0.405000          0.932250E-04
      0.410000          0.912939E-04
      0.415000          0.895716E-04
      0.420000          0.880597E-04
      0.425000          0.867559E-04
      0.430000          0.856536E-04
      0.435000          0.847419E-04
      0.440000          0.840065E-04
      0.445000          0.834296E-04
      0.450000          0.829907E-04
      0.455000          0.826675E-04
      0.460000          0.824363E-04
      0.465000          0.822730E-04
      0.470000          0.821537E-04
      0.475000          0.820556E-04
      0.480000          0.819573E-04
      0.485000          0.818397E-04
      0.490000          0.816862E-04
      0.495000          0.814830E-04
      0.500000          0.812194E-04
