 I_abs(s)[cm^-1]/c[mg/ml]
       0.00000          0.143263E-01
      0.500000E-02      0.142766E-01
      0.100000E-01      0.141286E-01
      0.150000E-01      0.138859E-01
      0.200000E-01      0.135541E-01
      0.250000E-01      0.131410E-01
      0.300000E-01      0.126557E-01
      0.350000E-01      0.121089E-01
      0.400000E-01      0.115120E-01
      0.450000E-01      0.108769E-01
      0.500000E-01      0.102157E-01
      0.550000E-01      0.953999E-02
      0.600000E-01      0.886070E-02
      0.650000E-01      0.818783E-02
      0.700000E-01      0.753015E-02
      0.750000E-01      0.689511E-02
      0.800000E-01      0.628867E-02
      0.850000E-01      0.571536E-02
      0.900000E-01      0.517832E-02
      0.950000E-01      0.467935E-02
      0.100000          0.421914E-02
      0.105000          0.379735E-02
      0.110000          0.341286E-02
      0.115000          0.306396E-02
      0.120000          0.274848E-02
      0.125000          0.246402E-02
      0.130000          0.220805E-02
      0.135000          0.197806E-02
      0.140000          0.177162E-02
      0.145000          0.158645E-02
      0.150000          0.142047E-02
      0.155000          0.127180E-02
      0.160000          0.113876E-02
      0.165000          0.101985E-02
      0.170000          0.913751E-03
      0.175000          0.819269E-03
      0.180000          0.735326E-03
      0.185000          0.660936E-03
      0.190000          0.595184E-03
      0.195000          0.537215E-03
      0.200000          0.486227E-03
      0.205000          0.441464E-03
      0.210000          0.402218E-03
      0.215000          0.367834E-03
      0.220000          0.337708E-03
      0.225000          0.311294E-03
      0.230000          0.288104E-03
      0.235000          0.267710E-03
      0.240000          0.249743E-03
      0.245000          0.233885E-03
      0.250000          0.219870E-03
      0.255000          0.207477E-03
      0.260000          0.196519E-03
      0.265000          0.186841E-03
      0.270000          0.178310E-03
      0.275000          0.170812E-03
      0.280000          0.164246E-03
      0.285000          0.158517E-03
      0.290000          0.153538E-03
      0.295000          0.149226E-03
      0.300000          0.145501E-03
      0.305000          0.142286E-03
      0.310000          0.139506E-03
      0.315000          0.137091E-03
      0.320000          0.134974E-03
      0.325000          0.133093E-03
      0.330000          0.131390E-03
      0.335000          0.129815E-03
      0.340000          0.128320E-03
      0.345000          0.126866E-03
      0.350000          0.125420E-03
      0.355000          0.123952E-03
      0.360000          0.122440E-03
      0.365000          0.120868E-03
      0.370000          0.119224E-03
      0.375000          0.117503E-03
      0.380000          0.115702E-03
      0.385000          0.113825E-03
      0.390000          0.111878E-03
      0.395000          0.109870E-03
      0.400000          0.107811E-03
      0.405000          0.105714E-03
      0.410000          0.103592E-03
      0.415000          0.101459E-03
      0.420000          0.993258E-04
      0.425000          0.972058E-04
      0.430000          0.951102E-04
      0.435000          0.930499E-04
      0.440000          0.910352E-04
      0.445000          0.890765E-04
      0.450000          0.871839E-04
      0.455000          0.853678E-04
      0.460000          0.836392E-04
      0.465000          0.820089E-04
      0.470000          0.804882E-04
      0.475000          0.790875E-04
      0.480000          0.778166E-04
      0.485000          0.766834E-04
      0.490000          0.756935E-04
      0.495000          0.748494E-04
      0.500000          0.741499E-04
