 I_abs(s)[cm^-1]/c[mg/ml]
       0.00000          0.140990E-01
      0.500000E-02      0.140366E-01
      0.100000E-01      0.138513E-01
      0.150000E-01      0.135483E-01
      0.200000E-01      0.131363E-01
      0.250000E-01      0.126265E-01
      0.300000E-01      0.120328E-01
      0.350000E-01      0.113708E-01
      0.400000E-01      0.106572E-01
      0.450000E-01      0.990908E-02
      0.500000E-01      0.914343E-02
      0.550000E-01      0.837635E-02
      0.600000E-01      0.762255E-02
      0.650000E-01      0.689493E-02
      0.700000E-01      0.620421E-02
      0.750000E-01      0.555875E-02
      0.800000E-01      0.496447E-02
      0.850000E-01      0.442489E-02
      0.900000E-01      0.394129E-02
      0.950000E-01      0.351296E-02
      0.100000          0.313750E-02
      0.105000          0.281118E-02
      0.110000          0.252934E-02
      0.115000          0.228673E-02
      0.120000          0.207790E-02
      0.125000          0.189745E-02
      0.130000          0.174034E-02
      0.135000          0.160205E-02
      0.140000          0.147871E-02
      0.145000          0.136714E-02
      0.150000          0.126489E-02
      0.155000          0.117020E-02
      0.160000          0.108185E-02
      0.165000          0.999149E-03
      0.170000          0.921759E-03
      0.175000          0.849590E-03
      0.180000          0.782694E-03
      0.185000          0.721166E-03
      0.190000          0.665072E-03
      0.195000          0.614393E-03
      0.200000          0.569003E-03
      0.205000          0.528654E-03
      0.210000          0.492987E-03
      0.215000          0.461556E-03
      0.220000          0.433858E-03
      0.225000          0.409366E-03
      0.230000          0.387561E-03
      0.235000          0.367962E-03
      0.240000          0.350147E-03
      0.245000          0.333766E-03
      0.250000          0.318550E-03
      0.255000          0.304301E-03
      0.260000          0.290892E-03
      0.265000          0.278246E-03
      0.270000          0.266324E-03
      0.275000          0.255110E-03
      0.280000          0.244594E-03
      0.285000          0.234760E-03
      0.290000          0.225581E-03
      0.295000          0.217013E-03
      0.300000          0.208992E-03
      0.305000          0.201445E-03
      0.310000          0.194289E-03
      0.315000          0.187440E-03
      0.320000          0.180823E-03
      0.325000          0.174374E-03
      0.330000          0.168050E-03
      0.335000          0.161830E-03
      0.340000          0.155714E-03
      0.345000          0.149726E-03
      0.350000          0.143904E-03
      0.355000          0.138300E-03
      0.360000          0.132970E-03
      0.365000          0.127971E-03
      0.370000          0.123352E-03
      0.375000          0.119149E-03
      0.380000          0.115384E-03
      0.385000          0.112061E-03
      0.390000          0.109165E-03
      0.395000          0.106667E-03
      0.400000          0.104523E-03
      0.405000          0.102680E-03
      0.410000          0.101081E-03
      0.415000          0.996686E-04
      0.420000          0.983896E-04
      0.425000          0.971987E-04
      0.430000          0.960607E-04
      0.435000          0.949525E-04
      0.440000          0.938624E-04
      0.445000          0.927900E-04
      0.450000          0.917436E-04
      0.455000          0.907380E-04
      0.460000          0.897913E-04
      0.465000          0.889218E-04
      0.470000          0.881450E-04
      0.475000          0.874712E-04
      0.480000          0.869039E-04
      0.485000          0.864385E-04
      0.490000          0.860624E-04
      0.495000          0.857556E-04
      0.500000          0.854920E-04
