 I_abs(s)[cm^-1]/c[mg/ml]
       0.00000          0.142949E-01
      0.500000E-02      0.142346E-01
      0.100000E-01      0.140555E-01
      0.150000E-01      0.137629E-01
      0.200000E-01      0.133648E-01
      0.250000E-01      0.128725E-01
      0.300000E-01      0.122992E-01
      0.350000E-01      0.116600E-01
      0.400000E-01      0.109708E-01
      0.450000E-01      0.102481E-01
      0.500000E-01      0.950785E-02
      0.550000E-01      0.876534E-02
      0.600000E-01      0.803427E-02
      0.650000E-01      0.732658E-02
      0.700000E-01      0.665207E-02
      0.750000E-01      0.601826E-02
      0.800000E-01      0.543038E-02
      0.850000E-01      0.489140E-02
      0.900000E-01      0.440228E-02
      0.950000E-01      0.396218E-02
      0.100000          0.356883E-02
      0.105000          0.321886E-02
      0.110000          0.290818E-02
      0.115000          0.263232E-02
      0.120000          0.238673E-02
      0.125000          0.216707E-02
      0.130000          0.196939E-02
      0.135000          0.179027E-02
      0.140000          0.162689E-02
      0.145000          0.147706E-02
      0.150000          0.133917E-02
      0.155000          0.121210E-02
      0.160000          0.109517E-02
      0.165000          0.987999E-03
      0.170000          0.890367E-03
      0.175000          0.802157E-03
      0.180000          0.723234E-03
      0.185000          0.653388E-03
      0.190000          0.592290E-03
      0.195000          0.539464E-03
      0.200000          0.494298E-03
      0.205000          0.456057E-03
      0.210000          0.423915E-03
      0.215000          0.396998E-03
      0.220000          0.374425E-03
      0.225000          0.355350E-03
      0.230000          0.338997E-03
      0.235000          0.324686E-03
      0.240000          0.311854E-03
      0.245000          0.300058E-03
      0.250000          0.288977E-03
      0.255000          0.278398E-03
      0.260000          0.268205E-03
      0.265000          0.258355E-03
      0.270000          0.248857E-03
      0.275000          0.239754E-03
      0.280000          0.231102E-03
      0.285000          0.222954E-03
      0.290000          0.215353E-03
      0.295000          0.208317E-03
      0.300000          0.201846E-03
      0.305000          0.195913E-03
      0.310000          0.190475E-03
      0.315000          0.185470E-03
      0.320000          0.180830E-03
      0.325000          0.176483E-03
      0.330000          0.172359E-03
      0.335000          0.168394E-03
      0.340000          0.164535E-03
      0.345000          0.160737E-03
      0.350000          0.156970E-03
      0.355000          0.153213E-03
      0.360000          0.149456E-03
      0.365000          0.145694E-03
      0.370000          0.141933E-03
      0.375000          0.138178E-03
      0.380000          0.134442E-03
      0.385000          0.130734E-03
      0.390000          0.127070E-03
      0.395000          0.123461E-03
      0.400000          0.119922E-03
      0.405000          0.116468E-03
      0.410000          0.113113E-03
      0.415000          0.109872E-03
      0.420000          0.106764E-03
      0.425000          0.103803E-03
      0.430000          0.101007E-03
      0.435000          0.983915E-04
      0.440000          0.959705E-04
      0.445000          0.937554E-04
      0.450000          0.917541E-04
      0.455000          0.899704E-04
      0.460000          0.884028E-04
      0.465000          0.870450E-04
      0.470000          0.858850E-04
      0.475000          0.849060E-04
      0.480000          0.840864E-04
      0.485000          0.834012E-04
      0.490000          0.828229E-04
      0.495000          0.823227E-04
      0.500000          0.818717E-04
