 I_abs(s)[cm^-1]/c[mg/ml]
       0.00000          0.140911E-01
      0.500000E-02      0.140386E-01
      0.100000E-01      0.138820E-01
      0.150000E-01      0.136252E-01
      0.200000E-01      0.132742E-01
      0.250000E-01      0.128370E-01
      0.300000E-01      0.123234E-01
      0.350000E-01      0.117448E-01
      0.400000E-01      0.111134E-01
      0.450000E-01      0.104421E-01
      0.500000E-01      0.974381E-02
      0.550000E-01      0.903138E-02
      0.600000E-01      0.831689E-02
      0.650000E-01      0.761148E-02
      0.700000E-01      0.692508E-02
      0.750000E-01      0.626615E-02
      0.800000E-01      0.564162E-02
      0.850000E-01      0.505679E-02
      0.900000E-01      0.451535E-02
      0.950000E-01      0.401947E-02
      0.100000          0.356991E-02
      0.105000          0.316618E-02
      0.110000          0.280677E-02
      0.115000          0.248929E-02
      0.120000          0.221077E-02
      0.125000          0.196780E-02
      0.130000          0.175674E-02
      0.135000          0.157391E-02
      0.140000          0.141569E-02
      0.145000          0.127866E-02
      0.150000          0.115969E-02
      0.155000          0.105597E-02
      0.160000          0.965047E-03
      0.165000          0.884819E-03
      0.170000          0.813539E-03
      0.175000          0.749777E-03
      0.180000          0.692386E-03
      0.185000          0.640459E-03
      0.190000          0.593289E-03
      0.195000          0.550326E-03
      0.200000          0.511142E-03
      0.205000          0.475397E-03
      0.210000          0.442815E-03
      0.215000          0.413158E-03
      0.220000          0.386216E-03
      0.225000          0.361794E-03
      0.230000          0.339705E-03
      0.235000          0.319764E-03
      0.240000          0.301794E-03
      0.245000          0.285618E-03
      0.250000          0.271065E-03
      0.255000          0.257969E-03
      0.260000          0.246172E-03
      0.265000          0.235525E-03
      0.270000          0.225890E-03
      0.275000          0.217138E-03
      0.280000          0.209152E-03
      0.285000          0.201827E-03
      0.290000          0.195070E-03
      0.295000          0.188797E-03
      0.300000          0.182938E-03
      0.305000          0.177432E-03
      0.310000          0.172225E-03
      0.315000          0.167276E-03
      0.320000          0.162548E-03
      0.325000          0.158012E-03
      0.330000          0.153647E-03
      0.335000          0.149433E-03
      0.340000          0.145357E-03
      0.345000          0.141409E-03
      0.350000          0.137583E-03
      0.355000          0.133873E-03
      0.360000          0.130280E-03
      0.365000          0.126805E-03
      0.370000          0.123452E-03
      0.375000          0.120227E-03
      0.380000          0.117140E-03
      0.385000          0.114203E-03
      0.390000          0.111427E-03
      0.395000          0.108828E-03
      0.400000          0.106419E-03
      0.405000          0.104213E-03
      0.410000          0.102220E-03
      0.415000          0.100448E-03
      0.420000          0.988995E-04
      0.425000          0.975724E-04
      0.430000          0.964584E-04
      0.435000          0.955432E-04
      0.440000          0.948068E-04
      0.445000          0.942239E-04
      0.450000          0.937647E-04
      0.455000          0.933968E-04
      0.460000          0.930861E-04
      0.465000          0.927988E-04
      0.470000          0.925033E-04
      0.475000          0.921714E-04
      0.480000          0.917799E-04
      0.485000          0.913116E-04
      0.490000          0.907560E-04
      0.495000          0.901095E-04
      0.500000          0.893748E-04
