 I_abs(s)[cm^-1]/c[mg/ml]
       0.00000          0.146111E-01
      0.500000E-02      0.145478E-01
      0.100000E-01      0.143596E-01
      0.150000E-01      0.140517E-01
      0.200000E-01      0.136325E-01
      0.250000E-01      0.131130E-01
      0.300000E-01      0.125068E-01
      0.350000E-01      0.118290E-01
      0.400000E-01      0.110960E-01
      0.450000E-01      0.103245E-01
      0.500000E-01      0.953111E-02
      0.550000E-01      0.873155E-02
      0.600000E-01      0.794036E-02
      0.650000E-01      0.717036E-02
      0.700000E-01      0.643237E-02
      0.750000E-01      0.573505E-02
      0.800000E-01      0.508485E-02
      0.850000E-01      0.448605E-02
      0.900000E-01      0.394091E-02
      0.950000E-01      0.344986E-02
      0.100000          0.301184E-02
      0.105000          0.262456E-02
      0.110000          0.228481E-02
      0.115000          0.198879E-02
      0.120000          0.173236E-02
      0.125000          0.151131E-02
      0.130000          0.132153E-02
      0.135000          0.115913E-02
      0.140000          0.102059E-02
      0.145000          0.902752E-03
      0.150000          0.802880E-03
      0.155000          0.718606E-03
      0.160000          0.647909E-03
      0.165000          0.589061E-03
      0.170000          0.540574E-03
      0.175000          0.501146E-03
      0.180000          0.469613E-03
      0.185000          0.444915E-03
      0.190000          0.426069E-03
      0.195000          0.412150E-03
      0.200000          0.402287E-03
      0.205000          0.395660E-03
      0.210000          0.391508E-03
      0.215000          0.389132E-03
      0.220000          0.387903E-03
      0.225000          0.387271E-03
      0.230000          0.386766E-03
      0.235000          0.386001E-03
      0.240000          0.384668E-03
      0.245000          0.382538E-03
      0.250000          0.379449E-03
      0.255000          0.375304E-03
      0.260000          0.370060E-03
      0.265000          0.363721E-03
      0.270000          0.356328E-03
      0.275000          0.347956E-03
      0.280000          0.338705E-03
      0.285000          0.328692E-03
      0.290000          0.318052E-03
      0.295000          0.306927E-03
      0.300000          0.295465E-03
      0.305000          0.283815E-03
      0.310000          0.272123E-03
      0.315000          0.260527E-03
      0.320000          0.249154E-03
      0.325000          0.238118E-03
      0.330000          0.227516E-03
      0.335000          0.217424E-03
      0.340000          0.207901E-03
      0.345000          0.198985E-03
      0.350000          0.190697E-03
      0.355000          0.183038E-03
      0.360000          0.175998E-03
      0.365000          0.169551E-03
      0.370000          0.163665E-03
      0.375000          0.158300E-03
      0.380000          0.153415E-03
      0.385000          0.148964E-03
      0.390000          0.144906E-03
      0.395000          0.141200E-03
      0.400000          0.137807E-03
      0.405000          0.134691E-03
      0.410000          0.131821E-03
      0.415000          0.129165E-03
      0.420000          0.126696E-03
      0.425000          0.124385E-03
      0.430000          0.122207E-03
      0.435000          0.120134E-03
      0.440000          0.118141E-03
      0.445000          0.116202E-03
      0.450000          0.114294E-03
      0.455000          0.112395E-03
      0.460000          0.110483E-03
      0.465000          0.108542E-03
      0.470000          0.106559E-03
      0.475000          0.104524E-03
      0.480000          0.102434E-03
      0.485000          0.100289E-03
      0.490000          0.980932E-04
      0.495000          0.958576E-04
      0.500000          0.935954E-04
