 I_abs(s)[cm^-1]/c[mg/ml]
       0.00000          0.145952E-01
      0.500000E-02      0.145254E-01
      0.100000E-01      0.143181E-01
      0.150000E-01      0.139796E-01
      0.200000E-01      0.135199E-01
      0.250000E-01      0.129525E-01
      0.300000E-01      0.122936E-01
      0.350000E-01      0.115614E-01
      0.400000E-01      0.107752E-01
      0.450000E-01      0.995479E-02
      0.500000E-01      0.911953E-02
      0.550000E-01      0.828760E-02
      0.600000E-01      0.747539E-02
      0.650000E-01      0.669702E-02
      0.700000E-01      0.596398E-02
      0.750000E-01      0.528496E-02
      0.800000E-01      0.466579E-02
      0.850000E-01      0.410955E-02
      0.900000E-01      0.361684E-02
      0.950000E-01      0.318604E-02
      0.100000          0.281379E-02
      0.105000          0.249534E-02
      0.110000          0.222506E-02
      0.115000          0.199678E-02
      0.120000          0.180427E-02
      0.125000          0.164144E-02
      0.130000          0.150271E-02
      0.135000          0.138308E-02
      0.140000          0.127830E-02
      0.145000          0.118489E-02
      0.150000          0.110012E-02
      0.155000          0.102197E-02
      0.160000          0.949015E-03
      0.165000          0.880331E-03
      0.170000          0.815388E-03
      0.175000          0.753936E-03
      0.180000          0.695909E-03
      0.185000          0.641349E-03
      0.190000          0.590339E-03
      0.195000          0.542960E-03
      0.200000          0.499267E-03
      0.205000          0.459270E-03
      0.210000          0.422933E-03
      0.215000          0.390175E-03
      0.220000          0.360878E-03
      0.225000          0.334891E-03
      0.230000          0.312039E-03
      0.235000          0.292129E-03
      0.240000          0.274948E-03
      0.245000          0.260270E-03
      0.250000          0.247853E-03
      0.255000          0.237444E-03
      0.260000          0.228778E-03
      0.265000          0.221586E-03
      0.270000          0.215596E-03
      0.275000          0.210547E-03
      0.280000          0.206190E-03
      0.285000          0.202303E-03
      0.290000          0.198696E-03
      0.295000          0.195217E-03
      0.300000          0.191758E-03
      0.305000          0.188256E-03
      0.310000          0.184689E-03
      0.315000          0.181072E-03
      0.320000          0.177449E-03
      0.325000          0.173885E-03
      0.330000          0.170452E-03
      0.335000          0.167219E-03
      0.340000          0.164246E-03
      0.345000          0.161572E-03
      0.350000          0.159213E-03
      0.355000          0.157157E-03
      0.360000          0.155366E-03
      0.365000          0.153779E-03
      0.370000          0.152319E-03
      0.375000          0.150898E-03
      0.380000          0.149425E-03
      0.385000          0.147818E-03
      0.390000          0.146006E-03
      0.395000          0.143935E-03
      0.400000          0.141576E-03
      0.405000          0.138925E-03
      0.410000          0.135999E-03
      0.415000          0.132837E-03
      0.420000          0.129498E-03
      0.425000          0.126051E-03
      0.430000          0.122570E-03
      0.435000          0.119132E-03
      0.440000          0.115809E-03
      0.445000          0.112660E-03
      0.450000          0.109736E-03
      0.455000          0.107067E-03
      0.460000          0.104674E-03
      0.465000          0.102557E-03
      0.470000          0.100706E-03
      0.475000          0.990991E-04
      0.480000          0.977086E-04
      0.485000          0.965011E-04
      0.490000          0.954430E-04
      0.495000          0.945025E-04
      0.500000          0.936521E-04
