 I_abs(s)[cm^-1]/c[mg/ml]
       0.00000          0.145634E-01
      0.500000E-02      0.145069E-01
      0.100000E-01      0.143386E-01
      0.150000E-01      0.140624E-01
      0.200000E-01      0.136848E-01
      0.250000E-01      0.132143E-01
      0.300000E-01      0.126613E-01
      0.350000E-01      0.120381E-01
      0.400000E-01      0.113575E-01
      0.450000E-01      0.106336E-01
      0.500000E-01      0.988015E-02
      0.550000E-01      0.911104E-02
      0.600000E-01      0.833938E-02
      0.650000E-01      0.757733E-02
      0.700000E-01      0.683574E-02
      0.750000E-01      0.612399E-02
      0.800000E-01      0.544976E-02
      0.850000E-01      0.481905E-02
      0.900000E-01      0.423609E-02
      0.950000E-01      0.370348E-02
      0.100000          0.322224E-02
      0.105000          0.279208E-02
      0.110000          0.241148E-02
      0.115000          0.207802E-02
      0.120000          0.178855E-02
      0.125000          0.153942E-02
      0.130000          0.132672E-02
      0.135000          0.114644E-02
      0.140000          0.994631E-03
      0.145000          0.867528E-03
      0.150000          0.761655E-03
      0.155000          0.673874E-03
      0.160000          0.601412E-03
      0.165000          0.541870E-03
      0.170000          0.493197E-03
      0.175000          0.453666E-03
      0.180000          0.421825E-03
      0.185000          0.396454E-03
      0.190000          0.376517E-03
      0.195000          0.361121E-03
      0.200000          0.349478E-03
      0.205000          0.340881E-03
      0.210000          0.334681E-03
      0.215000          0.330279E-03
      0.220000          0.327119E-03
      0.225000          0.324695E-03
      0.230000          0.322551E-03
      0.235000          0.320295E-03
      0.240000          0.317598E-03
      0.245000          0.314208E-03
      0.250000          0.309948E-03
      0.255000          0.304720E-03
      0.260000          0.298495E-03
      0.265000          0.291313E-03
      0.270000          0.283269E-03
      0.275000          0.274501E-03
      0.280000          0.265176E-03
      0.285000          0.255477E-03
      0.290000          0.245593E-03
      0.295000          0.235701E-03
      0.300000          0.225963E-03
      0.305000          0.216516E-03
      0.310000          0.207470E-03
      0.315000          0.198904E-03
      0.320000          0.190872E-03
      0.325000          0.183398E-03
      0.330000          0.176488E-03
      0.335000          0.170133E-03
      0.340000          0.164308E-03
      0.345000          0.158985E-03
      0.350000          0.154132E-03
      0.355000          0.149717E-03
      0.360000          0.145711E-03
      0.365000          0.142086E-03
      0.370000          0.138818E-03
      0.375000          0.135882E-03
      0.380000          0.133254E-03
      0.385000          0.130908E-03
      0.390000          0.128815E-03
      0.395000          0.126939E-03
      0.400000          0.125243E-03
      0.405000          0.123682E-03
      0.410000          0.122209E-03
      0.415000          0.120775E-03
      0.420000          0.119330E-03
      0.425000          0.117829E-03
      0.430000          0.116231E-03
      0.435000          0.114505E-03
      0.440000          0.112628E-03
      0.445000          0.110589E-03
      0.450000          0.108392E-03
      0.455000          0.106052E-03
      0.460000          0.103594E-03
      0.465000          0.101056E-03
      0.470000          0.984801E-04
      0.475000          0.959160E-04
      0.480000          0.934134E-04
      0.485000          0.910202E-04
      0.490000          0.887802E-04
      0.495000          0.867294E-04
      0.500000          0.848947E-04
