 I_abs(s)[cm^-1]/c[mg/ml]
       0.00000          0.143815E-01
      0.500000E-02      0.143269E-01
      0.100000E-01      0.141647E-01
      0.150000E-01      0.138985E-01
      0.200000E-01      0.135348E-01
      0.250000E-01      0.130820E-01
      0.300000E-01      0.125504E-01
      0.350000E-01      0.119518E-01
      0.400000E-01      0.112990E-01
      0.450000E-01      0.106056E-01
      0.500000E-01      0.988501E-02
      0.550000E-01      0.915064E-02
      0.600000E-01      0.841508E-02
      0.650000E-01      0.768990E-02
      0.700000E-01      0.698536E-02
      0.750000E-01      0.631022E-02
      0.800000E-01      0.567156E-02
      0.850000E-01      0.507477E-02
      0.900000E-01      0.452352E-02
      0.950000E-01      0.401992E-02
      0.100000          0.356455E-02
      0.105000          0.315673E-02
      0.110000          0.279469E-02
      0.115000          0.247579E-02
      0.120000          0.219675E-02
      0.125000          0.195390E-02
      0.130000          0.174334E-02
      0.135000          0.156115E-02
      0.140000          0.140353E-02
      0.145000          0.126691E-02
      0.150000          0.114807E-02
      0.155000          0.104412E-02
      0.160000          0.952605E-03
      0.165000          0.871454E-03
      0.170000          0.798973E-03
      0.175000          0.733813E-03
      0.180000          0.674920E-03
      0.185000          0.621486E-03
      0.190000          0.572900E-03
      0.195000          0.528696E-03
      0.200000          0.488513E-03
      0.205000          0.452054E-03
      0.210000          0.419063E-03
      0.215000          0.389298E-03
      0.220000          0.362521E-03
      0.225000          0.338489E-03
      0.230000          0.316952E-03
      0.235000          0.297659E-03
      0.240000          0.280357E-03
      0.245000          0.264805E-03
      0.250000          0.250775E-03
      0.255000          0.238059E-03
      0.260000          0.226478E-03
      0.265000          0.215881E-03
      0.270000          0.206147E-03
      0.275000          0.197185E-03
      0.280000          0.188934E-03
      0.285000          0.181351E-03
      0.290000          0.174414E-03
      0.295000          0.168112E-03
      0.300000          0.162439E-03
      0.305000          0.157392E-03
      0.310000          0.152961E-03
      0.315000          0.149128E-03
      0.320000          0.145866E-03
      0.325000          0.143134E-03
      0.330000          0.140879E-03
      0.335000          0.139039E-03
      0.340000          0.137543E-03
      0.345000          0.136315E-03
      0.350000          0.135275E-03
      0.355000          0.134350E-03
      0.360000          0.133470E-03
      0.365000          0.132574E-03
      0.370000          0.131614E-03
      0.375000          0.130554E-03
      0.380000          0.129374E-03
      0.385000          0.128065E-03
      0.390000          0.126633E-03
      0.395000          0.125094E-03
      0.400000          0.123472E-03
      0.405000          0.121797E-03
      0.410000          0.120101E-03
      0.415000          0.118414E-03
      0.420000          0.116765E-03
      0.425000          0.115174E-03
      0.430000          0.113655E-03
      0.435000          0.112214E-03
      0.440000          0.110846E-03
      0.445000          0.109541E-03
      0.450000          0.108279E-03
      0.455000          0.107035E-03
      0.460000          0.105784E-03
      0.465000          0.104496E-03
      0.470000          0.103145E-03
      0.475000          0.101709E-03
      0.480000          0.100172E-03
      0.485000          0.985243E-04
      0.490000          0.967665E-04
      0.495000          0.949077E-04
      0.500000          0.929663E-04
