 I_abs(s)[cm^-1]/c[mg/ml]
       0.00000          0.141928E-01
      0.500000E-02      0.141443E-01
      0.100000E-01      0.140000E-01
      0.150000E-01      0.137630E-01
      0.200000E-01      0.134385E-01
      0.250000E-01      0.130337E-01
      0.300000E-01      0.125571E-01
      0.350000E-01      0.120186E-01
      0.400000E-01      0.114291E-01
      0.450000E-01      0.107998E-01
      0.500000E-01      0.101423E-01
      0.550000E-01      0.946797E-02
      0.600000E-01      0.878779E-02
      0.650000E-01      0.811185E-02
      0.700000E-01      0.744926E-02
      0.750000E-01      0.680791E-02
      0.800000E-01      0.619440E-02
      0.850000E-01      0.561392E-02
      0.900000E-01      0.507028E-02
      0.950000E-01      0.456593E-02
      0.100000          0.410209E-02
      0.105000          0.367888E-02
      0.110000          0.329544E-02
      0.115000          0.295016E-02
      0.120000          0.264080E-02
      0.125000          0.236474E-02
      0.130000          0.211910E-02
      0.135000          0.190087E-02
      0.140000          0.170712E-02
      0.145000          0.153500E-02
      0.150000          0.138188E-02
      0.155000          0.124541E-02
      0.160000          0.112347E-02
      0.165000          0.101427E-02
      0.170000          0.916254E-03
      0.175000          0.828150E-03
      0.180000          0.748884E-03
      0.185000          0.677573E-03
      0.190000          0.613476E-03
      0.195000          0.555966E-03
      0.200000          0.504497E-03
      0.205000          0.458578E-03
      0.210000          0.417757E-03
      0.215000          0.381607E-03
      0.220000          0.349717E-03
      0.225000          0.321691E-03
      0.230000          0.297147E-03
      0.235000          0.275719E-03
      0.240000          0.257062E-03
      0.245000          0.240856E-03
      0.250000          0.226804E-03
      0.255000          0.214639E-03
      0.260000          0.204123E-03
      0.265000          0.195043E-03
      0.270000          0.187213E-03
      0.275000          0.180466E-03
      0.280000          0.174655E-03
      0.285000          0.169645E-03
      0.290000          0.165315E-03
      0.295000          0.161551E-03
      0.300000          0.158244E-03
      0.305000          0.155296E-03
      0.310000          0.152612E-03
      0.315000          0.150105E-03
      0.320000          0.147698E-03
      0.325000          0.145323E-03
      0.330000          0.142925E-03
      0.335000          0.140463E-03
      0.340000          0.137910E-03
      0.345000          0.135251E-03
      0.350000          0.132490E-03
      0.355000          0.129638E-03
      0.360000          0.126719E-03
      0.365000          0.123766E-03
      0.370000          0.120813E-03
      0.375000          0.117901E-03
      0.380000          0.115066E-03
      0.385000          0.112341E-03
      0.390000          0.109755E-03
      0.395000          0.107328E-03
      0.400000          0.105073E-03
      0.405000          0.102992E-03
      0.410000          0.101082E-03
      0.415000          0.993295E-04
      0.420000          0.977169E-04
      0.425000          0.962217E-04
      0.430000          0.948190E-04
      0.435000          0.934831E-04
      0.440000          0.921895E-04
      0.445000          0.909162E-04
      0.450000          0.896452E-04
      0.455000          0.883628E-04
      0.460000          0.870608E-04
      0.465000          0.857359E-04
      0.470000          0.843900E-04
      0.475000          0.830294E-04
      0.480000          0.816639E-04
      0.485000          0.803064E-04
      0.490000          0.789712E-04
      0.495000          0.776736E-04
      0.500000          0.764284E-04
