 I_abs(s)[cm^-1]/c[mg/ml]
       0.00000          0.140521E-01
      0.500000E-02      0.139831E-01
      0.100000E-01      0.137782E-01
      0.150000E-01      0.134443E-01
      0.200000E-01      0.129925E-01
      0.250000E-01      0.124372E-01
      0.300000E-01      0.117960E-01
      0.350000E-01      0.110880E-01
      0.400000E-01      0.103337E-01
      0.450000E-01      0.955328E-02
      0.500000E-01      0.876625E-02
      0.550000E-01      0.799032E-02
      0.600000E-01      0.724090E-02
      0.650000E-01      0.653057E-02
      0.700000E-01      0.586880E-02
      0.750000E-01      0.526192E-02
      0.800000E-01      0.471316E-02
      0.850000E-01      0.422299E-02
      0.900000E-01      0.378950E-02
      0.950000E-01      0.340888E-02
      0.100000          0.307599E-02
      0.105000          0.278489E-02
      0.110000          0.252938E-02
      0.115000          0.230342E-02
      0.120000          0.210151E-02
      0.125000          0.191896E-02
      0.130000          0.175200E-02
      0.135000          0.159787E-02
      0.140000          0.145476E-02
      0.145000          0.132167E-02
      0.150000          0.119828E-02
      0.155000          0.108472E-02
      0.160000          0.981360E-03
      0.165000          0.888638E-03
      0.170000          0.806883E-03
      0.175000          0.736189E-03
      0.180000          0.676340E-03
      0.185000          0.626776E-03
      0.190000          0.586606E-03
      0.195000          0.554657E-03
      0.200000          0.529552E-03
      0.205000          0.509798E-03
      0.210000          0.493888E-03
      0.215000          0.480393E-03
      0.220000          0.468044E-03
      0.225000          0.455792E-03
      0.230000          0.442848E-03
      0.235000          0.428699E-03
      0.240000          0.413104E-03
      0.245000          0.396061E-03
      0.250000          0.377773E-03
      0.255000          0.358593E-03
      0.260000          0.338972E-03
      0.265000          0.319398E-03
      0.270000          0.300354E-03
      0.275000          0.282268E-03
      0.280000          0.265489E-03
      0.285000          0.250263E-03
      0.290000          0.236724E-03
      0.295000          0.224901E-03
      0.300000          0.214723E-03
      0.305000          0.206043E-03
      0.310000          0.198652E-03
      0.315000          0.192311E-03
      0.320000          0.186766E-03
      0.325000          0.181774E-03
      0.330000          0.177116E-03
      0.335000          0.172615E-03
      0.340000          0.168133E-03
      0.345000          0.163586E-03
      0.350000          0.158932E-03
      0.355000          0.154170E-03
      0.360000          0.149332E-03
      0.365000          0.144474E-03
      0.370000          0.139662E-03
      0.375000          0.134969E-03
      0.380000          0.130462E-03
      0.385000          0.126199E-03
      0.390000          0.122221E-03
      0.395000          0.118556E-03
      0.400000          0.115213E-03
      0.405000          0.112187E-03
      0.410000          0.109464E-03
      0.415000          0.107020E-03
      0.420000          0.104829E-03
      0.425000          0.102867E-03
      0.430000          0.101111E-03
      0.435000          0.995458E-04
      0.440000          0.981616E-04
      0.445000          0.969555E-04
      0.450000          0.959297E-04
      0.455000          0.950890E-04
      0.460000          0.944383E-04
      0.465000          0.939800E-04
      0.470000          0.937110E-04
      0.475000          0.936210E-04
      0.480000          0.936905E-04
      0.485000          0.938911E-04
      0.490000          0.941855E-04
      0.495000          0.945292E-04
      0.500000          0.948731E-04
