 I_abs(s)[cm^-1]/c[mg/ml]
       0.00000          0.138889E-01
      0.500000E-02      0.138099E-01
      0.100000E-01      0.135760E-01
      0.150000E-01      0.131963E-01
      0.200000E-01      0.126855E-01
      0.250000E-01      0.120626E-01
      0.300000E-01      0.113500E-01
      0.350000E-01      0.105720E-01
      0.400000E-01      0.975348E-02
      0.450000E-01      0.891860E-02
      0.500000E-01      0.808940E-02
      0.550000E-01      0.728502E-02
      0.600000E-01      0.652101E-02
      0.650000E-01      0.580893E-02
      0.700000E-01      0.515637E-02
      0.750000E-01      0.456711E-02
      0.800000E-01      0.404162E-02
      0.850000E-01      0.357767E-02
      0.900000E-01      0.317099E-02
      0.950000E-01      0.281601E-02
      0.100000          0.250650E-02
      0.105000          0.223613E-02
      0.110000          0.199896E-02
      0.115000          0.178967E-02
      0.120000          0.160378E-02
      0.125000          0.143770E-02
      0.130000          0.128862E-02
      0.135000          0.115450E-02
      0.140000          0.103382E-02
      0.145000          0.925494E-03
      0.150000          0.828681E-03
      0.155000          0.742691E-03
      0.160000          0.666888E-03
      0.165000          0.600640E-03
      0.170000          0.543289E-03
      0.175000          0.494156E-03
      0.180000          0.452543E-03
      0.185000          0.417752E-03
      0.190000          0.389100E-03
      0.195000          0.365925E-03
      0.200000          0.347592E-03
      0.205000          0.333492E-03
      0.210000          0.323038E-03
      0.215000          0.315660E-03
      0.220000          0.310806E-03
      0.225000          0.307943E-03
      0.230000          0.306562E-03
      0.235000          0.306192E-03
      0.240000          0.306408E-03
      0.245000          0.306846E-03
      0.250000          0.307208E-03
      0.255000          0.307267E-03
      0.260000          0.306867E-03
      0.265000          0.305917E-03
      0.270000          0.304372E-03
      0.275000          0.302229E-03
      0.280000          0.299504E-03
      0.285000          0.296219E-03
      0.290000          0.292396E-03
      0.295000          0.288047E-03
      0.300000          0.283172E-03
      0.305000          0.277764E-03
      0.310000          0.271815E-03
      0.315000          0.265324E-03
      0.320000          0.258302E-03
      0.325000          0.250782E-03
      0.330000          0.242818E-03
      0.335000          0.234488E-03
      0.340000          0.225890E-03
      0.345000          0.217133E-03
      0.350000          0.208331E-03
      0.355000          0.199595E-03
      0.360000          0.191022E-03
      0.365000          0.182694E-03
      0.370000          0.174671E-03
      0.375000          0.166993E-03
      0.380000          0.159681E-03
      0.385000          0.152743E-03
      0.390000          0.146179E-03
      0.395000          0.139985E-03
      0.400000          0.134162E-03
      0.405000          0.128714E-03
      0.410000          0.123652E-03
      0.415000          0.118994E-03
      0.420000          0.114763E-03
      0.425000          0.110981E-03
      0.430000          0.107666E-03
      0.435000          0.104828E-03
      0.440000          0.102468E-03
      0.445000          0.100572E-03
      0.450000          0.991117E-04
      0.455000          0.980473E-04
      0.460000          0.973262E-04
      0.465000          0.968874E-04
      0.470000          0.966641E-04
      0.475000          0.965866E-04
      0.480000          0.965860E-04
      0.485000          0.965959E-04
      0.490000          0.965549E-04
      0.495000          0.964080E-04
      0.500000          0.961076E-04
