 I_abs(s)[cm^-1]/c[mg/ml]
       0.00000          0.144209E-01
      0.500000E-02      0.143648E-01
      0.100000E-01      0.141975E-01
      0.150000E-01      0.139230E-01
      0.200000E-01      0.135474E-01
      0.250000E-01      0.130791E-01
      0.300000E-01      0.125284E-01
      0.350000E-01      0.119070E-01
      0.400000E-01      0.112277E-01
      0.450000E-01      0.105044E-01
      0.500000E-01      0.975085E-02
      0.550000E-01      0.898088E-02
      0.600000E-01      0.820775E-02
      0.650000E-01      0.744384E-02
      0.700000E-01      0.670034E-02
      0.750000E-01      0.598701E-02
      0.800000E-01      0.531199E-02
      0.850000E-01      0.468174E-02
      0.900000E-01      0.410094E-02
      0.950000E-01      0.357259E-02
      0.100000          0.309805E-02
      0.105000          0.267723E-02
      0.110000          0.230871E-02
      0.115000          0.198999E-02
      0.120000          0.171773E-02
      0.125000          0.148793E-02
      0.130000          0.129619E-02
      0.135000          0.113791E-02
      0.140000          0.100849E-02
      0.145000          0.903437E-03
      0.150000          0.818575E-03
      0.155000          0.750075E-03
      0.160000          0.694542E-03
      0.165000          0.649049E-03
      0.170000          0.611138E-03
      0.175000          0.578810E-03
      0.180000          0.550488E-03
      0.185000          0.524969E-03
      0.190000          0.501380E-03
      0.195000          0.479109E-03
      0.200000          0.457762E-03
      0.205000          0.437100E-03
      0.210000          0.417003E-03
      0.215000          0.397424E-03
      0.220000          0.378365E-03
      0.225000          0.359850E-03
      0.230000          0.341913E-03
      0.235000          0.324589E-03
      0.240000          0.307907E-03
      0.245000          0.291893E-03
      0.250000          0.276572E-03
      0.255000          0.261965E-03
      0.260000          0.248097E-03
      0.265000          0.234999E-03
      0.270000          0.222701E-03
      0.275000          0.211240E-03
      0.280000          0.200653E-03
      0.285000          0.190973E-03
      0.290000          0.182229E-03
      0.295000          0.174437E-03
      0.300000          0.167603E-03
      0.305000          0.161715E-03
      0.310000          0.156745E-03
      0.315000          0.152643E-03
      0.320000          0.149347E-03
      0.325000          0.146776E-03
      0.330000          0.144839E-03
      0.335000          0.143437E-03
      0.340000          0.142467E-03
      0.345000          0.141826E-03
      0.350000          0.141417E-03
      0.355000          0.141151E-03
      0.360000          0.140950E-03
      0.365000          0.140749E-03
      0.370000          0.140498E-03
      0.375000          0.140159E-03
      0.380000          0.139710E-03
      0.385000          0.139138E-03
      0.390000          0.138441E-03
      0.395000          0.137625E-03
      0.400000          0.136699E-03
      0.405000          0.135675E-03
      0.410000          0.134568E-03
      0.415000          0.133390E-03
      0.420000          0.132151E-03
      0.425000          0.130860E-03
      0.430000          0.129521E-03
      0.435000          0.128140E-03
      0.440000          0.126716E-03
      0.445000          0.125252E-03
      0.450000          0.123750E-03
      0.455000          0.122211E-03
      0.460000          0.120640E-03
      0.465000          0.119045E-03
      0.470000          0.117434E-03
      0.475000          0.115822E-03
      0.480000          0.114221E-03
      0.485000          0.112650E-03
      0.490000          0.111125E-03
      0.495000          0.109664E-03
      0.500000          0.108283E-03
