 I_abs(s)[cm^-1]/c[mg/ml]
       0.00000          0.144130E-01
      0.500000E-02      0.143505E-01
      0.100000E-01      0.141646E-01
      0.150000E-01      0.138606E-01
      0.200000E-01      0.134471E-01
      0.250000E-01      0.129352E-01
      0.300000E-01      0.123389E-01
      0.350000E-01      0.116733E-01
      0.400000E-01      0.109551E-01
      0.450000E-01      0.102012E-01
      0.500000E-01      0.942812E-02
      0.550000E-01      0.865175E-02
      0.600000E-01      0.788645E-02
      0.650000E-01      0.714478E-02
      0.700000E-01      0.643722E-02
      0.750000E-01      0.577192E-02
      0.800000E-01      0.515471E-02
      0.850000E-01      0.458913E-02
      0.900000E-01      0.407664E-02
      0.950000E-01      0.361685E-02
      0.100000          0.320783E-02
      0.105000          0.284648E-02
      0.110000          0.252886E-02
      0.115000          0.225055E-02
      0.120000          0.200693E-02
      0.125000          0.179350E-02
      0.130000          0.160602E-02
      0.135000          0.144071E-02
      0.140000          0.129428E-02
      0.145000          0.116403E-02
      0.150000          0.104776E-02
      0.155000          0.943780E-03
      0.160000          0.850790E-03
      0.165000          0.767811E-03
      0.170000          0.694082E-03
      0.175000          0.628974E-03
      0.180000          0.571920E-03
      0.185000          0.522354E-03
      0.190000          0.479675E-03
      0.195000          0.443234E-03
      0.200000          0.412330E-03
      0.205000          0.386225E-03
      0.210000          0.364171E-03
      0.215000          0.345435E-03
      0.220000          0.329330E-03
      0.225000          0.315245E-03
      0.230000          0.302657E-03
      0.235000          0.291151E-03
      0.240000          0.280421E-03
      0.245000          0.270265E-03
      0.250000          0.260574E-03
      0.255000          0.251316E-03
      0.260000          0.242514E-03
      0.265000          0.234226E-03
      0.270000          0.226524E-03
      0.275000          0.219476E-03
      0.280000          0.213133E-03
      0.285000          0.207519E-03
      0.290000          0.202626E-03
      0.295000          0.198415E-03
      0.300000          0.194819E-03
      0.305000          0.191748E-03
      0.310000          0.189098E-03
      0.315000          0.186763E-03
      0.320000          0.184635E-03
      0.325000          0.182618E-03
      0.330000          0.180632E-03
      0.335000          0.178614E-03
      0.340000          0.176519E-03
      0.345000          0.174322E-03
      0.350000          0.172013E-03
      0.355000          0.169597E-03
      0.360000          0.167086E-03
      0.365000          0.164497E-03
      0.370000          0.161850E-03
      0.375000          0.159165E-03
      0.380000          0.156456E-03
      0.385000          0.153736E-03
      0.390000          0.151014E-03
      0.395000          0.148294E-03
      0.400000          0.145581E-03
      0.405000          0.142878E-03
      0.410000          0.140189E-03
      0.415000          0.137521E-03
      0.420000          0.134884E-03
      0.425000          0.132291E-03
      0.430000          0.129759E-03
      0.435000          0.127306E-03
      0.440000          0.124952E-03
      0.445000          0.122716E-03
      0.450000          0.120615E-03
      0.455000          0.118664E-03
      0.460000          0.116871E-03
      0.465000          0.115237E-03
      0.470000          0.113760E-03
      0.475000          0.112427E-03
      0.480000          0.111221E-03
      0.485000          0.110119E-03
      0.490000          0.109094E-03
      0.495000          0.108116E-03
      0.500000          0.107153E-03
