 I_abs(s)[cm^-1]/c[mg/ml]
       0.00000          0.144604E-01
      0.500000E-02      0.143828E-01
      0.100000E-01      0.141527E-01
      0.150000E-01      0.137790E-01
      0.200000E-01      0.132755E-01
      0.250000E-01      0.126604E-01
      0.300000E-01      0.119550E-01
      0.350000E-01      0.111827E-01
      0.400000E-01      0.103672E-01
      0.450000E-01      0.953192E-02
      0.500000E-01      0.869813E-02
      0.550000E-01      0.788456E-02
      0.600000E-01      0.710658E-02
      0.650000E-01      0.637588E-02
      0.700000E-01      0.570037E-02
      0.750000E-01      0.508444E-02
      0.800000E-01      0.452932E-02
      0.850000E-01      0.403361E-02
      0.900000E-01      0.359397E-02
      0.950000E-01      0.320574E-02
      0.100000          0.286354E-02
      0.105000          0.256180E-02
      0.110000          0.229519E-02
      0.115000          0.205890E-02
      0.120000          0.184879E-02
      0.125000          0.166145E-02
      0.130000          0.149416E-02
      0.135000          0.134482E-02
      0.140000          0.121177E-02
      0.145000          0.109367E-02
      0.150000          0.989388E-03
      0.155000          0.897864E-03
      0.160000          0.818051E-03
      0.165000          0.748870E-03
      0.170000          0.689204E-03
      0.175000          0.637905E-03
      0.180000          0.593831E-03
      0.185000          0.555874E-03
      0.190000          0.523001E-03
      0.195000          0.494282E-03
      0.200000          0.468916E-03
      0.205000          0.446234E-03
      0.210000          0.425707E-03
      0.215000          0.406935E-03
      0.220000          0.389632E-03
      0.225000          0.373610E-03
      0.230000          0.358754E-03
      0.235000          0.345003E-03
      0.240000          0.332326E-03
      0.245000          0.320706E-03
      0.250000          0.310123E-03
      0.255000          0.300538E-03
      0.260000          0.291889E-03
      0.265000          0.284082E-03
      0.270000          0.276991E-03
      0.275000          0.270463E-03
      0.280000          0.264323E-03
      0.285000          0.258388E-03
      0.290000          0.252476E-03
      0.295000          0.246423E-03
      0.300000          0.240092E-03
      0.305000          0.233388E-03
      0.310000          0.226262E-03
      0.315000          0.218716E-03
      0.320000          0.210801E-03
      0.325000          0.202610E-03
      0.330000          0.194271E-03
      0.335000          0.185931E-03
      0.340000          0.177745E-03
      0.345000          0.169863E-03
      0.350000          0.162416E-03
      0.355000          0.155505E-03
      0.360000          0.149201E-03
      0.365000          0.143539E-03
      0.370000          0.138517E-03
      0.375000          0.134106E-03
      0.380000          0.130252E-03
      0.385000          0.126884E-03
      0.390000          0.123924E-03
      0.395000          0.121293E-03
      0.400000          0.118914E-03
      0.405000          0.116721E-03
      0.410000          0.114658E-03
      0.415000          0.112683E-03
      0.420000          0.110765E-03
      0.425000          0.108883E-03
      0.430000          0.107027E-03
      0.435000          0.105193E-03
      0.440000          0.103381E-03
      0.445000          0.101598E-03
      0.450000          0.998488E-04
      0.455000          0.981429E-04
      0.460000          0.964887E-04
      0.465000          0.948947E-04
      0.470000          0.933689E-04
      0.475000          0.919180E-04
      0.480000          0.905472E-04
      0.485000          0.892599E-04
      0.490000          0.880571E-04
      0.495000          0.869373E-04
      0.500000          0.858966E-04
