 I_abs(s)[cm^-1]/c[mg/ml]
       0.00000          0.143106E-01
      0.500000E-02      0.142615E-01
      0.100000E-01      0.141152E-01
      0.150000E-01      0.138749E-01
      0.200000E-01      0.135459E-01
      0.250000E-01      0.131350E-01
      0.300000E-01      0.126508E-01
      0.350000E-01      0.121033E-01
      0.400000E-01      0.115031E-01
      0.450000E-01      0.108616E-01
      0.500000E-01      0.101906E-01
      0.550000E-01      0.950161E-02
      0.600000E-01      0.880566E-02
      0.650000E-01      0.811319E-02
      0.700000E-01      0.743365E-02
      0.750000E-01      0.677530E-02
      0.800000E-01      0.614512E-02
      0.850000E-01      0.554870E-02
      0.900000E-01      0.499025E-02
      0.950000E-01      0.447258E-02
      0.100000          0.399722E-02
      0.105000          0.356452E-02
      0.110000          0.317382E-02
      0.115000          0.282357E-02
      0.120000          0.251157E-02
      0.125000          0.223512E-02
      0.130000          0.199119E-02
      0.135000          0.177659E-02
      0.140000          0.158812E-02
      0.145000          0.142266E-02
      0.150000          0.127731E-02
      0.155000          0.114940E-02
      0.160000          0.103657E-02
      0.165000          0.936770E-03
      0.170000          0.848254E-03
      0.175000          0.769573E-03
      0.180000          0.699537E-03
      0.185000          0.637175E-03
      0.190000          0.581697E-03
      0.195000          0.532449E-03
      0.200000          0.488874E-03
      0.205000          0.450477E-03
      0.210000          0.416801E-03
      0.215000          0.387403E-03
      0.220000          0.361843E-03
      0.225000          0.339678E-03
      0.230000          0.320465E-03
      0.235000          0.303760E-03
      0.240000          0.289135E-03
      0.245000          0.276179E-03
      0.250000          0.264517E-03
      0.255000          0.253812E-03
      0.260000          0.243781E-03
      0.265000          0.234192E-03
      0.270000          0.224874E-03
      0.275000          0.215711E-03
      0.280000          0.206642E-03
      0.285000          0.197653E-03
      0.290000          0.188770E-03
      0.295000          0.180050E-03
      0.300000          0.171571E-03
      0.305000          0.163421E-03
      0.310000          0.155690E-03
      0.315000          0.148462E-03
      0.320000          0.141806E-03
      0.325000          0.135774E-03
      0.330000          0.130395E-03
      0.335000          0.125675E-03
      0.340000          0.121598E-03
      0.345000          0.118125E-03
      0.350000          0.115200E-03
      0.355000          0.112752E-03
      0.360000          0.110700E-03
      0.365000          0.108958E-03
      0.370000          0.107439E-03
      0.375000          0.106057E-03
      0.380000          0.104737E-03
      0.385000          0.103411E-03
      0.390000          0.102024E-03
      0.395000          0.100536E-03
      0.400000          0.989211E-04
      0.405000          0.971661E-04
      0.410000          0.952730E-04
      0.415000          0.932554E-04
      0.420000          0.911375E-04
      0.425000          0.889517E-04
      0.430000          0.867364E-04
      0.435000          0.845336E-04
      0.440000          0.823865E-04
      0.445000          0.803377E-04
      0.450000          0.784268E-04
      0.455000          0.766888E-04
      0.460000          0.751530E-04
      0.465000          0.738417E-04
      0.470000          0.727700E-04
      0.475000          0.719450E-04
      0.480000          0.713662E-04
      0.485000          0.710260E-04
      0.490000          0.709102E-04
      0.495000          0.709988E-04
      0.500000          0.712673E-04
