 I_abs(s)[cm^-1]/c[mg/ml]
       0.00000          0.144763E-01
      0.500000E-02      0.144301E-01
      0.100000E-01      0.142925E-01
      0.150000E-01      0.140662E-01
      0.200000E-01      0.137556E-01
      0.250000E-01      0.133667E-01
      0.300000E-01      0.129067E-01
      0.350000E-01      0.123843E-01
      0.400000E-01      0.118088E-01
      0.450000E-01      0.111902E-01
      0.500000E-01      0.105390E-01
      0.550000E-01      0.986564E-02
      0.600000E-01      0.918034E-02
      0.650000E-01      0.849288E-02
      0.700000E-01      0.781237E-02
      0.750000E-01      0.714702E-02
      0.800000E-01      0.650404E-02
      0.850000E-01      0.588950E-02
      0.900000E-01      0.530829E-02
      0.950000E-01      0.476409E-02
      0.100000          0.425940E-02
      0.105000          0.379561E-02
      0.110000          0.337307E-02
      0.115000          0.299124E-02
      0.120000          0.264878E-02
      0.125000          0.234373E-02
      0.130000          0.207364E-02
      0.135000          0.183575E-02
      0.140000          0.162708E-02
      0.145000          0.144458E-02
      0.150000          0.128524E-02
      0.155000          0.114619E-02
      0.160000          0.102476E-02
      0.165000          0.918501E-03
      0.170000          0.825268E-03
      0.175000          0.743196E-03
      0.180000          0.670706E-03
      0.185000          0.606488E-03
      0.190000          0.549476E-03
      0.195000          0.498814E-03
      0.200000          0.453821E-03
      0.205000          0.413950E-03
      0.210000          0.378758E-03
      0.215000          0.347871E-03
      0.220000          0.320955E-03
      0.225000          0.297699E-03
      0.230000          0.277794E-03
      0.235000          0.260926E-03
      0.240000          0.246772E-03
      0.245000          0.235000E-03
      0.250000          0.225268E-03
      0.255000          0.217238E-03
      0.260000          0.210579E-03
      0.265000          0.204977E-03
      0.270000          0.200142E-03
      0.275000          0.195817E-03
      0.280000          0.191780E-03
      0.285000          0.187852E-03
      0.290000          0.183894E-03
      0.295000          0.179808E-03
      0.300000          0.175536E-03
      0.305000          0.171053E-03
      0.310000          0.166364E-03
      0.315000          0.161498E-03
      0.320000          0.156500E-03
      0.325000          0.151425E-03
      0.330000          0.146336E-03
      0.335000          0.141295E-03
      0.340000          0.136360E-03
      0.345000          0.131581E-03
      0.350000          0.127002E-03
      0.355000          0.122654E-03
      0.360000          0.118560E-03
      0.365000          0.114731E-03
      0.370000          0.111171E-03
      0.375000          0.107876E-03
      0.380000          0.104835E-03
      0.385000          0.102036E-03
      0.390000          0.994614E-04
      0.395000          0.970940E-04
      0.400000          0.949165E-04
      0.405000          0.929126E-04
      0.410000          0.910673E-04
      0.415000          0.893678E-04
      0.420000          0.878029E-04
      0.425000          0.863632E-04
      0.430000          0.850406E-04
      0.435000          0.838284E-04
      0.440000          0.827202E-04
      0.445000          0.817101E-04
      0.450000          0.807923E-04
      0.455000          0.799608E-04
      0.460000          0.792091E-04
      0.465000          0.785305E-04
      0.470000          0.779181E-04
      0.475000          0.773648E-04
      0.480000          0.768635E-04
      0.485000          0.764077E-04
      0.490000          0.759911E-04
      0.495000          0.756087E-04
      0.500000          0.752560E-04
