 I_abs(s)[cm^-1]/c[mg/ml]
       0.00000          0.141772E-01
      0.500000E-02      0.141194E-01
      0.100000E-01      0.139479E-01
      0.150000E-01      0.136674E-01
      0.200000E-01      0.132856E-01
      0.250000E-01      0.128127E-01
      0.300000E-01      0.122611E-01
      0.350000E-01      0.116449E-01
      0.400000E-01      0.109790E-01
      0.450000E-01      0.102786E-01
      0.500000E-01      0.955893E-02
      0.550000E-01      0.883418E-02
      0.600000E-01      0.811741E-02
      0.650000E-01      0.742001E-02
      0.700000E-01      0.675149E-02
      0.750000E-01      0.611930E-02
      0.800000E-01      0.552880E-02
      0.850000E-01      0.498336E-02
      0.900000E-01      0.448446E-02
      0.950000E-01      0.403197E-02
      0.100000          0.362441E-02
      0.105000          0.325926E-02
      0.110000          0.293329E-02
      0.115000          0.264283E-02
      0.120000          0.238404E-02
      0.125000          0.215318E-02
      0.130000          0.194670E-02
      0.135000          0.176145E-02
      0.140000          0.159469E-02
      0.145000          0.144411E-02
      0.150000          0.130785E-02
      0.155000          0.118444E-02
      0.160000          0.107271E-02
      0.165000          0.971736E-03
      0.170000          0.880767E-03
      0.175000          0.799144E-03
      0.180000          0.726251E-03
      0.185000          0.661472E-03
      0.190000          0.604169E-03
      0.195000          0.553671E-03
      0.200000          0.509278E-03
      0.205000          0.470276E-03
      0.210000          0.435958E-03
      0.215000          0.405646E-03
      0.220000          0.378712E-03
      0.225000          0.354601E-03
      0.230000          0.332835E-03
      0.235000          0.313028E-03
      0.240000          0.294878E-03
      0.245000          0.278165E-03
      0.250000          0.262737E-03
      0.255000          0.248500E-03
      0.260000          0.235394E-03
      0.265000          0.223386E-03
      0.270000          0.212453E-03
      0.275000          0.202570E-03
      0.280000          0.193703E-03
      0.285000          0.185805E-03
      0.290000          0.178817E-03
      0.295000          0.172666E-03
      0.300000          0.167269E-03
      0.305000          0.162541E-03
      0.310000          0.158396E-03
      0.315000          0.154754E-03
      0.320000          0.151542E-03
      0.325000          0.148698E-03
      0.330000          0.146171E-03
      0.335000          0.143918E-03
      0.340000          0.141908E-03
      0.345000          0.140113E-03
      0.350000          0.138506E-03
      0.355000          0.137065E-03
      0.360000          0.135760E-03
      0.365000          0.134563E-03
      0.370000          0.133439E-03
      0.375000          0.132349E-03
      0.380000          0.131255E-03
      0.385000          0.130116E-03
      0.390000          0.128897E-03
      0.395000          0.127567E-03
      0.400000          0.126103E-03
      0.405000          0.124494E-03
      0.410000          0.122739E-03
      0.415000          0.120852E-03
      0.420000          0.118858E-03
      0.425000          0.116793E-03
      0.430000          0.114702E-03
      0.435000          0.112638E-03
      0.440000          0.110654E-03
      0.445000          0.108805E-03
      0.450000          0.107139E-03
      0.455000          0.105700E-03
      0.460000          0.104517E-03
      0.465000          0.103610E-03
      0.470000          0.102981E-03
      0.475000          0.102621E-03
      0.480000          0.102502E-03
      0.485000          0.102586E-03
      0.490000          0.102820E-03
      0.495000          0.103144E-03
      0.500000          0.103490E-03
