 I_abs(s)[cm^-1]/c[mg/ml]
       0.00000          0.142320E-01
      0.500000E-02      0.141735E-01
      0.100000E-01      0.139995E-01
      0.150000E-01      0.137148E-01
      0.200000E-01      0.133270E-01
      0.250000E-01      0.128464E-01
      0.300000E-01      0.122853E-01
      0.350000E-01      0.116577E-01
      0.400000E-01      0.109787E-01
      0.450000E-01      0.102636E-01
      0.500000E-01      0.952789E-02
      0.550000E-01      0.878616E-02
      0.600000E-01      0.805190E-02
      0.650000E-01      0.733704E-02
      0.700000E-01      0.665166E-02
      0.750000E-01      0.600381E-02
      0.800000E-01      0.539946E-02
      0.850000E-01      0.484250E-02
      0.900000E-01      0.433486E-02
      0.950000E-01      0.387677E-02
      0.100000          0.346692E-02
      0.105000          0.310285E-02
      0.110000          0.278119E-02
      0.115000          0.249799E-02
      0.120000          0.224901E-02
      0.125000          0.202998E-02
      0.130000          0.183676E-02
      0.135000          0.166557E-02
      0.140000          0.151303E-02
      0.145000          0.137630E-02
      0.150000          0.125301E-02
      0.155000          0.114130E-02
      0.160000          0.103976E-02
      0.165000          0.947359E-03
      0.170000          0.863356E-03
      0.175000          0.787235E-03
      0.180000          0.718621E-03
      0.185000          0.657214E-03
      0.190000          0.602727E-03
      0.195000          0.554850E-03
      0.200000          0.513220E-03
      0.205000          0.477408E-03
      0.210000          0.446919E-03
      0.215000          0.421198E-03
      0.220000          0.399647E-03
      0.225000          0.381642E-03
      0.230000          0.366560E-03
      0.235000          0.353793E-03
      0.240000          0.342772E-03
      0.245000          0.332980E-03
      0.250000          0.323964E-03
      0.255000          0.315343E-03
      0.260000          0.306811E-03
      0.265000          0.298139E-03
      0.270000          0.289167E-03
      0.275000          0.279803E-03
      0.280000          0.270012E-03
      0.285000          0.259811E-03
      0.290000          0.249257E-03
      0.295000          0.238437E-03
      0.300000          0.227463E-03
      0.305000          0.216459E-03
      0.310000          0.205558E-03
      0.315000          0.194890E-03
      0.320000          0.184582E-03
      0.325000          0.174748E-03
      0.330000          0.165488E-03
      0.335000          0.156885E-03
      0.340000          0.149002E-03
      0.345000          0.141881E-03
      0.350000          0.135542E-03
      0.355000          0.129988E-03
      0.360000          0.125198E-03
      0.365000          0.121137E-03
      0.370000          0.117751E-03
      0.375000          0.114975E-03
      0.380000          0.112735E-03
      0.385000          0.110947E-03
      0.390000          0.109525E-03
      0.395000          0.108381E-03
      0.400000          0.107430E-03
      0.405000          0.106590E-03
      0.410000          0.105788E-03
      0.415000          0.104960E-03
      0.420000          0.104052E-03
      0.425000          0.103022E-03
      0.430000          0.101840E-03
      0.435000          0.100492E-03
      0.440000          0.989734E-04
      0.445000          0.972929E-04
      0.450000          0.954699E-04
      0.455000          0.935327E-04
      0.460000          0.915170E-04
      0.465000          0.894635E-04
      0.470000          0.874156E-04
      0.475000          0.854172E-04
      0.480000          0.835103E-04
      0.485000          0.817330E-04
      0.490000          0.801173E-04
      0.495000          0.786879E-04
      0.500000          0.774607E-04
