 I_abs(s)[cm^-1]/c[mg/ml]
       0.00000          0.146031E-01
      0.500000E-02      0.145443E-01
      0.100000E-01      0.143692E-01
      0.150000E-01      0.140821E-01
      0.200000E-01      0.136899E-01
      0.250000E-01      0.132018E-01
      0.300000E-01      0.126293E-01
      0.350000E-01      0.119852E-01
      0.400000E-01      0.112836E-01
      0.450000E-01      0.105394E-01
      0.500000E-01      0.976736E-02
      0.550000E-01      0.898219E-02
      0.600000E-01      0.819770E-02
      0.650000E-01      0.742661E-02
      0.700000E-01      0.668016E-02
      0.750000E-01      0.596790E-02
      0.800000E-01      0.529755E-02
      0.850000E-01      0.467488E-02
      0.900000E-01      0.410382E-02
      0.950000E-01      0.358646E-02
      0.100000          0.312323E-02
      0.105000          0.271315E-02
      0.110000          0.235398E-02
      0.115000          0.204255E-02
      0.120000          0.177498E-02
      0.125000          0.154697E-02
      0.130000          0.135399E-02
      0.135000          0.119151E-02
      0.140000          0.105519E-02
      0.145000          0.940974E-03
      0.150000          0.845211E-03
      0.155000          0.764706E-03
      0.160000          0.696736E-03
      0.165000          0.639047E-03
      0.170000          0.589821E-03
      0.175000          0.547627E-03
      0.180000          0.511359E-03
      0.185000          0.480178E-03
      0.190000          0.453443E-03
      0.195000          0.430654E-03
      0.200000          0.411401E-03
      0.205000          0.395324E-03
      0.210000          0.382083E-03
      0.215000          0.371337E-03
      0.220000          0.362735E-03
      0.225000          0.355914E-03
      0.230000          0.350507E-03
      0.235000          0.346144E-03
      0.240000          0.342471E-03
      0.245000          0.339158E-03
      0.250000          0.335906E-03
      0.255000          0.332462E-03
      0.260000          0.328620E-03
      0.265000          0.324224E-03
      0.270000          0.319168E-03
      0.275000          0.313392E-03
      0.280000          0.306882E-03
      0.285000          0.299655E-03
      0.290000          0.291760E-03
      0.295000          0.283267E-03
      0.300000          0.274261E-03
      0.305000          0.264838E-03
      0.310000          0.255097E-03
      0.315000          0.245139E-03
      0.320000          0.235064E-03
      0.325000          0.224968E-03
      0.330000          0.214944E-03
      0.335000          0.205080E-03
      0.340000          0.195460E-03
      0.345000          0.186162E-03
      0.350000          0.177258E-03
      0.355000          0.168815E-03
      0.360000          0.160891E-03
      0.365000          0.153538E-03
      0.370000          0.146795E-03
      0.375000          0.140690E-03
      0.380000          0.135240E-03
      0.385000          0.130448E-03
      0.390000          0.126301E-03
      0.395000          0.122776E-03
      0.400000          0.119833E-03
      0.405000          0.117423E-03
      0.410000          0.115484E-03
      0.415000          0.113949E-03
      0.420000          0.112745E-03
      0.425000          0.111798E-03
      0.430000          0.111031E-03
      0.435000          0.110376E-03
      0.440000          0.109767E-03
      0.445000          0.109148E-03
      0.450000          0.108472E-03
      0.455000          0.107703E-03
      0.460000          0.106816E-03
      0.465000          0.105798E-03
      0.470000          0.104643E-03
      0.475000          0.103356E-03
      0.480000          0.101951E-03
      0.485000          0.100445E-03
      0.490000          0.988590E-04
      0.495000          0.972178E-04
      0.500000          0.955455E-04
