 I_abs(s)[cm^-1]/c[mg/ml]
       0.00000          0.142477E-01
      0.500000E-02      0.141993E-01
      0.100000E-01      0.140551E-01
      0.150000E-01      0.138184E-01
      0.200000E-01      0.134948E-01
      0.250000E-01      0.130913E-01
      0.300000E-01      0.126170E-01
      0.350000E-01      0.120818E-01
      0.400000E-01      0.114968E-01
      0.450000E-01      0.108734E-01
      0.500000E-01      0.102233E-01
      0.550000E-01      0.955779E-02
      0.600000E-01      0.888759E-02
      0.650000E-01      0.822257E-02
      0.700000E-01      0.757147E-02
      0.750000E-01      0.694177E-02
      0.800000E-01      0.633957E-02
      0.850000E-01      0.576956E-02
      0.900000E-01      0.523506E-02
      0.950000E-01      0.473807E-02
      0.100000          0.427945E-02
      0.105000          0.385900E-02
      0.110000          0.347572E-02
      0.115000          0.312792E-02
      0.120000          0.281345E-02
      0.125000          0.252985E-02
      0.130000          0.227452E-02
      0.135000          0.204483E-02
      0.140000          0.183825E-02
      0.145000          0.165238E-02
      0.150000          0.148507E-02
      0.155000          0.133436E-02
      0.160000          0.119857E-02
      0.165000          0.107623E-02
      0.170000          0.966061E-03
      0.175000          0.866986E-03
      0.180000          0.778057E-03
      0.185000          0.698439E-03
      0.190000          0.627380E-03
      0.195000          0.564185E-03
      0.200000          0.508201E-03
      0.205000          0.458801E-03
      0.210000          0.415379E-03
      0.215000          0.377349E-03
      0.220000          0.344146E-03
      0.225000          0.315232E-03
      0.230000          0.290097E-03
      0.235000          0.268269E-03
      0.240000          0.249315E-03
      0.245000          0.232845E-03
      0.250000          0.218515E-03
      0.255000          0.206023E-03
      0.260000          0.195107E-03
      0.265000          0.185547E-03
      0.270000          0.177151E-03
      0.275000          0.169759E-03
      0.280000          0.163234E-03
      0.285000          0.157457E-03
      0.290000          0.152323E-03
      0.295000          0.147740E-03
      0.300000          0.143625E-03
      0.305000          0.139902E-03
      0.310000          0.136502E-03
      0.315000          0.133362E-03
      0.320000          0.130427E-03
      0.325000          0.127648E-03
      0.330000          0.124983E-03
      0.335000          0.122396E-03
      0.340000          0.119862E-03
      0.345000          0.117361E-03
      0.350000          0.114879E-03
      0.355000          0.112411E-03
      0.360000          0.109957E-03
      0.365000          0.107518E-03
      0.370000          0.105104E-03
      0.375000          0.102723E-03
      0.380000          0.100385E-03
      0.385000          0.981027E-04
      0.390000          0.958859E-04
      0.395000          0.937445E-04
      0.400000          0.916867E-04
      0.405000          0.897190E-04
      0.410000          0.878463E-04
      0.415000          0.860717E-04
      0.420000          0.843969E-04
      0.425000          0.828226E-04
      0.430000          0.813487E-04
      0.435000          0.799752E-04
      0.440000          0.787017E-04
      0.445000          0.775287E-04
      0.450000          0.764574E-04
      0.455000          0.754895E-04
      0.460000          0.746278E-04
      0.465000          0.738754E-04
      0.470000          0.732359E-04
      0.475000          0.727122E-04
      0.480000          0.723068E-04
      0.485000          0.720205E-04
      0.490000          0.718521E-04
      0.495000          0.717977E-04
      0.500000          0.718506E-04
