 I_abs(s)[cm^-1]/c[mg/ml]
       0.00000          0.142791E-01
      0.500000E-02      0.142337E-01
      0.100000E-01      0.140983E-01
      0.150000E-01      0.138756E-01
      0.200000E-01      0.135696E-01
      0.250000E-01      0.131862E-01
      0.300000E-01      0.127324E-01
      0.350000E-01      0.122163E-01
      0.400000E-01      0.116471E-01
      0.450000E-01      0.110346E-01
      0.500000E-01      0.103887E-01
      0.550000E-01      0.971983E-02
      0.600000E-01      0.903804E-02
      0.650000E-01      0.835304E-02
      0.700000E-01      0.767395E-02
      0.750000E-01      0.700911E-02
      0.800000E-01      0.636589E-02
      0.850000E-01      0.575061E-02
      0.900000E-01      0.516845E-02
      0.950000E-01      0.462343E-02
      0.100000          0.411840E-02
      0.105000          0.365508E-02
      0.110000          0.323412E-02
      0.115000          0.285525E-02
      0.120000          0.251731E-02
      0.125000          0.221848E-02
      0.130000          0.195634E-02
      0.135000          0.172806E-02
      0.140000          0.153054E-02
      0.145000          0.136052E-02
      0.150000          0.121470E-02
      0.155000          0.108988E-02
      0.160000          0.982993E-03
      0.165000          0.891223E-03
      0.170000          0.812024E-03
      0.175000          0.743157E-03
      0.180000          0.682708E-03
      0.185000          0.629082E-03
      0.190000          0.580987E-03
      0.195000          0.537416E-03
      0.200000          0.497604E-03
      0.205000          0.461003E-03
      0.210000          0.427231E-03
      0.215000          0.396045E-03
      0.220000          0.367294E-03
      0.225000          0.340890E-03
      0.230000          0.316782E-03
      0.235000          0.294926E-03
      0.240000          0.275273E-03
      0.245000          0.257755E-03
      0.250000          0.242278E-03
      0.255000          0.228717E-03
      0.260000          0.216923E-03
      0.265000          0.206719E-03
      0.270000          0.197917E-03
      0.275000          0.190313E-03
      0.280000          0.183705E-03
      0.285000          0.177897E-03
      0.290000          0.172703E-03
      0.295000          0.167957E-03
      0.300000          0.163514E-03
      0.305000          0.159256E-03
      0.310000          0.155088E-03
      0.315000          0.150943E-03
      0.320000          0.146778E-03
      0.325000          0.142570E-03
      0.330000          0.138318E-03
      0.335000          0.134032E-03
      0.340000          0.129735E-03
      0.345000          0.125459E-03
      0.350000          0.121236E-03
      0.355000          0.117103E-03
      0.360000          0.113092E-03
      0.365000          0.109234E-03
      0.370000          0.105553E-03
      0.375000          0.102069E-03
      0.380000          0.987939E-04
      0.385000          0.957352E-04
      0.390000          0.928943E-04
      0.395000          0.902682E-04
      0.400000          0.878504E-04
      0.405000          0.856314E-04
      0.410000          0.836003E-04
      0.415000          0.817456E-04
      0.420000          0.800559E-04
      0.425000          0.785210E-04
      0.430000          0.771319E-04
      0.435000          0.758818E-04
      0.440000          0.747656E-04
      0.445000          0.737804E-04
      0.450000          0.729250E-04
      0.455000          0.721999E-04
      0.460000          0.716065E-04
      0.465000          0.711472E-04
      0.470000          0.708241E-04
      0.475000          0.706393E-04
      0.480000          0.705938E-04
      0.485000          0.706872E-04
      0.490000          0.709173E-04
      0.495000          0.712799E-04
      0.500000          0.717683E-04
