 I_abs(s)[cm^-1]/c[mg/ml]
       0.00000          0.145159E-01
      0.500000E-02      0.144541E-01
      0.100000E-01      0.142707E-01
      0.150000E-01      0.139709E-01
      0.200000E-01      0.135636E-01
      0.250000E-01      0.130601E-01
      0.300000E-01      0.124745E-01
      0.350000E-01      0.118221E-01
      0.400000E-01      0.111193E-01
      0.450000E-01      0.103827E-01
      0.500000E-01      0.962849E-02
      0.550000E-01      0.887161E-02
      0.600000E-01      0.812555E-02
      0.650000E-01      0.740182E-02
      0.700000E-01      0.670975E-02
      0.750000E-01      0.605641E-02
      0.800000E-01      0.544665E-02
      0.850000E-01      0.488324E-02
      0.900000E-01      0.436712E-02
      0.950000E-01      0.389772E-02
      0.100000          0.347328E-02
      0.105000          0.309120E-02
      0.110000          0.274835E-02
      0.115000          0.244135E-02
      0.120000          0.216683E-02
      0.125000          0.192157E-02
      0.130000          0.170263E-02
      0.135000          0.150741E-02
      0.140000          0.133363E-02
      0.145000          0.117933E-02
      0.150000          0.104284E-02
      0.155000          0.922651E-03
      0.160000          0.817427E-03
      0.165000          0.725902E-03
      0.170000          0.646857E-03
      0.175000          0.579091E-03
      0.180000          0.521410E-03
      0.185000          0.472635E-03
      0.190000          0.431614E-03
      0.195000          0.397250E-03
      0.200000          0.368520E-03
      0.205000          0.344496E-03
      0.210000          0.324366E-03
      0.215000          0.307437E-03
      0.220000          0.293138E-03
      0.225000          0.281009E-03
      0.230000          0.270689E-03
      0.235000          0.261898E-03
      0.240000          0.254413E-03
      0.245000          0.248050E-03
      0.250000          0.242650E-03
      0.255000          0.238063E-03
      0.260000          0.234138E-03
      0.265000          0.230727E-03
      0.270000          0.227681E-03
      0.275000          0.224855E-03
      0.280000          0.222119E-03
      0.285000          0.219361E-03
      0.290000          0.216495E-03
      0.295000          0.213465E-03
      0.300000          0.210244E-03
      0.305000          0.206836E-03
      0.310000          0.203270E-03
      0.315000          0.199593E-03
      0.320000          0.195862E-03
      0.325000          0.192136E-03
      0.330000          0.188467E-03
      0.335000          0.184895E-03
      0.340000          0.181445E-03
      0.345000          0.178121E-03
      0.350000          0.174913E-03
      0.355000          0.171793E-03
      0.360000          0.168724E-03
      0.365000          0.165665E-03
      0.370000          0.162576E-03
      0.375000          0.159426E-03
      0.380000          0.156192E-03
      0.385000          0.152868E-03
      0.390000          0.149461E-03
      0.395000          0.145994E-03
      0.400000          0.142500E-03
      0.405000          0.139022E-03
      0.410000          0.135605E-03
      0.415000          0.132291E-03
      0.420000          0.129119E-03
      0.425000          0.126117E-03
      0.430000          0.123299E-03
      0.435000          0.120671E-03
      0.440000          0.118220E-03
      0.445000          0.115929E-03
      0.450000          0.113768E-03
      0.455000          0.111705E-03
      0.460000          0.109708E-03
      0.465000          0.107745E-03
      0.470000          0.105793E-03
      0.475000          0.103835E-03
      0.480000          0.101864E-03
      0.485000          0.998825E-04
      0.490000          0.978994E-04
      0.495000          0.959312E-04
      0.500000          0.939980E-04
