 I_abs(s)[cm^-1]/c[mg/ml]
       0.00000          0.142949E-01
      0.500000E-02      0.142182E-01
      0.100000E-01      0.139907E-01
      0.150000E-01      0.136198E-01
      0.200000E-01      0.131175E-01
      0.250000E-01      0.124998E-01
      0.300000E-01      0.117858E-01
      0.350000E-01      0.109968E-01
      0.400000E-01      0.101555E-01
      0.450000E-01      0.928467E-02
      0.500000E-01      0.840645E-02
      0.550000E-01      0.754129E-02
      0.600000E-01      0.670727E-02
      0.650000E-01      0.591952E-02
      0.700000E-01      0.518983E-02
      0.750000E-01      0.452651E-02
      0.800000E-01      0.393436E-02
      0.850000E-01      0.341492E-02
      0.900000E-01      0.296682E-02
      0.950000E-01      0.258624E-02
      0.100000          0.226746E-02
      0.105000          0.200345E-02
      0.110000          0.178644E-02
      0.115000          0.160844E-02
      0.120000          0.146173E-02
      0.125000          0.133922E-02
      0.130000          0.123473E-02
      0.135000          0.114314E-02
      0.140000          0.106048E-02
      0.145000          0.983898E-03
      0.150000          0.911567E-03
      0.155000          0.842532E-03
      0.160000          0.776535E-03
      0.165000          0.713812E-03
      0.170000          0.654903E-03
      0.175000          0.600477E-03
      0.180000          0.551184E-03
      0.185000          0.507540E-03
      0.190000          0.469859E-03
      0.195000          0.438210E-03
      0.200000          0.412412E-03
      0.205000          0.392057E-03
      0.210000          0.376547E-03
      0.215000          0.365151E-03
      0.220000          0.357058E-03
      0.225000          0.351433E-03
      0.230000          0.347469E-03
      0.235000          0.344429E-03
      0.240000          0.341671E-03
      0.245000          0.338668E-03
      0.250000          0.335020E-03
      0.255000          0.330444E-03
      0.260000          0.324772E-03
      0.265000          0.317936E-03
      0.270000          0.309951E-03
      0.275000          0.300898E-03
      0.280000          0.290906E-03
      0.285000          0.280141E-03
      0.290000          0.268791E-03
      0.295000          0.257054E-03
      0.300000          0.245129E-03
      0.305000          0.233212E-03
      0.310000          0.221487E-03
      0.315000          0.210123E-03
      0.320000          0.199270E-03
      0.325000          0.189052E-03
      0.330000          0.179571E-03
      0.335000          0.170897E-03
      0.340000          0.163072E-03
      0.345000          0.156110E-03
      0.350000          0.149993E-03
      0.355000          0.144677E-03
      0.360000          0.140096E-03
      0.365000          0.136164E-03
      0.370000          0.132783E-03
      0.375000          0.129848E-03
      0.380000          0.127253E-03
      0.385000          0.124897E-03
      0.390000          0.122693E-03
      0.395000          0.120566E-03
      0.400000          0.118461E-03
      0.405000          0.116345E-03
      0.410000          0.114204E-03
      0.415000          0.112043E-03
      0.420000          0.109884E-03
      0.425000          0.107760E-03
      0.430000          0.105716E-03
      0.435000          0.103795E-03
      0.440000          0.102042E-03
      0.445000          0.100494E-03
      0.450000          0.991790E-04
      0.455000          0.981120E-04
      0.460000          0.972936E-04
      0.465000          0.967099E-04
      0.470000          0.963332E-04
      0.475000          0.961235E-04
      0.480000          0.960318E-04
      0.485000          0.960031E-04
      0.490000          0.959804E-04
      0.495000          0.959083E-04
      0.500000          0.957368E-04
