 I_abs(s)[cm^-1]/c[mg/ml]
       0.00000          0.140990E-01
      0.500000E-02      0.140384E-01
      0.100000E-01      0.138587E-01
      0.150000E-01      0.135647E-01
      0.200000E-01      0.131649E-01
      0.250000E-01      0.126703E-01
      0.300000E-01      0.120942E-01
      0.350000E-01      0.114516E-01
      0.400000E-01      0.107585E-01
      0.450000E-01      0.100315E-01
      0.500000E-01      0.928660E-02
      0.550000E-01      0.853920E-02
      0.600000E-01      0.780320E-02
      0.650000E-01      0.709075E-02
      0.700000E-01      0.641190E-02
      0.750000E-01      0.577447E-02
      0.800000E-01      0.518396E-02
      0.850000E-01      0.464367E-02
      0.900000E-01      0.415484E-02
      0.950000E-01      0.371691E-02
      0.100000          0.332782E-02
      0.105000          0.298438E-02
      0.110000          0.268257E-02
      0.115000          0.241791E-02
      0.120000          0.218578E-02
      0.125000          0.198163E-02
      0.130000          0.180124E-02
      0.135000          0.164080E-02
      0.140000          0.149709E-02
      0.145000          0.136742E-02
      0.150000          0.124967E-02
      0.155000          0.114224E-02
      0.160000          0.104397E-02
      0.165000          0.954017E-03
      0.170000          0.871829E-03
      0.175000          0.797001E-03
      0.180000          0.729215E-03
      0.185000          0.668177E-03
      0.190000          0.613568E-03
      0.195000          0.565016E-03
      0.200000          0.522087E-03
      0.205000          0.484285E-03
      0.210000          0.451066E-03
      0.215000          0.421859E-03
      0.220000          0.396088E-03
      0.225000          0.373196E-03
      0.230000          0.352666E-03
      0.235000          0.334039E-03
      0.240000          0.316921E-03
      0.245000          0.300994E-03
      0.250000          0.286012E-03
      0.255000          0.271798E-03
      0.260000          0.258238E-03
      0.265000          0.245265E-03
      0.270000          0.232857E-03
      0.275000          0.221018E-03
      0.280000          0.209770E-03
      0.285000          0.199145E-03
      0.290000          0.189177E-03
      0.295000          0.179898E-03
      0.300000          0.171329E-03
      0.305000          0.163483E-03
      0.310000          0.156363E-03
      0.315000          0.149958E-03
      0.320000          0.144247E-03
      0.325000          0.139199E-03
      0.330000          0.134772E-03
      0.335000          0.130918E-03
      0.340000          0.127582E-03
      0.345000          0.124704E-03
      0.350000          0.122222E-03
      0.355000          0.120070E-03
      0.360000          0.118187E-03
      0.365000          0.116511E-03
      0.370000          0.114986E-03
      0.375000          0.113562E-03
      0.380000          0.112194E-03
      0.385000          0.110848E-03
      0.390000          0.109497E-03
      0.395000          0.108123E-03
      0.400000          0.106717E-03
      0.405000          0.105277E-03
      0.410000          0.103807E-03
      0.415000          0.102317E-03
      0.420000          0.100822E-03
      0.425000          0.993369E-04
      0.430000          0.978795E-04
      0.435000          0.964658E-04
      0.440000          0.951104E-04
      0.445000          0.938251E-04
      0.450000          0.926181E-04
      0.455000          0.914942E-04
      0.460000          0.904538E-04
      0.465000          0.894937E-04
      0.470000          0.886073E-04
      0.475000          0.877851E-04
      0.480000          0.870157E-04
      0.485000          0.862863E-04
      0.490000          0.855842E-04
      0.495000          0.848972E-04
      0.500000          0.842151E-04
