 I_abs(s)[cm^-1]/c[mg/ml]
       0.00000          0.141850E-01
      0.500000E-02      0.141257E-01
      0.100000E-01      0.139494E-01
      0.150000E-01      0.136608E-01
      0.200000E-01      0.132679E-01
      0.250000E-01      0.127808E-01
      0.300000E-01      0.122123E-01
      0.350000E-01      0.115765E-01
      0.400000E-01      0.108888E-01
      0.450000E-01      0.101649E-01
      0.500000E-01      0.942054E-02
      0.550000E-01      0.867070E-02
      0.600000E-01      0.792919E-02
      0.650000E-01      0.720825E-02
      0.700000E-01      0.651821E-02
      0.750000E-01      0.586732E-02
      0.800000E-01      0.526163E-02
      0.850000E-01      0.470505E-02
      0.900000E-01      0.419942E-02
      0.950000E-01      0.374478E-02
      0.100000          0.333957E-02
      0.105000          0.298102E-02
      0.110000          0.266538E-02
      0.115000          0.238837E-02
      0.120000          0.214540E-02
      0.125000          0.193189E-02
      0.130000          0.174350E-02
      0.135000          0.157630E-02
      0.140000          0.142690E-02
      0.145000          0.129248E-02
      0.150000          0.117083E-02
      0.155000          0.106029E-02
      0.160000          0.959703E-03
      0.165000          0.868294E-03
      0.170000          0.785574E-03
      0.175000          0.711233E-03
      0.180000          0.645033E-03
      0.185000          0.586731E-03
      0.190000          0.536009E-03
      0.195000          0.492434E-03
      0.200000          0.455445E-03
      0.205000          0.424353E-03
      0.210000          0.398368E-03
      0.215000          0.376636E-03
      0.220000          0.358279E-03
      0.225000          0.342450E-03
      0.230000          0.328373E-03
      0.235000          0.315382E-03
      0.240000          0.302950E-03
      0.245000          0.290704E-03
      0.250000          0.278426E-03
      0.255000          0.266046E-03
      0.260000          0.253621E-03
      0.265000          0.241304E-03
      0.270000          0.229316E-03
      0.275000          0.217907E-03
      0.280000          0.207322E-03
      0.285000          0.197775E-03
      0.290000          0.189422E-03
      0.295000          0.182348E-03
      0.300000          0.176557E-03
      0.305000          0.171976E-03
      0.310000          0.168461E-03
      0.315000          0.165812E-03
      0.320000          0.163791E-03
      0.325000          0.162145E-03
      0.330000          0.160623E-03
      0.335000          0.158999E-03
      0.340000          0.157086E-03
      0.345000          0.154745E-03
      0.350000          0.151900E-03
      0.355000          0.148531E-03
      0.360000          0.144675E-03
      0.365000          0.140417E-03
      0.370000          0.135880E-03
      0.375000          0.131214E-03
      0.380000          0.126578E-03
      0.385000          0.122129E-03
      0.390000          0.118011E-03
      0.395000          0.114342E-03
      0.400000          0.111209E-03
      0.405000          0.108663E-03
      0.410000          0.106718E-03
      0.415000          0.105353E-03
      0.420000          0.104517E-03
      0.425000          0.104131E-03
      0.430000          0.104102E-03
      0.435000          0.104326E-03
      0.440000          0.104694E-03
      0.445000          0.105107E-03
      0.450000          0.105473E-03
      0.455000          0.105715E-03
      0.460000          0.105777E-03
      0.465000          0.105617E-03
      0.470000          0.105217E-03
      0.475000          0.104572E-03
      0.480000          0.103693E-03
      0.485000          0.102602E-03
      0.490000          0.101329E-03
      0.495000          0.999071E-04
      0.500000          0.983725E-04
