 I_abs(s)[cm^-1]/c[mg/ml]
       0.00000          0.144130E-01
      0.500000E-02      0.143569E-01
      0.100000E-01      0.141897E-01
      0.150000E-01      0.139158E-01
      0.200000E-01      0.135419E-01
      0.250000E-01      0.130771E-01
      0.300000E-01      0.125323E-01
      0.350000E-01      0.119202E-01
      0.400000E-01      0.112544E-01
      0.450000E-01      0.105491E-01
      0.500000E-01      0.981867E-02
      0.550000E-01      0.907683E-02
      0.600000E-01      0.833666E-02
      0.650000E-01      0.760995E-02
      0.700000E-01      0.690700E-02
      0.750000E-01      0.623640E-02
      0.800000E-01      0.560489E-02
      0.850000E-01      0.501737E-02
      0.900000E-01      0.447689E-02
      0.950000E-01      0.398484E-02
      0.100000          0.354108E-02
      0.105000          0.314419E-02
      0.110000          0.279170E-02
      0.115000          0.248039E-02
      0.120000          0.220654E-02
      0.125000          0.196615E-02
      0.130000          0.175522E-02
      0.135000          0.156985E-02
      0.140000          0.140645E-02
      0.145000          0.126183E-02
      0.150000          0.113321E-02
      0.155000          0.101832E-02
      0.160000          0.915291E-03
      0.165000          0.822704E-03
      0.170000          0.739475E-03
      0.175000          0.664805E-03
      0.180000          0.598104E-03
      0.185000          0.538918E-03
      0.190000          0.486865E-03
      0.195000          0.441582E-03
      0.200000          0.402681E-03
      0.205000          0.369730E-03
      0.210000          0.342233E-03
      0.215000          0.319639E-03
      0.220000          0.301344E-03
      0.225000          0.286713E-03
      0.230000          0.275104E-03
      0.235000          0.265886E-03
      0.240000          0.258467E-03
      0.245000          0.252308E-03
      0.250000          0.246946E-03
      0.255000          0.241996E-03
      0.260000          0.237160E-03
      0.265000          0.232223E-03
      0.270000          0.227051E-03
      0.275000          0.221578E-03
      0.280000          0.215793E-03
      0.285000          0.209732E-03
      0.290000          0.203461E-03
      0.295000          0.197062E-03
      0.300000          0.190627E-03
      0.305000          0.184242E-03
      0.310000          0.177989E-03
      0.315000          0.171934E-03
      0.320000          0.166130E-03
      0.325000          0.160613E-03
      0.330000          0.155407E-03
      0.335000          0.150522E-03
      0.340000          0.145959E-03
      0.345000          0.141711E-03
      0.350000          0.137765E-03
      0.355000          0.134108E-03
      0.360000          0.130720E-03
      0.365000          0.127582E-03
      0.370000          0.124673E-03
      0.375000          0.121972E-03
      0.380000          0.119455E-03
      0.385000          0.117096E-03
      0.390000          0.114869E-03
      0.395000          0.112745E-03
      0.400000          0.110696E-03
      0.405000          0.108694E-03
      0.410000          0.106712E-03
      0.415000          0.104728E-03
      0.420000          0.102722E-03
      0.425000          0.100684E-03
      0.430000          0.986099E-04
      0.435000          0.965035E-04
      0.440000          0.943784E-04
      0.445000          0.922566E-04
      0.450000          0.901681E-04
      0.455000          0.881491E-04
      0.460000          0.862403E-04
      0.465000          0.844847E-04
      0.470000          0.829249E-04
      0.475000          0.816005E-04
      0.480000          0.805455E-04
      0.485000          0.797862E-04
      0.490000          0.793389E-04
      0.495000          0.792090E-04
      0.500000          0.793901E-04
