 I_abs(s)[cm^-1]/c[mg/ml]
       0.00000          0.143657E-01
      0.500000E-02      0.142933E-01
      0.100000E-01      0.140780E-01
      0.150000E-01      0.137263E-01
      0.200000E-01      0.132483E-01
      0.250000E-01      0.126575E-01
      0.300000E-01      0.119703E-01
      0.350000E-01      0.112054E-01
      0.400000E-01      0.103827E-01
      0.450000E-01      0.952288E-02
      0.500000E-01      0.864623E-02
      0.550000E-01      0.777219E-02
      0.600000E-01      0.691856E-02
      0.650000E-01      0.610098E-02
      0.700000E-01      0.533248E-02
      0.750000E-01      0.462319E-02
      0.800000E-01      0.398028E-02
      0.850000E-01      0.340792E-02
      0.900000E-01      0.290743E-02
      0.950000E-01      0.247760E-02
      0.100000          0.211503E-02
      0.105000          0.181456E-02
      0.110000          0.156973E-02
      0.115000          0.137327E-02
      0.120000          0.121756E-02
      0.125000          0.109502E-02
      0.130000          0.998486E-03
      0.135000          0.921498E-03
      0.140000          0.858476E-03
      0.145000          0.804859E-03
      0.150000          0.757140E-03
      0.155000          0.712837E-03
      0.160000          0.670405E-03
      0.165000          0.629106E-03
      0.170000          0.588845E-03
      0.175000          0.549996E-03
      0.180000          0.513222E-03
      0.185000          0.479314E-03
      0.190000          0.449049E-03
      0.195000          0.423070E-03
      0.200000          0.401812E-03
      0.205000          0.385450E-03
      0.210000          0.373885E-03
      0.215000          0.366753E-03
      0.220000          0.363466E-03
      0.225000          0.363262E-03
      0.230000          0.365265E-03
      0.235000          0.368557E-03
      0.240000          0.372234E-03
      0.245000          0.375470E-03
      0.250000          0.377556E-03
      0.255000          0.377939E-03
      0.260000          0.376233E-03
      0.265000          0.372232E-03
      0.270000          0.365896E-03
      0.275000          0.357336E-03
      0.280000          0.346787E-03
      0.285000          0.334579E-03
      0.290000          0.321103E-03
      0.295000          0.306779E-03
      0.300000          0.292027E-03
      0.305000          0.277242E-03
      0.310000          0.262775E-03
      0.315000          0.248917E-03
      0.320000          0.235893E-03
      0.325000          0.223860E-03
      0.330000          0.212908E-03
      0.335000          0.203067E-03
      0.340000          0.194316E-03
      0.345000          0.186592E-03
      0.350000          0.179801E-03
      0.355000          0.173832E-03
      0.360000          0.168562E-03
      0.365000          0.163867E-03
      0.370000          0.159626E-03
      0.375000          0.155732E-03
      0.380000          0.152089E-03
      0.385000          0.148616E-03
      0.390000          0.145249E-03
      0.395000          0.141939E-03
      0.400000          0.138651E-03
      0.405000          0.135366E-03
      0.410000          0.132074E-03
      0.415000          0.128776E-03
      0.420000          0.125480E-03
      0.425000          0.122203E-03
      0.430000          0.118964E-03
      0.435000          0.115786E-03
      0.440000          0.112697E-03
      0.445000          0.109721E-03
      0.450000          0.106884E-03
      0.455000          0.104212E-03
      0.460000          0.101723E-03
      0.465000          0.994373E-04
      0.470000          0.973660E-04
      0.475000          0.955171E-04
      0.480000          0.938927E-04
      0.485000          0.924894E-04
      0.490000          0.912981E-04
      0.495000          0.903045E-04
      0.500000          0.894898E-04
