 I_abs(s)[cm^-1]/c[mg/ml]
       0.00000          0.144209E-01
      0.500000E-02      0.143596E-01
      0.100000E-01      0.141772E-01
      0.150000E-01      0.138786E-01
      0.200000E-01      0.134719E-01
      0.250000E-01      0.129676E-01
      0.300000E-01      0.123787E-01
      0.350000E-01      0.117197E-01
      0.400000E-01      0.110063E-01
      0.450000E-01      0.102544E-01
      0.500000E-01      0.948019E-02
      0.550000E-01      0.869877E-02
      0.600000E-01      0.792424E-02
      0.650000E-01      0.716909E-02
      0.700000E-01      0.644391E-02
      0.750000E-01      0.575725E-02
      0.800000E-01      0.511553E-02
      0.850000E-01      0.452312E-02
      0.900000E-01      0.398240E-02
      0.950000E-01      0.349406E-02
      0.100000          0.305725E-02
      0.105000          0.266998E-02
      0.110000          0.232932E-02
      0.115000          0.203175E-02
      0.120000          0.177343E-02
      0.125000          0.155039E-02
      0.130000          0.135872E-02
      0.135000          0.119474E-02
      0.140000          0.105506E-02
      0.145000          0.936632E-03
      0.150000          0.836748E-03
      0.155000          0.753039E-03
      0.160000          0.683421E-03
      0.165000          0.626054E-03
      0.170000          0.579290E-03
      0.175000          0.541627E-03
      0.180000          0.511673E-03
      0.185000          0.488124E-03
      0.190000          0.469750E-03
      0.195000          0.455397E-03
      0.200000          0.443993E-03
      0.205000          0.434570E-03
      0.210000          0.426274E-03
      0.215000          0.418386E-03
      0.220000          0.410334E-03
      0.225000          0.401697E-03
      0.230000          0.392206E-03
      0.235000          0.381734E-03
      0.240000          0.370281E-03
      0.245000          0.357947E-03
      0.250000          0.344915E-03
      0.255000          0.331414E-03
      0.260000          0.317701E-03
      0.265000          0.304030E-03
      0.270000          0.290636E-03
      0.275000          0.277718E-03
      0.280000          0.265433E-03
      0.285000          0.253888E-03
      0.290000          0.243145E-03
      0.295000          0.233226E-03
      0.300000          0.224120E-03
      0.305000          0.215791E-03
      0.310000          0.208193E-03
      0.315000          0.201273E-03
      0.320000          0.194980E-03
      0.325000          0.189273E-03
      0.330000          0.184115E-03
      0.335000          0.179481E-03
      0.340000          0.175354E-03
      0.345000          0.171717E-03
      0.350000          0.168553E-03
      0.355000          0.165842E-03
      0.360000          0.163553E-03
      0.365000          0.161645E-03
      0.370000          0.160065E-03
      0.375000          0.158747E-03
      0.380000          0.157617E-03
      0.385000          0.156592E-03
      0.390000          0.155589E-03
      0.395000          0.154525E-03
      0.400000          0.153323E-03
      0.405000          0.151919E-03
      0.410000          0.150263E-03
      0.415000          0.148319E-03
      0.420000          0.146073E-03
      0.425000          0.143528E-03
      0.430000          0.140702E-03
      0.435000          0.137631E-03
      0.440000          0.134360E-03
      0.445000          0.130944E-03
      0.450000          0.127441E-03
      0.455000          0.123911E-03
      0.460000          0.120410E-03
      0.465000          0.116989E-03
      0.470000          0.113690E-03
      0.475000          0.110546E-03
      0.480000          0.107578E-03
      0.485000          0.104799E-03
      0.490000          0.102211E-03
      0.495000          0.998069E-04
      0.500000          0.975748E-04
