 I_abs(s)[cm^-1]/c[mg/ml]
       0.00000          0.144525E-01
      0.500000E-02      0.144112E-01
      0.100000E-01      0.142879E-01
      0.150000E-01      0.140847E-01
      0.200000E-01      0.138053E-01
      0.250000E-01      0.134544E-01
      0.300000E-01      0.130380E-01
      0.350000E-01      0.125630E-01
      0.400000E-01      0.120370E-01
      0.450000E-01      0.114683E-01
      0.500000E-01      0.108657E-01
      0.550000E-01      0.102377E-01
      0.600000E-01      0.959330E-02
      0.650000E-01      0.894081E-02
      0.700000E-01      0.828828E-02
      0.750000E-01      0.764316E-02
      0.800000E-01      0.701214E-02
      0.850000E-01      0.640111E-02
      0.900000E-01      0.581506E-02
      0.950000E-01      0.525806E-02
      0.100000          0.473324E-02
      0.105000          0.424283E-02
      0.110000          0.378820E-02
      0.115000          0.336992E-02
      0.120000          0.298784E-02
      0.125000          0.264120E-02
      0.130000          0.232874E-02
      0.135000          0.204878E-02
      0.140000          0.179933E-02
      0.145000          0.157820E-02
      0.150000          0.138308E-02
      0.155000          0.121162E-02
      0.160000          0.106151E-02
      0.165000          0.930499E-03
      0.170000          0.816481E-03
      0.175000          0.717497E-03
      0.180000          0.631755E-03
      0.185000          0.557645E-03
      0.190000          0.493730E-03
      0.195000          0.438743E-03
      0.200000          0.391571E-03
      0.205000          0.351241E-03
      0.210000          0.316902E-03
      0.215000          0.287808E-03
      0.220000          0.263299E-03
      0.225000          0.242787E-03
      0.230000          0.225746E-03
      0.235000          0.211697E-03
      0.240000          0.200204E-03
      0.245000          0.190866E-03
      0.250000          0.183318E-03
      0.255000          0.177224E-03
      0.260000          0.172282E-03
      0.265000          0.168221E-03
      0.270000          0.164802E-03
      0.275000          0.161821E-03
      0.280000          0.159107E-03
      0.285000          0.156521E-03
      0.290000          0.153957E-03
      0.295000          0.151338E-03
      0.300000          0.148615E-03
      0.305000          0.145762E-03
      0.310000          0.142773E-03
      0.315000          0.139656E-03
      0.320000          0.136434E-03
      0.325000          0.133136E-03
      0.330000          0.129795E-03
      0.335000          0.126446E-03
      0.340000          0.123123E-03
      0.345000          0.119856E-03
      0.350000          0.116671E-03
      0.355000          0.113589E-03
      0.360000          0.110625E-03
      0.365000          0.107790E-03
      0.370000          0.105090E-03
      0.375000          0.102527E-03
      0.380000          0.100102E-03
      0.385000          0.978137E-04
      0.390000          0.956591E-04
      0.395000          0.936366E-04
      0.400000          0.917449E-04
      0.405000          0.899836E-04
      0.410000          0.883536E-04
      0.415000          0.868565E-04
      0.420000          0.854950E-04
      0.425000          0.842720E-04
      0.430000          0.831903E-04
      0.435000          0.822519E-04
      0.440000          0.814577E-04
      0.445000          0.808067E-04
      0.450000          0.802959E-04
      0.455000          0.799199E-04
      0.460000          0.796707E-04
      0.465000          0.795376E-04
      0.470000          0.795078E-04
      0.475000          0.795662E-04
      0.480000          0.796957E-04
      0.485000          0.798783E-04
      0.490000          0.800950E-04
      0.495000          0.803267E-04
      0.500000          0.805545E-04
