 I_abs(s)[cm^-1]/c[mg/ml]
       0.00000          0.146350E-01
      0.500000E-02      0.145866E-01
      0.100000E-01      0.144425E-01
      0.150000E-01      0.142055E-01
      0.200000E-01      0.138802E-01
      0.250000E-01      0.134730E-01
      0.300000E-01      0.129915E-01
      0.350000E-01      0.124447E-01
      0.400000E-01      0.118427E-01
      0.450000E-01      0.111959E-01
      0.500000E-01      0.105153E-01
      0.550000E-01      0.981197E-02
      0.600000E-01      0.909675E-02
      0.650000E-01      0.837994E-02
      0.700000E-01      0.767118E-02
      0.750000E-01      0.697918E-02
      0.800000E-01      0.631156E-02
      0.850000E-01      0.567478E-02
      0.900000E-01      0.507406E-02
      0.950000E-01      0.451334E-02
      0.100000          0.399532E-02
      0.105000          0.352152E-02
      0.110000          0.309237E-02
      0.115000          0.270732E-02
      0.120000          0.236500E-02
      0.125000          0.206333E-02
      0.130000          0.179970E-02
      0.135000          0.157114E-02
      0.140000          0.137440E-02
      0.145000          0.120614E-02
      0.150000          0.106302E-02
      0.155000          0.941811E-03
      0.160000          0.839446E-03
      0.165000          0.753103E-03
      0.170000          0.680230E-03
      0.175000          0.618571E-03
      0.180000          0.566168E-03
      0.185000          0.521356E-03
      0.190000          0.482743E-03
      0.195000          0.449187E-03
      0.200000          0.419765E-03
      0.205000          0.393740E-03
      0.210000          0.370532E-03
      0.215000          0.349685E-03
      0.220000          0.330842E-03
      0.225000          0.313719E-03
      0.230000          0.298087E-03
      0.235000          0.283759E-03
      0.240000          0.270573E-03
      0.245000          0.258390E-03
      0.250000          0.247087E-03
      0.255000          0.236554E-03
      0.260000          0.226694E-03
      0.265000          0.217421E-03
      0.270000          0.208666E-03
      0.275000          0.200370E-03
      0.280000          0.192488E-03
      0.285000          0.184990E-03
      0.290000          0.177857E-03
      0.295000          0.171077E-03
      0.300000          0.164651E-03
      0.305000          0.158582E-03
      0.310000          0.152876E-03
      0.315000          0.147541E-03
      0.320000          0.142581E-03
      0.325000          0.137997E-03
      0.330000          0.133786E-03
      0.335000          0.129937E-03
      0.340000          0.126435E-03
      0.345000          0.123258E-03
      0.350000          0.120380E-03
      0.355000          0.117770E-03
      0.360000          0.115397E-03
      0.365000          0.113227E-03
      0.370000          0.111228E-03
      0.375000          0.109370E-03
      0.380000          0.107628E-03
      0.385000          0.105978E-03
      0.390000          0.104404E-03
      0.395000          0.102894E-03
      0.400000          0.101442E-03
      0.405000          0.100044E-03
      0.410000          0.987023E-04
      0.415000          0.974223E-04
      0.420000          0.962108E-04
      0.425000          0.950760E-04
      0.430000          0.940262E-04
      0.435000          0.930690E-04
      0.440000          0.922100E-04
      0.445000          0.914529E-04
      0.450000          0.907983E-04
      0.455000          0.902438E-04
      0.460000          0.897839E-04
      0.465000          0.894101E-04
      0.470000          0.891113E-04
      0.475000          0.888739E-04
      0.480000          0.886827E-04
      0.485000          0.885218E-04
      0.490000          0.883744E-04
      0.495000          0.882243E-04
      0.500000          0.880562E-04
