 I_abs(s)[cm^-1]/c[mg/ml]
       0.00000          0.142870E-01
      0.500000E-02      0.142252E-01
      0.100000E-01      0.140416E-01
      0.150000E-01      0.137412E-01
      0.200000E-01      0.133325E-01
      0.250000E-01      0.128266E-01
      0.300000E-01      0.122369E-01
      0.350000E-01      0.115786E-01
      0.400000E-01      0.108680E-01
      0.450000E-01      0.101218E-01
      0.500000E-01      0.935660E-02
      0.550000E-01      0.858802E-02
      0.600000E-01      0.783048E-02
      0.650000E-01      0.709658E-02
      0.700000E-01      0.639685E-02
      0.750000E-01      0.573958E-02
      0.800000E-01      0.513068E-02
      0.850000E-01      0.457380E-02
      0.900000E-01      0.407044E-02
      0.950000E-01      0.362021E-02
      0.100000          0.322115E-02
      0.105000          0.287001E-02
      0.110000          0.256269E-02
      0.115000          0.229452E-02
      0.120000          0.206063E-02
      0.125000          0.185622E-02
      0.130000          0.167679E-02
      0.135000          0.151829E-02
      0.140000          0.137726E-02
      0.145000          0.125085E-02
      0.150000          0.113685E-02
      0.155000          0.103358E-02
      0.160000          0.939875E-03
      0.165000          0.854958E-03
      0.170000          0.778323E-03
      0.175000          0.709640E-03
      0.180000          0.648652E-03
      0.185000          0.595098E-03
      0.190000          0.548652E-03
      0.195000          0.508885E-03
      0.200000          0.475253E-03
      0.205000          0.447100E-03
      0.210000          0.423678E-03
      0.215000          0.404182E-03
      0.220000          0.387788E-03
      0.225000          0.373692E-03
      0.230000          0.361153E-03
      0.235000          0.349519E-03
      0.240000          0.338259E-03
      0.245000          0.326968E-03
      0.250000          0.315381E-03
      0.255000          0.303361E-03
      0.260000          0.290888E-03
      0.265000          0.278042E-03
      0.270000          0.264977E-03
      0.275000          0.251897E-03
      0.280000          0.239031E-03
      0.285000          0.226608E-03
      0.290000          0.214845E-03
      0.295000          0.203920E-03
      0.300000          0.193972E-03
      0.305000          0.185090E-03
      0.310000          0.177313E-03
      0.315000          0.170631E-03
      0.320000          0.164993E-03
      0.325000          0.160310E-03
      0.330000          0.156470E-03
      0.335000          0.153339E-03
      0.340000          0.150777E-03
      0.345000          0.148642E-03
      0.350000          0.146796E-03
      0.355000          0.145113E-03
      0.360000          0.143482E-03
      0.365000          0.141809E-03
      0.370000          0.140017E-03
      0.375000          0.138051E-03
      0.380000          0.135874E-03
      0.385000          0.133464E-03
      0.390000          0.130819E-03
      0.395000          0.127948E-03
      0.400000          0.124875E-03
      0.405000          0.121634E-03
      0.410000          0.118266E-03
      0.415000          0.114820E-03
      0.420000          0.111350E-03
      0.425000          0.107912E-03
      0.430000          0.104563E-03
      0.435000          0.101357E-03
      0.440000          0.983487E-04
      0.445000          0.955844E-04
      0.450000          0.931060E-04
      0.455000          0.909471E-04
      0.460000          0.891324E-04
      0.465000          0.876766E-04
      0.470000          0.865840E-04
      0.475000          0.858482E-04
      0.480000          0.854523E-04
      0.485000          0.853697E-04
      0.490000          0.855648E-04
      0.495000          0.859944E-04
      0.500000          0.866094E-04
