 I_abs(s)[cm^-1]/c[mg/ml]
       0.00000          0.142007E-01
      0.500000E-02      0.141269E-01
      0.100000E-01      0.139084E-01
      0.150000E-01      0.135530E-01
      0.200000E-01      0.130734E-01
      0.250000E-01      0.124863E-01
      0.300000E-01      0.118115E-01
      0.350000E-01      0.110705E-01
      0.400000E-01      0.102858E-01
      0.450000E-01      0.947910E-02
      0.500000E-01      0.867103E-02
      0.550000E-01      0.787970E-02
      0.600000E-01      0.712028E-02
      0.650000E-01      0.640458E-02
      0.700000E-01      0.574092E-02
      0.750000E-01      0.513420E-02
      0.800000E-01      0.458622E-02
      0.850000E-01      0.409617E-02
      0.900000E-01      0.366115E-02
      0.950000E-01      0.327684E-02
      0.100000          0.293802E-02
      0.105000          0.263920E-02
      0.110000          0.237500E-02
      0.115000          0.214050E-02
      0.120000          0.193148E-02
      0.125000          0.174447E-02
      0.130000          0.157677E-02
      0.135000          0.142635E-02
      0.140000          0.129172E-02
      0.145000          0.117173E-02
      0.150000          0.106546E-02
      0.155000          0.972044E-03
      0.160000          0.890564E-03
      0.165000          0.820009E-03
      0.170000          0.759239E-03
      0.175000          0.707008E-03
      0.180000          0.662013E-03
      0.185000          0.622954E-03
      0.190000          0.588606E-03
      0.195000          0.557878E-03
      0.200000          0.529860E-03
      0.205000          0.503854E-03
      0.210000          0.479373E-03
      0.215000          0.456132E-03
      0.220000          0.434009E-03
      0.225000          0.413007E-03
      0.230000          0.393204E-03
      0.235000          0.374705E-03
      0.240000          0.357603E-03
      0.245000          0.341948E-03
      0.250000          0.327731E-03
      0.255000          0.314875E-03
      0.260000          0.303245E-03
      0.265000          0.292661E-03
      0.270000          0.282916E-03
      0.275000          0.273799E-03
      0.280000          0.265116E-03
      0.285000          0.256704E-03
      0.290000          0.248445E-03
      0.295000          0.240267E-03
      0.300000          0.232145E-03
      0.305000          0.224095E-03
      0.310000          0.216161E-03
      0.315000          0.208405E-03
      0.320000          0.200893E-03
      0.325000          0.193687E-03
      0.330000          0.186830E-03
      0.335000          0.180347E-03
      0.340000          0.174237E-03
      0.345000          0.168480E-03
      0.350000          0.163037E-03
      0.355000          0.157856E-03
      0.360000          0.152880E-03
      0.365000          0.148056E-03
      0.370000          0.143338E-03
      0.375000          0.138693E-03
      0.380000          0.134107E-03
      0.385000          0.129582E-03
      0.390000          0.125139E-03
      0.395000          0.120813E-03
      0.400000          0.116650E-03
      0.405000          0.112700E-03
      0.410000          0.109015E-03
      0.415000          0.105641E-03
      0.420000          0.102614E-03
      0.425000          0.999566E-04
      0.430000          0.976748E-04
      0.435000          0.957583E-04
      0.440000          0.941808E-04
      0.445000          0.929019E-04
      0.450000          0.918707E-04
      0.455000          0.910300E-04
      0.460000          0.903207E-04
      0.465000          0.896864E-04
      0.470000          0.890776E-04
      0.475000          0.884549E-04
      0.480000          0.877917E-04
      0.485000          0.870745E-04
      0.490000          0.863035E-04
      0.495000          0.854904E-04
      0.500000          0.846566E-04
