 I_abs(s)[cm^-1]/c[mg/ml]
       0.00000          0.143657E-01
      0.500000E-02      0.143178E-01
      0.100000E-01      0.141751E-01
      0.150000E-01      0.139408E-01
      0.200000E-01      0.136198E-01
      0.250000E-01      0.132188E-01
      0.300000E-01      0.127463E-01
      0.350000E-01      0.122116E-01
      0.400000E-01      0.116252E-01
      0.450000E-01      0.109981E-01
      0.500000E-01      0.103417E-01
      0.550000E-01      0.966690E-02
      0.600000E-01      0.898460E-02
      0.650000E-01      0.830479E-02
      0.700000E-01      0.763656E-02
      0.750000E-01      0.698792E-02
      0.800000E-01      0.636558E-02
      0.850000E-01      0.577495E-02
      0.900000E-01      0.522012E-02
      0.950000E-01      0.470383E-02
      0.100000          0.422762E-02
      0.105000          0.379189E-02
      0.110000          0.339608E-02
      0.115000          0.303881E-02
      0.120000          0.271807E-02
      0.125000          0.243138E-02
      0.130000          0.217595E-02
      0.135000          0.194884E-02
      0.140000          0.174710E-02
      0.145000          0.156785E-02
      0.150000          0.140841E-02
      0.155000          0.126631E-02
      0.160000          0.113937E-02
      0.165000          0.102567E-02
      0.170000          0.923590E-03
      0.175000          0.831775E-03
      0.180000          0.749104E-03
      0.185000          0.674657E-03
      0.190000          0.607686E-03
      0.195000          0.547568E-03
      0.200000          0.493777E-03
      0.205000          0.445853E-03
      0.210000          0.403373E-03
      0.215000          0.365941E-03
      0.220000          0.333167E-03
      0.225000          0.304666E-03
      0.230000          0.280051E-03
      0.235000          0.258940E-03
      0.240000          0.240952E-03
      0.245000          0.225717E-03
      0.250000          0.212882E-03
      0.255000          0.202111E-03
      0.260000          0.193093E-03
      0.265000          0.185546E-03
      0.270000          0.179214E-03
      0.275000          0.173871E-03
      0.280000          0.169317E-03
      0.285000          0.165381E-03
      0.290000          0.161915E-03
      0.295000          0.158791E-03
      0.300000          0.155904E-03
      0.305000          0.153163E-03
      0.310000          0.150494E-03
      0.315000          0.147837E-03
      0.320000          0.145147E-03
      0.325000          0.142388E-03
      0.330000          0.139540E-03
      0.335000          0.136591E-03
      0.340000          0.133542E-03
      0.345000          0.130402E-03
      0.350000          0.127189E-03
      0.355000          0.123929E-03
      0.360000          0.120651E-03
      0.365000          0.117388E-03
      0.370000          0.114173E-03
      0.375000          0.111040E-03
      0.380000          0.108017E-03
      0.385000          0.105129E-03
      0.390000          0.102395E-03
      0.395000          0.998265E-04
      0.400000          0.974281E-04
      0.405000          0.951984E-04
      0.410000          0.931300E-04
      0.415000          0.912105E-04
      0.420000          0.894243E-04
      0.425000          0.877539E-04
      0.430000          0.861817E-04
      0.435000          0.846910E-04
      0.440000          0.832676E-04
      0.445000          0.819007E-04
      0.450000          0.805833E-04
      0.455000          0.793124E-04
      0.460000          0.780892E-04
      0.465000          0.769183E-04
      0.470000          0.758069E-04
      0.475000          0.747642E-04
      0.480000          0.738002E-04
      0.485000          0.729245E-04
      0.490000          0.721457E-04
      0.495000          0.714703E-04
      0.500000          0.709021E-04
