 I_abs(s)[cm^-1]/c[mg/ml]
       0.00000          0.147465E-01
      0.500000E-02      0.146816E-01
      0.100000E-01      0.144886E-01
      0.150000E-01      0.141729E-01
      0.200000E-01      0.137434E-01
      0.250000E-01      0.132115E-01
      0.300000E-01      0.125915E-01
      0.350000E-01      0.118991E-01
      0.400000E-01      0.111515E-01
      0.450000E-01      0.103660E-01
      0.500000E-01      0.955986E-02
      0.550000E-01      0.874951E-02
      0.600000E-01      0.794992E-02
      0.650000E-01      0.717424E-02
      0.700000E-01      0.643352E-02
      0.750000E-01      0.573646E-02
      0.800000E-01      0.508940E-02
      0.850000E-01      0.449636E-02
      0.900000E-01      0.395922E-02
      0.950000E-01      0.347791E-02
      0.100000          0.305078E-02
      0.105000          0.267491E-02
      0.110000          0.234644E-02
      0.115000          0.206093E-02
      0.120000          0.181368E-02
      0.125000          0.159994E-02
      0.130000          0.141520E-02
      0.135000          0.125529E-02
      0.140000          0.111652E-02
      0.145000          0.995699E-03
      0.150000          0.890166E-03
      0.155000          0.797754E-03
      0.160000          0.716735E-03
      0.165000          0.645748E-03
      0.170000          0.583723E-03
      0.175000          0.529804E-03
      0.180000          0.483278E-03
      0.185000          0.443520E-03
      0.190000          0.409945E-03
      0.195000          0.381979E-03
      0.200000          0.359039E-03
      0.205000          0.340531E-03
      0.210000          0.325849E-03
      0.215000          0.314386E-03
      0.220000          0.305548E-03
      0.225000          0.298765E-03
      0.230000          0.293507E-03
      0.235000          0.289294E-03
      0.240000          0.285706E-03
      0.245000          0.282385E-03
      0.250000          0.279040E-03
      0.255000          0.275448E-03
      0.260000          0.271445E-03
      0.265000          0.266927E-03
      0.270000          0.261843E-03
      0.275000          0.256187E-03
      0.280000          0.249989E-03
      0.285000          0.243315E-03
      0.290000          0.236254E-03
      0.295000          0.228912E-03
      0.300000          0.221407E-03
      0.305000          0.213863E-03
      0.310000          0.206403E-03
      0.315000          0.199144E-03
      0.320000          0.192192E-03
      0.325000          0.185638E-03
      0.330000          0.179557E-03
      0.335000          0.174002E-03
      0.340000          0.169005E-03
      0.345000          0.164578E-03
      0.350000          0.160712E-03
      0.355000          0.157380E-03
      0.360000          0.154540E-03
      0.365000          0.152137E-03
      0.370000          0.150106E-03
      0.375000          0.148378E-03
      0.380000          0.146881E-03
      0.385000          0.145543E-03
      0.390000          0.144297E-03
      0.395000          0.143081E-03
      0.400000          0.141839E-03
      0.405000          0.140525E-03
      0.410000          0.139098E-03
      0.415000          0.137528E-03
      0.420000          0.135793E-03
      0.425000          0.133879E-03
      0.430000          0.131778E-03
      0.435000          0.129492E-03
      0.440000          0.127028E-03
      0.445000          0.124398E-03
      0.450000          0.121623E-03
      0.455000          0.118728E-03
      0.460000          0.115742E-03
      0.465000          0.112700E-03
      0.470000          0.109640E-03
      0.475000          0.106604E-03
      0.480000          0.103634E-03
      0.485000          0.100772E-03
      0.490000          0.980595E-04
      0.495000          0.955361E-04
      0.500000          0.932355E-04
