 I_abs(s)[cm^-1]/c[mg/ml]
       0.00000          0.141693E-01
      0.500000E-02      0.140756E-01
      0.100000E-01      0.137983E-01
      0.150000E-01      0.133488E-01
      0.200000E-01      0.127453E-01
      0.250000E-01      0.120114E-01
      0.300000E-01      0.111753E-01
      0.350000E-01      0.102675E-01
      0.400000E-01      0.931935E-02
      0.450000E-01      0.836149E-02
      0.500000E-01      0.742196E-02
      0.550000E-01      0.652507E-02
      0.600000E-01      0.569043E-02
      0.650000E-01      0.493236E-02
      0.700000E-01      0.425965E-02
      0.750000E-01      0.367580E-02
      0.800000E-01      0.317952E-02
      0.850000E-01      0.276551E-02
      0.900000E-01      0.242545E-02
      0.950000E-01      0.214900E-02
      0.100000          0.192488E-02
      0.105000          0.174186E-02
      0.110000          0.158948E-02
      0.115000          0.145878E-02
      0.120000          0.134259E-02
      0.125000          0.123576E-02
      0.130000          0.113509E-02
      0.135000          0.103913E-02
      0.140000          0.947845E-03
      0.145000          0.862190E-03
      0.150000          0.783690E-03
      0.155000          0.714012E-03
      0.160000          0.654616E-03
      0.165000          0.606488E-03
      0.170000          0.569970E-03
      0.175000          0.544703E-03
      0.180000          0.529655E-03
      0.185000          0.523230E-03
      0.190000          0.523431E-03
      0.195000          0.528052E-03
      0.200000          0.534870E-03
      0.205000          0.541824E-03
      0.210000          0.547156E-03
      0.215000          0.549512E-03
      0.220000          0.547988E-03
      0.225000          0.542134E-03
      0.230000          0.531916E-03
      0.235000          0.517645E-03
      0.240000          0.499889E-03
      0.245000          0.479382E-03
      0.250000          0.456927E-03
      0.255000          0.433322E-03
      0.260000          0.409296E-03
      0.265000          0.385469E-03
      0.270000          0.362331E-03
      0.275000          0.340240E-03
      0.280000          0.319433E-03
      0.285000          0.300046E-03
      0.290000          0.282139E-03
      0.295000          0.265719E-03
      0.300000          0.250763E-03
      0.305000          0.237231E-03
      0.310000          0.225074E-03
      0.315000          0.214240E-03
      0.320000          0.204670E-03
      0.325000          0.196296E-03
      0.330000          0.189034E-03
      0.335000          0.182782E-03
      0.340000          0.177418E-03
      0.345000          0.172803E-03
      0.350000          0.168784E-03
      0.355000          0.165203E-03
      0.360000          0.161906E-03
      0.365000          0.158753E-03
      0.370000          0.155625E-03
      0.375000          0.152433E-03
      0.380000          0.149119E-03
      0.385000          0.145660E-03
      0.390000          0.142061E-03
      0.395000          0.138356E-03
      0.400000          0.134593E-03
      0.405000          0.130832E-03
      0.410000          0.127134E-03
      0.415000          0.123553E-03
      0.420000          0.120133E-03
      0.425000          0.116901E-03
      0.430000          0.113869E-03
      0.435000          0.111032E-03
      0.440000          0.108373E-03
      0.445000          0.105869E-03
      0.450000          0.103492E-03
      0.455000          0.101215E-03
      0.460000          0.990175E-04
      0.465000          0.968892E-04
      0.470000          0.948294E-04
      0.475000          0.928487E-04
      0.480000          0.909678E-04
      0.485000          0.892149E-04
      0.490000          0.876225E-04
      0.495000          0.862239E-04
      0.500000          0.850490E-04
