 I_abs(s)[cm^-1]/c[mg/ml]
       0.00000          0.142713E-01
      0.500000E-02      0.142239E-01
      0.100000E-01      0.140827E-01
      0.150000E-01      0.138502E-01
      0.200000E-01      0.135308E-01
      0.250000E-01      0.131304E-01
      0.300000E-01      0.126563E-01
      0.350000E-01      0.121168E-01
      0.400000E-01      0.115214E-01
      0.450000E-01      0.108802E-01
      0.500000E-01      0.102039E-01
      0.550000E-01      0.950321E-02
      0.600000E-01      0.878878E-02
      0.650000E-01      0.807101E-02
      0.700000E-01      0.735968E-02
      0.750000E-01      0.666384E-02
      0.800000E-01      0.599157E-02
      0.850000E-01      0.534991E-02
      0.900000E-01      0.474470E-02
      0.950000E-01      0.418057E-02
      0.100000          0.366089E-02
      0.105000          0.318783E-02
      0.110000          0.276236E-02
      0.115000          0.238437E-02
      0.120000          0.205278E-02
      0.125000          0.176562E-02
      0.130000          0.152026E-02
      0.135000          0.131348E-02
      0.140000          0.114165E-02
      0.145000          0.100091E-02
      0.150000          0.887233E-03
      0.155000          0.796652E-03
      0.160000          0.725299E-03
      0.165000          0.669534E-03
      0.170000          0.626013E-03
      0.175000          0.591748E-03
      0.180000          0.564140E-03
      0.185000          0.541003E-03
      0.190000          0.520561E-03
      0.195000          0.501436E-03
      0.200000          0.482624E-03
      0.205000          0.463455E-03
      0.210000          0.443554E-03
      0.215000          0.422790E-03
      0.220000          0.401228E-03
      0.225000          0.379080E-03
      0.230000          0.356656E-03
      0.235000          0.334325E-03
      0.240000          0.312473E-03
      0.245000          0.291473E-03
      0.250000          0.271661E-03
      0.255000          0.253316E-03
      0.260000          0.236647E-03
      0.265000          0.221788E-03
      0.270000          0.208798E-03
      0.275000          0.197664E-03
      0.280000          0.188307E-03
      0.285000          0.180593E-03
      0.290000          0.174346E-03
      0.295000          0.169358E-03
      0.300000          0.165404E-03
      0.305000          0.162253E-03
      0.310000          0.159679E-03
      0.315000          0.157473E-03
      0.320000          0.155446E-03
      0.325000          0.153438E-03
      0.330000          0.151323E-03
      0.335000          0.149006E-03
      0.340000          0.146428E-03
      0.345000          0.143561E-03
      0.350000          0.140408E-03
      0.355000          0.136995E-03
      0.360000          0.133371E-03
      0.365000          0.129599E-03
      0.370000          0.125755E-03
      0.375000          0.121917E-03
      0.380000          0.118167E-03
      0.385000          0.114582E-03
      0.390000          0.111231E-03
      0.395000          0.108174E-03
      0.400000          0.105458E-03
      0.405000          0.103118E-03
      0.410000          0.101174E-03
      0.415000          0.996306E-04
      0.420000          0.984804E-04
      0.425000          0.977036E-04
      0.430000          0.972697E-04
      0.435000          0.971396E-04
      0.440000          0.972676E-04
      0.445000          0.976039E-04
      0.450000          0.980962E-04
      0.455000          0.986924E-04
      0.460000          0.993420E-04
      0.465000          0.999978E-04
      0.470000          0.100618E-03
      0.475000          0.101165E-03
      0.480000          0.101609E-03
      0.485000          0.101927E-03
      0.490000          0.102103E-03
      0.495000          0.102127E-03
      0.500000          0.101995E-03
