 I_abs(s)[cm^-1]/c[mg/ml]
       0.00000          0.144842E-01
      0.500000E-02      0.144424E-01
      0.100000E-01      0.143178E-01
      0.150000E-01      0.141126E-01
      0.200000E-01      0.138305E-01
      0.250000E-01      0.134764E-01
      0.300000E-01      0.130565E-01
      0.350000E-01      0.125778E-01
      0.400000E-01      0.120482E-01
      0.450000E-01      0.114763E-01
      0.500000E-01      0.108708E-01
      0.550000E-01      0.102408E-01
      0.600000E-01      0.959494E-02
      0.650000E-01      0.894193E-02
      0.700000E-01      0.828980E-02
      0.750000E-01      0.764598E-02
      0.800000E-01      0.701713E-02
      0.850000E-01      0.640903E-02
      0.900000E-01      0.582656E-02
      0.950000E-01      0.527361E-02
      0.100000          0.475314E-02
      0.105000          0.426717E-02
      0.110000          0.381686E-02
      0.115000          0.340259E-02
      0.120000          0.302401E-02
      0.125000          0.268023E-02
      0.130000          0.236983E-02
      0.135000          0.209104E-02
      0.140000          0.184181E-02
      0.145000          0.161994E-02
      0.150000          0.142314E-02
      0.155000          0.124913E-02
      0.160000          0.109566E-02
      0.165000          0.960630E-03
      0.170000          0.842061E-03
      0.175000          0.738147E-03
      0.180000          0.647259E-03
      0.185000          0.567944E-03
      0.190000          0.498920E-03
      0.195000          0.439059E-03
      0.200000          0.387372E-03
      0.205000          0.342988E-03
      0.210000          0.305135E-03
      0.215000          0.273120E-03
      0.220000          0.246311E-03
      0.225000          0.224128E-03
      0.230000          0.206026E-03
      0.235000          0.191493E-03
      0.240000          0.180042E-03
      0.245000          0.171208E-03
      0.250000          0.164555E-03
      0.255000          0.159671E-03
      0.260000          0.156174E-03
      0.265000          0.153718E-03
      0.270000          0.151992E-03
      0.275000          0.150723E-03
      0.280000          0.149684E-03
      0.285000          0.148684E-03
      0.290000          0.147578E-03
      0.295000          0.146258E-03
      0.300000          0.144652E-03
      0.305000          0.142722E-03
      0.310000          0.140457E-03
      0.315000          0.137868E-03
      0.320000          0.134987E-03
      0.325000          0.131854E-03
      0.330000          0.128523E-03
      0.335000          0.125048E-03
      0.340000          0.121486E-03
      0.345000          0.117890E-03
      0.350000          0.114310E-03
      0.355000          0.110791E-03
      0.360000          0.107371E-03
      0.365000          0.104081E-03
      0.370000          0.100947E-03
      0.375000          0.979868E-04
      0.380000          0.952158E-04
      0.385000          0.926436E-04
      0.390000          0.902768E-04
      0.395000          0.881191E-04
      0.400000          0.861723E-04
      0.405000          0.844366E-04
      0.410000          0.829109E-04
      0.415000          0.815932E-04
      0.420000          0.804805E-04
      0.425000          0.795688E-04
      0.430000          0.788529E-04
      0.435000          0.783265E-04
      0.440000          0.779816E-04
      0.445000          0.778090E-04
      0.450000          0.777976E-04
      0.455000          0.779348E-04
      0.460000          0.782064E-04
      0.465000          0.785970E-04
      0.470000          0.790898E-04
      0.475000          0.796673E-04
      0.480000          0.803114E-04
      0.485000          0.810039E-04
      0.490000          0.817269E-04
      0.495000          0.824631E-04
      0.500000          0.831961E-04
