 I_abs(s)[cm^-1]/c[mg/ml]
       0.00000          0.144763E-01
      0.500000E-02      0.144152E-01
      0.100000E-01      0.142337E-01
      0.150000E-01      0.139361E-01
      0.200000E-01      0.135299E-01
      0.250000E-01      0.130250E-01
      0.300000E-01      0.124335E-01
      0.350000E-01      0.117692E-01
      0.400000E-01      0.110471E-01
      0.450000E-01      0.102829E-01
      0.500000E-01      0.949223E-02
      0.550000E-01      0.869063E-02
      0.600000E-01      0.789260E-02
      0.650000E-01      0.711136E-02
      0.700000E-01      0.635856E-02
      0.750000E-01      0.564399E-02
      0.800000E-01      0.497542E-02
      0.850000E-01      0.435856E-02
      0.900000E-01      0.379709E-02
      0.950000E-01      0.329277E-02
      0.100000          0.284560E-02
      0.105000          0.245408E-02
      0.110000          0.211544E-02
      0.115000          0.182592E-02
      0.120000          0.158110E-02
      0.125000          0.137613E-02
      0.130000          0.120600E-02
      0.135000          0.106576E-02
      0.140000          0.950690E-03
      0.145000          0.856430E-03
      0.150000          0.779099E-03
      0.155000          0.715325E-03
      0.160000          0.662270E-03
      0.165000          0.617611E-03
      0.170000          0.579502E-03
      0.175000          0.546519E-03
      0.180000          0.517587E-03
      0.185000          0.491917E-03
      0.190000          0.468935E-03
      0.195000          0.448217E-03
      0.200000          0.429443E-03
      0.205000          0.412351E-03
      0.210000          0.396710E-03
      0.215000          0.382303E-03
      0.220000          0.368918E-03
      0.225000          0.356347E-03
      0.230000          0.344395E-03
      0.235000          0.332886E-03
      0.240000          0.321676E-03
      0.245000          0.310657E-03
      0.250000          0.299770E-03
      0.255000          0.289003E-03
      0.260000          0.278392E-03
      0.265000          0.268017E-03
      0.270000          0.257992E-03
      0.275000          0.248455E-03
      0.280000          0.239554E-03
      0.285000          0.231435E-03
      0.290000          0.224230E-03
      0.295000          0.218039E-03
      0.300000          0.212931E-03
      0.305000          0.208927E-03
      0.310000          0.206005E-03
      0.315000          0.204094E-03
      0.320000          0.203083E-03
      0.325000          0.202820E-03
      0.330000          0.203125E-03
      0.335000          0.203797E-03
      0.340000          0.204627E-03
      0.345000          0.205404E-03
      0.350000          0.205929E-03
      0.355000          0.206022E-03
      0.360000          0.205530E-03
      0.365000          0.204331E-03
      0.370000          0.202341E-03
      0.375000          0.199513E-03
      0.380000          0.195837E-03
      0.385000          0.191339E-03
      0.390000          0.186079E-03
      0.395000          0.180144E-03
      0.400000          0.173643E-03
      0.405000          0.166702E-03
      0.410000          0.159459E-03
      0.415000          0.152055E-03
      0.420000          0.144632E-03
      0.425000          0.137325E-03
      0.430000          0.130257E-03
      0.435000          0.123538E-03
      0.440000          0.117261E-03
      0.445000          0.111497E-03
      0.450000          0.106299E-03
      0.455000          0.101697E-03
      0.460000          0.977009E-04
      0.465000          0.943014E-04
      0.470000          0.914714E-04
      0.475000          0.891685E-04
      0.480000          0.873383E-04
      0.485000          0.859174E-04
      0.490000          0.848367E-04
      0.495000          0.840253E-04
      0.500000          0.834135E-04
