 I_abs(s)[cm^-1]/c[mg/ml]
       0.00000          0.144763E-01
      0.500000E-02      0.144035E-01
      0.100000E-01      0.141878E-01
      0.150000E-01      0.138371E-01
      0.200000E-01      0.133639E-01
      0.250000E-01      0.127847E-01
      0.300000E-01      0.121187E-01
      0.350000E-01      0.113870E-01
      0.400000E-01      0.106111E-01
      0.450000E-01      0.981193E-02
      0.500000E-01      0.900889E-02
      0.550000E-01      0.821891E-02
      0.600000E-01      0.745605E-02
      0.650000E-01      0.673115E-02
      0.700000E-01      0.605184E-02
      0.750000E-01      0.542271E-02
      0.800000E-01      0.484569E-02
      0.850000E-01      0.432054E-02
      0.900000E-01      0.384537E-02
      0.950000E-01      0.341719E-02
      0.100000          0.303241E-02
      0.105000          0.268721E-02
      0.110000          0.237787E-02
      0.115000          0.210097E-02
      0.120000          0.185344E-02
      0.125000          0.163264E-02
      0.130000          0.143627E-02
      0.135000          0.126231E-02
      0.140000          0.110894E-02
      0.145000          0.974470E-03
      0.150000          0.857263E-03
      0.155000          0.755733E-03
      0.160000          0.668323E-03
      0.165000          0.593529E-03
      0.170000          0.529921E-03
      0.175000          0.476175E-03
      0.180000          0.431096E-03
      0.185000          0.393632E-03
      0.190000          0.362867E-03
      0.195000          0.338018E-03
      0.200000          0.318401E-03
      0.205000          0.303408E-03
      0.210000          0.292477E-03
      0.215000          0.285069E-03
      0.220000          0.280650E-03
      0.225000          0.278683E-03
      0.230000          0.278637E-03
      0.235000          0.279991E-03
      0.240000          0.282253E-03
      0.245000          0.284978E-03
      0.250000          0.287779E-03
      0.255000          0.290338E-03
      0.260000          0.292412E-03
      0.265000          0.293827E-03
      0.270000          0.294473E-03
      0.275000          0.294292E-03
      0.280000          0.293259E-03
      0.285000          0.291379E-03
      0.290000          0.288668E-03
      0.295000          0.285148E-03
      0.300000          0.280847E-03
      0.305000          0.275796E-03
      0.310000          0.270034E-03
      0.315000          0.263606E-03
      0.320000          0.256577E-03
      0.325000          0.249023E-03
      0.330000          0.241038E-03
      0.335000          0.232729E-03
      0.340000          0.224210E-03
      0.345000          0.215598E-03
      0.350000          0.207008E-03
      0.355000          0.198543E-03
      0.360000          0.190289E-03
      0.365000          0.182319E-03
      0.370000          0.174684E-03
      0.375000          0.167421E-03
      0.380000          0.160551E-03
      0.385000          0.154087E-03
      0.390000          0.148033E-03
      0.395000          0.142393E-03
      0.400000          0.137168E-03
      0.405000          0.132357E-03
      0.410000          0.127962E-03
      0.415000          0.123977E-03
      0.420000          0.120397E-03
      0.425000          0.117206E-03
      0.430000          0.114381E-03
      0.435000          0.111892E-03
      0.440000          0.109700E-03
      0.445000          0.107757E-03
      0.450000          0.106015E-03
      0.455000          0.104421E-03
      0.460000          0.102928E-03
      0.465000          0.101492E-03
      0.470000          0.100078E-03
      0.475000          0.986608E-04
      0.480000          0.972244E-04
      0.485000          0.957632E-04
      0.490000          0.942796E-04
      0.495000          0.927829E-04
      0.500000          0.912869E-04
