 I_abs(s)[cm^-1]/c[mg/ml]
       0.00000          0.144288E-01
      0.500000E-02      0.143717E-01
      0.100000E-01      0.142017E-01
      0.150000E-01      0.139228E-01
      0.200000E-01      0.135418E-01
      0.250000E-01      0.130675E-01
      0.300000E-01      0.125109E-01
      0.350000E-01      0.118845E-01
      0.400000E-01      0.112018E-01
      0.450000E-01      0.104771E-01
      0.500000E-01      0.972484E-02
      0.550000E-01      0.895923E-02
      0.600000E-01      0.819372E-02
      0.650000E-01      0.744069E-02
      0.700000E-01      0.671114E-02
      0.750000E-01      0.601444E-02
      0.800000E-01      0.535819E-02
      0.850000E-01      0.474815E-02
      0.900000E-01      0.418824E-02
      0.950000E-01      0.368061E-02
      0.100000          0.322578E-02
      0.105000          0.282286E-02
      0.110000          0.246973E-02
      0.115000          0.216330E-02
      0.120000          0.189980E-02
      0.125000          0.167496E-02
      0.130000          0.148430E-02
      0.135000          0.132334E-02
      0.140000          0.118770E-02
      0.145000          0.107334E-02
      0.150000          0.976576E-03
      0.155000          0.894204E-03
      0.160000          0.823487E-03
      0.165000          0.762171E-03
      0.170000          0.708457E-03
      0.175000          0.660954E-03
      0.180000          0.618621E-03
      0.185000          0.580700E-03
      0.190000          0.546655E-03
      0.195000          0.516104E-03
      0.200000          0.488766E-03
      0.205000          0.464416E-03
      0.210000          0.442843E-03
      0.215000          0.423832E-03
      0.220000          0.407146E-03
      0.225000          0.392522E-03
      0.230000          0.379668E-03
      0.235000          0.368281E-03
      0.240000          0.358046E-03
      0.245000          0.348658E-03
      0.250000          0.339833E-03
      0.255000          0.331317E-03
      0.260000          0.322895E-03
      0.265000          0.314401E-03
      0.270000          0.305719E-03
      0.275000          0.296781E-03
      0.280000          0.287566E-03
      0.285000          0.278093E-03
      0.290000          0.268416E-03
      0.295000          0.258614E-03
      0.300000          0.248783E-03
      0.305000          0.239028E-03
      0.310000          0.229455E-03
      0.315000          0.220164E-03
      0.320000          0.211242E-03
      0.325000          0.202763E-03
      0.330000          0.194780E-03
      0.335000          0.187328E-03
      0.340000          0.180421E-03
      0.345000          0.174055E-03
      0.350000          0.168207E-03
      0.355000          0.162842E-03
      0.360000          0.157910E-03
      0.365000          0.153355E-03
      0.370000          0.149115E-03
      0.375000          0.145128E-03
      0.380000          0.141333E-03
      0.385000          0.137676E-03
      0.390000          0.134108E-03
      0.395000          0.130592E-03
      0.400000          0.127103E-03
      0.405000          0.123627E-03
      0.410000          0.120164E-03
      0.415000          0.116726E-03
      0.420000          0.113335E-03
      0.425000          0.110022E-03
      0.430000          0.106826E-03
      0.435000          0.103790E-03
      0.440000          0.100956E-03
      0.445000          0.983667E-04
      0.450000          0.960573E-04
      0.455000          0.940565E-04
      0.460000          0.923827E-04
      0.465000          0.910425E-04
      0.470000          0.900302E-04
      0.475000          0.893268E-04
      0.480000          0.889011E-04
      0.485000          0.887108E-04
      0.490000          0.887042E-04
      0.495000          0.888230E-04
      0.500000          0.890045E-04
