 I_abs(s)[cm^-1]/c[mg/ml]
       0.00000          0.141537E-01
      0.500000E-02      0.140781E-01
      0.100000E-01      0.138540E-01
      0.150000E-01      0.134896E-01
      0.200000E-01      0.129978E-01
      0.250000E-01      0.123956E-01
      0.300000E-01      0.117031E-01
      0.350000E-01      0.109424E-01
      0.400000E-01      0.101366E-01
      0.450000E-01      0.930800E-02
      0.500000E-01      0.847790E-02
      0.550000E-01      0.766512E-02
      0.600000E-01      0.688557E-02
      0.650000E-01      0.615175E-02
      0.700000E-01      0.547267E-02
      0.750000E-01      0.485383E-02
      0.800000E-01      0.429757E-02
      0.850000E-01      0.380342E-02
      0.900000E-01      0.336872E-02
      0.950000E-01      0.298914E-02
      0.100000          0.265931E-02
      0.105000          0.237330E-02
      0.110000          0.212514E-02
      0.115000          0.190915E-02
      0.120000          0.172019E-02
      0.125000          0.155381E-02
      0.130000          0.140634E-02
      0.135000          0.127479E-02
      0.140000          0.115688E-02
      0.145000          0.105084E-02
      0.150000          0.955335E-03
      0.155000          0.869355E-03
      0.160000          0.792093E-03
      0.165000          0.722875E-03
      0.170000          0.661100E-03
      0.175000          0.606208E-03
      0.180000          0.557656E-03
      0.185000          0.514920E-03
      0.190000          0.477489E-03
      0.195000          0.444873E-03
      0.200000          0.416606E-03
      0.205000          0.392244E-03
      0.210000          0.371361E-03
      0.215000          0.353548E-03
      0.220000          0.338404E-03
      0.225000          0.325532E-03
      0.230000          0.314541E-03
      0.235000          0.305041E-03
      0.240000          0.296656E-03
      0.245000          0.289030E-03
      0.250000          0.281841E-03
      0.255000          0.274810E-03
      0.260000          0.267717E-03
      0.265000          0.260406E-03
      0.270000          0.252794E-03
      0.275000          0.244866E-03
      0.280000          0.236670E-03
      0.285000          0.228310E-03
      0.290000          0.219932E-03
      0.295000          0.211701E-03
      0.300000          0.203793E-03
      0.305000          0.196372E-03
      0.310000          0.189578E-03
      0.315000          0.183516E-03
      0.320000          0.178247E-03
      0.325000          0.173787E-03
      0.330000          0.170105E-03
      0.335000          0.167131E-03
      0.340000          0.164764E-03
      0.345000          0.162878E-03
      0.350000          0.161334E-03
      0.355000          0.159993E-03
      0.360000          0.158725E-03
      0.365000          0.157414E-03
      0.370000          0.155967E-03
      0.375000          0.154317E-03
      0.380000          0.152423E-03
      0.385000          0.150270E-03
      0.390000          0.147868E-03
      0.395000          0.145242E-03
      0.400000          0.142434E-03
      0.405000          0.139494E-03
      0.410000          0.136473E-03
      0.415000          0.133424E-03
      0.420000          0.130394E-03
      0.425000          0.127423E-03
      0.430000          0.124543E-03
      0.435000          0.121778E-03
      0.440000          0.119145E-03
      0.445000          0.116651E-03
      0.450000          0.114302E-03
      0.455000          0.112097E-03
      0.460000          0.110036E-03
      0.465000          0.108115E-03
      0.470000          0.106333E-03
      0.475000          0.104685E-03
      0.480000          0.103170E-03
      0.485000          0.101785E-03
      0.490000          0.100526E-03
      0.495000          0.993887E-04
      0.500000          0.983663E-04
