 I_abs(s)[cm^-1]/c[mg/ml]
       0.00000          0.137266E-01
      0.500000E-02      0.136187E-01
      0.100000E-01      0.133011E-01
      0.150000E-01      0.127915E-01
      0.200000E-01      0.121177E-01
      0.250000E-01      0.113151E-01
      0.300000E-01      0.104238E-01
      0.350000E-01      0.948513E-02
      0.400000E-01      0.853855E-02
      0.450000E-01      0.761891E-02
      0.500000E-01      0.675436E-02
      0.550000E-01      0.596501E-02
      0.600000E-01      0.526262E-02
      0.650000E-01      0.465102E-02
      0.700000E-01      0.412727E-02
      0.750000E-01      0.368327E-02
      0.800000E-01      0.330769E-02
      0.850000E-01      0.298778E-02
      0.900000E-01      0.271105E-02
      0.950000E-01      0.246655E-02
      0.100000          0.224566E-02
      0.105000          0.204242E-02
      0.110000          0.185346E-02
      0.115000          0.167753E-02
      0.120000          0.151489E-02
      0.125000          0.136659E-02
      0.130000          0.123384E-02
      0.135000          0.111747E-02
      0.140000          0.101762E-02
      0.145000          0.933660E-03
      0.150000          0.864207E-03
      0.155000          0.807361E-03
      0.160000          0.760959E-03
      0.165000          0.722850E-03
      0.170000          0.691117E-03
      0.175000          0.664227E-03
      0.180000          0.641071E-03
      0.185000          0.620932E-03
      0.190000          0.603373E-03
      0.195000          0.588108E-03
      0.200000          0.574864E-03
      0.205000          0.563275E-03
      0.210000          0.552834E-03
      0.215000          0.542891E-03
      0.220000          0.532705E-03
      0.225000          0.521538E-03
      0.230000          0.508751E-03
      0.235000          0.493903E-03
      0.240000          0.476812E-03
      0.245000          0.457586E-03
      0.250000          0.436601E-03
      0.255000          0.414448E-03
      0.260000          0.391846E-03
      0.265000          0.369540E-03
      0.270000          0.348212E-03
      0.275000          0.328397E-03
      0.280000          0.310439E-03
      0.285000          0.294472E-03
      0.290000          0.280437E-03
      0.295000          0.268124E-03
      0.300000          0.257225E-03
      0.305000          0.247398E-03
      0.310000          0.238326E-03
      0.315000          0.229752E-03
      0.320000          0.221507E-03
      0.325000          0.213512E-03
      0.330000          0.205767E-03
      0.335000          0.198322E-03
      0.340000          0.191250E-03
      0.345000          0.184617E-03
      0.350000          0.178459E-03
      0.355000          0.172769E-03
      0.360000          0.167496E-03
      0.365000          0.162554E-03
      0.370000          0.157838E-03
      0.375000          0.153242E-03
      0.380000          0.148679E-03
      0.385000          0.144094E-03
      0.390000          0.139475E-03
      0.395000          0.134846E-03
      0.400000          0.130268E-03
      0.405000          0.125821E-03
      0.410000          0.121588E-03
      0.415000          0.117644E-03
      0.420000          0.114038E-03
      0.425000          0.110789E-03
      0.430000          0.107879E-03
      0.435000          0.105262E-03
      0.440000          0.102869E-03
      0.445000          0.100624E-03
      0.450000          0.984494E-04
      0.455000          0.962879E-04
      0.460000          0.941044E-04
      0.465000          0.918935E-04
      0.470000          0.896790E-04
      0.475000          0.875091E-04
      0.480000          0.854477E-04
      0.485000          0.835638E-04
      0.490000          0.819199E-04
      0.495000          0.805621E-04
      0.500000          0.795127E-04
