 I_abs(s)[cm^-1]/c[mg/ml]
       0.00000          0.142556E-01
      0.500000E-02      0.142045E-01
      0.100000E-01      0.140527E-01
      0.150000E-01      0.138037E-01
      0.200000E-01      0.134638E-01
      0.250000E-01      0.130410E-01
      0.300000E-01      0.125451E-01
      0.350000E-01      0.119874E-01
      0.400000E-01      0.113800E-01
      0.450000E-01      0.107355E-01
      0.500000E-01      0.100664E-01
      0.550000E-01      0.938494E-02
      0.600000E-01      0.870242E-02
      0.650000E-01      0.802914E-02
      0.700000E-01      0.737403E-02
      0.750000E-01      0.674451E-02
      0.800000E-01      0.614644E-02
      0.850000E-01      0.558409E-02
      0.900000E-01      0.506018E-02
      0.950000E-01      0.457609E-02
      0.100000          0.413194E-02
      0.105000          0.372686E-02
      0.110000          0.335914E-02
      0.115000          0.302654E-02
      0.120000          0.272640E-02
      0.125000          0.245589E-02
      0.130000          0.221218E-02
      0.135000          0.199249E-02
      0.140000          0.179429E-02
      0.145000          0.161527E-02
      0.150000          0.145341E-02
      0.155000          0.130697E-02
      0.160000          0.117451E-02
      0.165000          0.105477E-02
      0.170000          0.946722E-03
      0.175000          0.849476E-03
      0.180000          0.762243E-03
      0.185000          0.684305E-03
      0.190000          0.614981E-03
      0.195000          0.553609E-03
      0.200000          0.499528E-03
      0.205000          0.452080E-03
      0.210000          0.410604E-03
      0.215000          0.374453E-03
      0.220000          0.342997E-03
      0.225000          0.315634E-03
      0.230000          0.291806E-03
      0.235000          0.271002E-03
      0.240000          0.252769E-03
      0.245000          0.236712E-03
      0.250000          0.222496E-03
      0.255000          0.209843E-03
      0.260000          0.198528E-03
      0.265000          0.188371E-03
      0.270000          0.179231E-03
      0.275000          0.170998E-03
      0.280000          0.163585E-03
      0.285000          0.156925E-03
      0.290000          0.150958E-03
      0.295000          0.145633E-03
      0.300000          0.140905E-03
      0.305000          0.136726E-03
      0.310000          0.133051E-03
      0.315000          0.129833E-03
      0.320000          0.127024E-03
      0.325000          0.124575E-03
      0.330000          0.122437E-03
      0.335000          0.120561E-03
      0.340000          0.118899E-03
      0.345000          0.117404E-03
      0.350000          0.116029E-03
      0.355000          0.114731E-03
      0.360000          0.113470E-03
      0.365000          0.112208E-03
      0.370000          0.110913E-03
      0.375000          0.109555E-03
      0.380000          0.108111E-03
      0.385000          0.106563E-03
      0.390000          0.104900E-03
      0.395000          0.103115E-03
      0.400000          0.101210E-03
      0.405000          0.991897E-04
      0.410000          0.970669E-04
      0.415000          0.948582E-04
      0.420000          0.925844E-04
      0.425000          0.902698E-04
      0.430000          0.879409E-04
      0.435000          0.856255E-04
      0.440000          0.833522E-04
      0.445000          0.811491E-04
      0.450000          0.790433E-04
      0.455000          0.770603E-04
      0.460000          0.752232E-04
      0.465000          0.735529E-04
      0.470000          0.720672E-04
      0.475000          0.707809E-04
      0.480000          0.697055E-04
      0.485000          0.688491E-04
      0.490000          0.682161E-04
      0.495000          0.678070E-04
      0.500000          0.676185E-04
