 I_abs(s)[cm^-1]/c[mg/ml]
       0.00000          0.144763E-01
      0.500000E-02      0.144205E-01
      0.100000E-01      0.142546E-01
      0.150000E-01      0.139828E-01
      0.200000E-01      0.136117E-01
      0.250000E-01      0.131503E-01
      0.300000E-01      0.126096E-01
      0.350000E-01      0.120022E-01
      0.400000E-01      0.113414E-01
      0.450000E-01      0.106414E-01
      0.500000E-01      0.991630E-02
      0.550000E-01      0.917973E-02
      0.600000E-01      0.844456E-02
      0.650000E-01      0.772239E-02
      0.700000E-01      0.702335E-02
      0.750000E-01      0.635585E-02
      0.800000E-01      0.572651E-02
      0.850000E-01      0.514010E-02
      0.900000E-01      0.459962E-02
      0.950000E-01      0.410640E-02
      0.100000          0.366033E-02
      0.105000          0.326003E-02
      0.110000          0.290313E-02
      0.115000          0.258653E-02
      0.120000          0.230666E-02
      0.125000          0.205969E-02
      0.130000          0.184178E-02
      0.135000          0.164922E-02
      0.140000          0.147857E-02
      0.145000          0.132677E-02
      0.150000          0.119117E-02
      0.155000          0.106957E-02
      0.160000          0.960173E-03
      0.165000          0.861582E-03
      0.170000          0.772721E-03
      0.175000          0.692777E-03
      0.180000          0.621134E-03
      0.185000          0.557306E-03
      0.190000          0.500877E-03
      0.195000          0.451453E-03
      0.200000          0.408632E-03
      0.205000          0.371971E-03
      0.210000          0.340983E-03
      0.215000          0.315133E-03
      0.220000          0.293847E-03
      0.225000          0.276525E-03
      0.230000          0.262563E-03
      0.235000          0.251366E-03
      0.240000          0.242372E-03
      0.245000          0.235067E-03
      0.250000          0.228995E-03
      0.255000          0.223769E-03
      0.260000          0.219073E-03
      0.265000          0.214664E-03
      0.270000          0.210364E-03
      0.275000          0.206059E-03
      0.280000          0.201684E-03
      0.285000          0.197217E-03
      0.290000          0.192666E-03
      0.295000          0.188062E-03
      0.300000          0.183447E-03
      0.305000          0.178866E-03
      0.310000          0.174362E-03
      0.315000          0.169975E-03
      0.320000          0.165729E-03
      0.325000          0.161643E-03
      0.330000          0.157722E-03
      0.335000          0.153960E-03
      0.340000          0.150343E-03
      0.345000          0.146852E-03
      0.350000          0.143463E-03
      0.355000          0.140151E-03
      0.360000          0.136893E-03
      0.365000          0.133667E-03
      0.370000          0.130461E-03
      0.375000          0.127266E-03
      0.380000          0.124083E-03
      0.385000          0.120921E-03
      0.390000          0.117797E-03
      0.395000          0.114735E-03
      0.400000          0.111764E-03
      0.405000          0.108918E-03
      0.410000          0.106232E-03
      0.415000          0.103742E-03
      0.420000          0.101479E-03
      0.425000          0.994724E-04
      0.430000          0.977409E-04
      0.435000          0.962969E-04
      0.440000          0.951422E-04
      0.445000          0.942688E-04
      0.450000          0.936584E-04
      0.455000          0.932832E-04
      0.460000          0.931073E-04
      0.465000          0.930886E-04
      0.470000          0.931807E-04
      0.475000          0.933356E-04
      0.480000          0.935060E-04
      0.485000          0.936476E-04
      0.490000          0.937217E-04
      0.495000          0.936966E-04
      0.500000          0.935493E-04
