 I_abs(s)[cm^-1]/c[mg/ml]
       0.00000          0.144921E-01
      0.500000E-02      0.144443E-01
      0.100000E-01      0.143019E-01
      0.150000E-01      0.140675E-01
      0.200000E-01      0.137455E-01
      0.250000E-01      0.133417E-01
      0.300000E-01      0.128634E-01
      0.350000E-01      0.123192E-01
      0.400000E-01      0.117185E-01
      0.450000E-01      0.110714E-01
      0.500000E-01      0.103887E-01
      0.550000E-01      0.968105E-02
      0.600000E-01      0.895925E-02
      0.650000E-01      0.823368E-02
      0.700000E-01      0.751417E-02
      0.750000E-01      0.680978E-02
      0.800000E-01      0.612865E-02
      0.850000E-01      0.547783E-02
      0.900000E-01      0.486320E-02
      0.950000E-01      0.428945E-02
      0.100000          0.375999E-02
      0.105000          0.327705E-02
      0.110000          0.284168E-02
      0.115000          0.245385E-02
      0.120000          0.211256E-02
      0.125000          0.181597E-02
      0.130000          0.156154E-02
      0.135000          0.134616E-02
      0.140000          0.116633E-02
      0.145000          0.101827E-02
      0.150000          0.898096E-03
      0.155000          0.801898E-03
      0.160000          0.725888E-03
      0.165000          0.666472E-03
      0.170000          0.620328E-03
      0.175000          0.584462E-03
      0.180000          0.556240E-03
      0.185000          0.533412E-03
      0.190000          0.514108E-03
      0.195000          0.496831E-03
      0.200000          0.480435E-03
      0.205000          0.464092E-03
      0.210000          0.447259E-03
      0.215000          0.429631E-03
      0.220000          0.411102E-03
      0.225000          0.391725E-03
      0.230000          0.371666E-03
      0.235000          0.351175E-03
      0.240000          0.330545E-03
      0.245000          0.310092E-03
      0.250000          0.290126E-03
      0.255000          0.270938E-03
      0.260000          0.252786E-03
      0.265000          0.235882E-03
      0.270000          0.220397E-03
      0.275000          0.206447E-03
      0.280000          0.194106E-03
      0.285000          0.183401E-03
      0.290000          0.174316E-03
      0.295000          0.166805E-03
      0.300000          0.160786E-03
      0.305000          0.156155E-03
      0.310000          0.152788E-03
      0.315000          0.150546E-03
      0.320000          0.149279E-03
      0.325000          0.148833E-03
      0.330000          0.149048E-03
      0.335000          0.149769E-03
      0.340000          0.150840E-03
      0.345000          0.152115E-03
      0.350000          0.153455E-03
      0.355000          0.154733E-03
      0.360000          0.155834E-03
      0.365000          0.156658E-03
      0.370000          0.157122E-03
      0.375000          0.157160E-03
      0.380000          0.156722E-03
      0.385000          0.155779E-03
      0.390000          0.154320E-03
      0.395000          0.152350E-03
      0.400000          0.149892E-03
      0.405000          0.146983E-03
      0.410000          0.143674E-03
      0.415000          0.140027E-03
      0.420000          0.136111E-03
      0.425000          0.132000E-03
      0.430000          0.127773E-03
      0.435000          0.123505E-03
      0.440000          0.119270E-03
      0.445000          0.115138E-03
      0.450000          0.111167E-03
      0.455000          0.107411E-03
      0.460000          0.103909E-03
      0.465000          0.100691E-03
      0.470000          0.977759E-04
      0.475000          0.951703E-04
      0.480000          0.928713E-04
      0.485000          0.908664E-04
      0.490000          0.891355E-04
      0.495000          0.876523E-04
      0.500000          0.863864E-04
