 I_abs(s)[cm^-1]/c[mg/ml]
       0.00000          0.143106E-01
      0.500000E-02      0.142639E-01
      0.100000E-01      0.141247E-01
      0.150000E-01      0.138960E-01
      0.200000E-01      0.135822E-01
      0.250000E-01      0.131898E-01
      0.300000E-01      0.127264E-01
      0.350000E-01      0.122008E-01
      0.400000E-01      0.116230E-01
      0.450000E-01      0.110033E-01
      0.500000E-01      0.103524E-01
      0.550000E-01      0.968112E-02
      0.600000E-01      0.899978E-02
      0.650000E-01      0.831829E-02
      0.700000E-01      0.764574E-02
      0.750000E-01      0.699025E-02
      0.800000E-01      0.635883E-02
      0.850000E-01      0.575729E-02
      0.900000E-01      0.519021E-02
      0.950000E-01      0.466090E-02
      0.100000          0.417150E-02
      0.105000          0.372300E-02
      0.110000          0.331541E-02
      0.115000          0.294785E-02
      0.120000          0.261874E-02
      0.125000          0.232591E-02
      0.130000          0.206676E-02
      0.135000          0.183845E-02
      0.140000          0.163800E-02
      0.145000          0.146239E-02
      0.150000          0.130870E-02
      0.155000          0.117418E-02
      0.160000          0.105627E-02
      0.165000          0.952699E-03
      0.170000          0.861441E-03
      0.175000          0.780759E-03
      0.180000          0.709180E-03
      0.185000          0.645474E-03
      0.190000          0.588629E-03
      0.195000          0.537819E-03
      0.200000          0.492371E-03
      0.205000          0.451733E-03
      0.210000          0.415443E-03
      0.215000          0.383110E-03
      0.220000          0.354387E-03
      0.225000          0.328956E-03
      0.230000          0.306519E-03
      0.235000          0.286793E-03
      0.240000          0.269498E-03
      0.245000          0.254367E-03
      0.250000          0.241138E-03
      0.255000          0.229562E-03
      0.260000          0.219405E-03
      0.265000          0.210447E-03
      0.270000          0.202490E-03
      0.275000          0.195356E-03
      0.280000          0.188886E-03
      0.285000          0.182944E-03
      0.290000          0.177413E-03
      0.295000          0.172197E-03
      0.300000          0.167215E-03
      0.305000          0.162400E-03
      0.310000          0.157702E-03
      0.315000          0.153078E-03
      0.320000          0.148498E-03
      0.325000          0.143939E-03
      0.330000          0.139388E-03
      0.335000          0.134837E-03
      0.340000          0.130286E-03
      0.345000          0.125744E-03
      0.350000          0.121222E-03
      0.355000          0.116739E-03
      0.360000          0.112321E-03
      0.365000          0.107996E-03
      0.370000          0.103796E-03
      0.375000          0.997562E-04
      0.380000          0.959121E-04
      0.385000          0.922987E-04
      0.390000          0.889490E-04
      0.395000          0.858922E-04
      0.400000          0.831529E-04
      0.405000          0.807494E-04
      0.410000          0.786933E-04
      0.415000          0.769886E-04
      0.420000          0.756317E-04
      0.425000          0.746114E-04
      0.430000          0.739094E-04
      0.435000          0.735011E-04
      0.440000          0.733561E-04
      0.445000          0.734402E-04
      0.450000          0.737156E-04
      0.455000          0.741432E-04
      0.460000          0.746832E-04
      0.465000          0.752968E-04
      0.470000          0.759468E-04
      0.475000          0.765995E-04
      0.480000          0.772246E-04
      0.485000          0.777963E-04
      0.490000          0.782937E-04
      0.495000          0.787009E-04
      0.500000          0.790072E-04
