 I_abs(s)[cm^-1]/c[mg/ml]
       0.00000          0.144209E-01
      0.500000E-02      0.143530E-01
      0.100000E-01      0.141510E-01
      0.150000E-01      0.138206E-01
      0.200000E-01      0.133710E-01
      0.250000E-01      0.128142E-01
      0.300000E-01      0.121652E-01
      0.350000E-01      0.114407E-01
      0.400000E-01      0.106589E-01
      0.450000E-01      0.983837E-02
      0.500000E-01      0.899791E-02
      0.550000E-01      0.815539E-02
      0.600000E-01      0.732739E-02
      0.650000E-01      0.652867E-02
      0.700000E-01      0.577175E-02
      0.750000E-01      0.506665E-02
      0.800000E-01      0.442079E-02
      0.850000E-01      0.383892E-02
      0.900000E-01      0.332328E-02
      0.950000E-01      0.287377E-02
      0.100000          0.248823E-02
      0.105000          0.216283E-02
      0.110000          0.189242E-02
      0.115000          0.167095E-02
      0.120000          0.149184E-02
      0.125000          0.134835E-02
      0.130000          0.123390E-02
      0.135000          0.114233E-02
      0.140000          0.106810E-02
      0.145000          0.100643E-02
      0.150000          0.953378E-03
      0.155000          0.905840E-03
      0.160000          0.861536E-03
      0.165000          0.818929E-03
      0.170000          0.777128E-03
      0.175000          0.735761E-03
      0.180000          0.694859E-03
      0.185000          0.654723E-03
      0.190000          0.615813E-03
      0.195000          0.578645E-03
      0.200000          0.543714E-03
      0.205000          0.511429E-03
      0.210000          0.482076E-03
      0.215000          0.455800E-03
      0.220000          0.432601E-03
      0.225000          0.412342E-03
      0.230000          0.394775E-03
      0.235000          0.379566E-03
      0.240000          0.366329E-03
      0.245000          0.354651E-03
      0.250000          0.344125E-03
      0.255000          0.334371E-03
      0.260000          0.325059E-03
      0.265000          0.315916E-03
      0.270000          0.306736E-03
      0.275000          0.297383E-03
      0.280000          0.287786E-03
      0.285000          0.277932E-03
      0.290000          0.267860E-03
      0.295000          0.257647E-03
      0.300000          0.247401E-03
      0.305000          0.237246E-03
      0.310000          0.227310E-03
      0.315000          0.217724E-03
      0.320000          0.208604E-03
      0.325000          0.200052E-03
      0.330000          0.192149E-03
      0.335000          0.184948E-03
      0.340000          0.178482E-03
      0.345000          0.172753E-03
      0.350000          0.167741E-03
      0.355000          0.163403E-03
      0.360000          0.159677E-03
      0.365000          0.156486E-03
      0.370000          0.153741E-03
      0.375000          0.151347E-03
      0.380000          0.149209E-03
      0.385000          0.147232E-03
      0.390000          0.145332E-03
      0.395000          0.143434E-03
      0.400000          0.141478E-03
      0.405000          0.139420E-03
      0.410000          0.137232E-03
      0.415000          0.134906E-03
      0.420000          0.132446E-03
      0.425000          0.129874E-03
      0.430000          0.127221E-03
      0.435000          0.124527E-03
      0.440000          0.121837E-03
      0.445000          0.119195E-03
      0.450000          0.116643E-03
      0.455000          0.114216E-03
      0.460000          0.111942E-03
      0.465000          0.109836E-03
      0.470000          0.107902E-03
      0.475000          0.106135E-03
      0.480000          0.104515E-03
      0.485000          0.103018E-03
      0.490000          0.101611E-03
      0.495000          0.100257E-03
      0.500000          0.989218E-04
