 I_abs(s)[cm^-1]/c[mg/ml]
       0.00000          0.145317E-01
      0.500000E-02      0.144883E-01
      0.100000E-01      0.143588E-01
      0.150000E-01      0.141456E-01
      0.200000E-01      0.138523E-01
      0.250000E-01      0.134840E-01
      0.300000E-01      0.130471E-01
      0.350000E-01      0.125489E-01
      0.400000E-01      0.119975E-01
      0.450000E-01      0.114018E-01
      0.500000E-01      0.107710E-01
      0.550000E-01      0.101145E-01
      0.600000E-01      0.944169E-02
      0.650000E-01      0.876160E-02
      0.700000E-01      0.808289E-02
      0.750000E-01      0.741361E-02
      0.800000E-01      0.676100E-02
      0.850000E-01      0.613142E-02
      0.900000E-01      0.553028E-02
      0.950000E-01      0.496197E-02
      0.100000          0.442984E-02
      0.105000          0.393622E-02
      0.110000          0.348250E-02
      0.115000          0.306913E-02
      0.120000          0.269575E-02
      0.125000          0.236131E-02
      0.130000          0.206413E-02
      0.135000          0.180206E-02
      0.140000          0.157259E-02
      0.145000          0.137299E-02
      0.150000          0.120035E-02
      0.155000          0.105177E-02
      0.160000          0.924372E-03
      0.165000          0.815424E-03
      0.170000          0.722363E-03
      0.175000          0.642854E-03
      0.180000          0.574811E-03
      0.185000          0.516409E-03
      0.190000          0.466088E-03
      0.195000          0.422539E-03
      0.200000          0.384690E-03
      0.205000          0.351676E-03
      0.210000          0.322815E-03
      0.215000          0.297575E-03
      0.220000          0.275546E-03
      0.225000          0.256406E-03
      0.230000          0.239899E-03
      0.235000          0.225810E-03
      0.240000          0.213945E-03
      0.245000          0.204118E-03
      0.250000          0.196142E-03
      0.255000          0.189818E-03
      0.260000          0.184941E-03
      0.265000          0.181291E-03
      0.270000          0.178646E-03
      0.275000          0.176779E-03
      0.280000          0.175470E-03
      0.285000          0.174507E-03
      0.290000          0.173698E-03
      0.295000          0.172870E-03
      0.300000          0.171878E-03
      0.305000          0.170604E-03
      0.310000          0.168964E-03
      0.315000          0.166902E-03
      0.320000          0.164393E-03
      0.325000          0.161439E-03
      0.330000          0.158065E-03
      0.335000          0.154317E-03
      0.340000          0.150254E-03
      0.345000          0.145948E-03
      0.350000          0.141477E-03
      0.355000          0.136919E-03
      0.360000          0.132352E-03
      0.365000          0.127848E-03
      0.370000          0.123471E-03
      0.375000          0.119277E-03
      0.380000          0.115309E-03
      0.385000          0.111601E-03
      0.390000          0.108175E-03
      0.395000          0.105043E-03
      0.400000          0.102207E-03
      0.405000          0.996610E-04
      0.410000          0.973920E-04
      0.415000          0.953811E-04
      0.420000          0.936057E-04
      0.425000          0.920401E-04
      0.430000          0.906574E-04
      0.435000          0.894300E-04
      0.440000          0.883308E-04
      0.445000          0.873336E-04
      0.450000          0.864140E-04
      0.455000          0.855496E-04
      0.460000          0.847201E-04
      0.465000          0.839076E-04
      0.470000          0.830965E-04
      0.475000          0.822738E-04
      0.480000          0.814287E-04
      0.485000          0.805529E-04
      0.490000          0.796404E-04
      0.495000          0.786876E-04
      0.500000          0.776931E-04
