 I_abs(s)[cm^-1]/c[mg/ml]
       0.00000          0.143106E-01
      0.500000E-02      0.142475E-01
      0.100000E-01      0.140600E-01
      0.150000E-01      0.137531E-01
      0.200000E-01      0.133350E-01
      0.250000E-01      0.128166E-01
      0.300000E-01      0.122113E-01
      0.350000E-01      0.115340E-01
      0.400000E-01      0.108009E-01
      0.450000E-01      0.100287E-01
      0.500000E-01      0.923384E-02
      0.550000E-01      0.843234E-02
      0.600000E-01      0.763887E-02
      0.650000E-01      0.686658E-02
      0.700000E-01      0.612670E-02
      0.750000E-01      0.542836E-02
      0.800000E-01      0.477853E-02
      0.850000E-01      0.418201E-02
      0.900000E-01      0.364156E-02
      0.950000E-01      0.315805E-02
      0.100000          0.273076E-02
      0.105000          0.235758E-02
      0.110000          0.203538E-02
      0.115000          0.176025E-02
      0.120000          0.152780E-02
      0.125000          0.133337E-02
      0.130000          0.117229E-02
      0.135000          0.104000E-02
      0.140000          0.932208E-03
      0.145000          0.844965E-03
      0.150000          0.774709E-03
      0.155000          0.718295E-03
      0.160000          0.672987E-03
      0.165000          0.636447E-03
      0.170000          0.606699E-03
      0.175000          0.582095E-03
      0.180000          0.561282E-03
      0.185000          0.543164E-03
      0.190000          0.526871E-03
      0.195000          0.511728E-03
      0.200000          0.497233E-03
      0.205000          0.483031E-03
      0.210000          0.468896E-03
      0.215000          0.454711E-03
      0.220000          0.440449E-03
      0.225000          0.426155E-03
      0.230000          0.411929E-03
      0.235000          0.397908E-03
      0.240000          0.384245E-03
      0.245000          0.371100E-03
      0.250000          0.358617E-03
      0.255000          0.346921E-03
      0.260000          0.336102E-03
      0.265000          0.326214E-03
      0.270000          0.317265E-03
      0.275000          0.309226E-03
      0.280000          0.302027E-03
      0.285000          0.295563E-03
      0.290000          0.289704E-03
      0.295000          0.284301E-03
      0.300000          0.279193E-03
      0.305000          0.274218E-03
      0.310000          0.269223E-03
      0.315000          0.264066E-03
      0.320000          0.258627E-03
      0.325000          0.252812E-03
      0.330000          0.246555E-03
      0.335000          0.239817E-03
      0.340000          0.232594E-03
      0.345000          0.224906E-03
      0.350000          0.216802E-03
      0.355000          0.208349E-03
      0.360000          0.199634E-03
      0.365000          0.190754E-03
      0.370000          0.181813E-03
      0.375000          0.172916E-03
      0.380000          0.164167E-03
      0.385000          0.155660E-03
      0.390000          0.147480E-03
      0.395000          0.139699E-03
      0.400000          0.132375E-03
      0.405000          0.125552E-03
      0.410000          0.119260E-03
      0.415000          0.113516E-03
      0.420000          0.108328E-03
      0.425000          0.103691E-03
      0.430000          0.995949E-04
      0.435000          0.960230E-04
      0.440000          0.929542E-04
      0.445000          0.903639E-04
      0.450000          0.882251E-04
      0.455000          0.865085E-04
      0.460000          0.851831E-04
      0.465000          0.842157E-04
      0.470000          0.835711E-04
      0.475000          0.832121E-04
      0.480000          0.830995E-04
      0.485000          0.831926E-04
      0.490000          0.834495E-04
      0.495000          0.838278E-04
      0.500000          0.842861E-04
