 I_abs(s)[cm^-1]/c[mg/ml]
       0.00000          0.147465E-01
      0.500000E-02      0.146910E-01
      0.100000E-01      0.145255E-01
      0.150000E-01      0.142538E-01
      0.200000E-01      0.138819E-01
      0.250000E-01      0.134179E-01
      0.300000E-01      0.128717E-01
      0.350000E-01      0.122547E-01
      0.400000E-01      0.115795E-01
      0.450000E-01      0.108592E-01
      0.500000E-01      0.101075E-01
      0.550000E-01      0.933757E-02
      0.600000E-01      0.856243E-02
      0.650000E-01      0.779411E-02
      0.700000E-01      0.704356E-02
      0.750000E-01      0.632038E-02
      0.800000E-01      0.563264E-02
      0.850000E-01      0.498683E-02
      0.900000E-01      0.438778E-02
      0.950000E-01      0.383872E-02
      0.100000          0.334135E-02
      0.105000          0.289596E-02
      0.110000          0.250161E-02
      0.115000          0.215631E-02
      0.120000          0.185724E-02
      0.125000          0.160090E-02
      0.130000          0.138339E-02
      0.135000          0.120055E-02
      0.140000          0.104813E-02
      0.145000          0.921959E-03
      0.150000          0.818058E-03
      0.155000          0.732722E-03
      0.160000          0.662599E-03
      0.165000          0.604728E-03
      0.170000          0.556560E-03
      0.175000          0.515954E-03
      0.180000          0.481160E-03
      0.185000          0.450793E-03
      0.190000          0.423794E-03
      0.195000          0.399384E-03
      0.200000          0.377019E-03
      0.205000          0.356347E-03
      0.210000          0.337159E-03
      0.215000          0.319356E-03
      0.220000          0.302907E-03
      0.225000          0.287822E-03
      0.230000          0.274129E-03
      0.235000          0.261854E-03
      0.240000          0.251008E-03
      0.245000          0.241576E-03
      0.250000          0.233519E-03
      0.255000          0.226765E-03
      0.260000          0.221217E-03
      0.265000          0.216756E-03
      0.270000          0.213244E-03
      0.275000          0.210532E-03
      0.280000          0.208467E-03
      0.285000          0.206897E-03
      0.290000          0.205676E-03
      0.295000          0.204672E-03
      0.300000          0.203764E-03
      0.305000          0.202851E-03
      0.310000          0.201850E-03
      0.315000          0.200696E-03
      0.320000          0.199339E-03
      0.325000          0.197749E-03
      0.330000          0.195905E-03
      0.335000          0.193801E-03
      0.340000          0.191437E-03
      0.345000          0.188821E-03
      0.350000          0.185965E-03
      0.355000          0.182887E-03
      0.360000          0.179604E-03
      0.365000          0.176138E-03
      0.370000          0.172513E-03
      0.375000          0.168754E-03
      0.380000          0.164890E-03
      0.385000          0.160954E-03
      0.390000          0.156980E-03
      0.395000          0.153010E-03
      0.400000          0.149085E-03
      0.405000          0.145250E-03
      0.410000          0.141552E-03
      0.415000          0.138036E-03
      0.420000          0.134745E-03
      0.425000          0.131718E-03
      0.430000          0.128987E-03
      0.435000          0.126575E-03
      0.440000          0.124496E-03
      0.445000          0.122751E-03
      0.450000          0.121330E-03
      0.455000          0.120211E-03
      0.460000          0.119359E-03
      0.465000          0.118730E-03
      0.470000          0.118271E-03
      0.475000          0.117923E-03
      0.480000          0.117623E-03
      0.485000          0.117309E-03
      0.490000          0.116920E-03
      0.495000          0.116399E-03
      0.500000          0.115698E-03
