 I_abs(s)[cm^-1]/c[mg/ml]
       0.00000          0.137883E-01
      0.500000E-02      0.136916E-01
      0.100000E-01      0.134056E-01
      0.150000E-01      0.129424E-01
      0.200000E-01      0.123210E-01
      0.250000E-01      0.115668E-01
      0.300000E-01      0.107095E-01
      0.350000E-01      0.978141E-02
      0.400000E-01      0.881577E-02
      0.450000E-01      0.784489E-02
      0.500000E-01      0.689842E-02
      0.550000E-01      0.600202E-02
      0.600000E-01      0.517632E-02
      0.650000E-01      0.443628E-02
      0.700000E-01      0.379099E-02
      0.750000E-01      0.324381E-02
      0.800000E-01      0.279294E-02
      0.850000E-01      0.243218E-02
      0.900000E-01      0.215197E-02
      0.950000E-01      0.194041E-02
      0.100000          0.178442E-02
      0.105000          0.167072E-02
      0.110000          0.158674E-02
      0.115000          0.152128E-02
      0.120000          0.146504E-02
      0.125000          0.141084E-02
      0.130000          0.135374E-02
      0.135000          0.129084E-02
      0.140000          0.122113E-02
      0.145000          0.114507E-02
      0.150000          0.106422E-02
      0.155000          0.980821E-03
      0.160000          0.897446E-03
      0.165000          0.816631E-03
      0.170000          0.740639E-03
      0.175000          0.671263E-03
      0.180000          0.609731E-03
      0.185000          0.556667E-03
      0.190000          0.512119E-03
      0.195000          0.475635E-03
      0.200000          0.446367E-03
      0.205000          0.423194E-03
      0.210000          0.404852E-03
      0.215000          0.390047E-03
      0.220000          0.377566E-03
      0.225000          0.366351E-03
      0.230000          0.355562E-03
      0.235000          0.344606E-03
      0.240000          0.333144E-03
      0.245000          0.321073E-03
      0.250000          0.308500E-03
      0.255000          0.295689E-03
      0.260000          0.283012E-03
      0.265000          0.270889E-03
      0.270000          0.259737E-03
      0.275000          0.249915E-03
      0.280000          0.241692E-03
      0.285000          0.235215E-03
      0.290000          0.230498E-03
      0.295000          0.227424E-03
      0.300000          0.225754E-03
      0.305000          0.225152E-03
      0.310000          0.225219E-03
      0.315000          0.225525E-03
      0.320000          0.225645E-03
      0.325000          0.225198E-03
      0.330000          0.223870E-03
      0.335000          0.221440E-03
      0.340000          0.217788E-03
      0.345000          0.212904E-03
      0.350000          0.206875E-03
      0.355000          0.199879E-03
      0.360000          0.192157E-03
      0.365000          0.183999E-03
      0.370000          0.175711E-03
      0.375000          0.167596E-03
      0.380000          0.159927E-03
      0.385000          0.152935E-03
      0.390000          0.146791E-03
      0.395000          0.141601E-03
      0.400000          0.137405E-03
      0.405000          0.134175E-03
      0.410000          0.131830E-03
      0.415000          0.130241E-03
      0.420000          0.129244E-03
      0.425000          0.128658E-03
      0.430000          0.128295E-03
      0.435000          0.127975E-03
      0.440000          0.127535E-03
      0.445000          0.126840E-03
      0.450000          0.125789E-03
      0.455000          0.124315E-03
      0.460000          0.122392E-03
      0.465000          0.120027E-03
      0.470000          0.117258E-03
      0.475000          0.114149E-03
      0.480000          0.110783E-03
      0.485000          0.107253E-03
      0.490000          0.103656E-03
      0.495000          0.100086E-03
      0.500000          0.966257E-04
