 I_abs(s)[cm^-1]/c[mg/ml]
       0.00000          0.142556E-01
      0.500000E-02      0.142012E-01
      0.100000E-01      0.140397E-01
      0.150000E-01      0.137748E-01
      0.200000E-01      0.134133E-01
      0.250000E-01      0.129639E-01
      0.300000E-01      0.124372E-01
      0.350000E-01      0.118453E-01
      0.400000E-01      0.112015E-01
      0.450000E-01      0.105194E-01
      0.500000E-01      0.981267E-02
      0.550000E-01      0.909465E-02
      0.600000E-01      0.837781E-02
      0.650000E-01      0.767343E-02
      0.700000E-01      0.699137E-02
      0.750000E-01      0.633984E-02
      0.800000E-01      0.572529E-02
      0.850000E-01      0.515243E-02
      0.900000E-01      0.462425E-02
      0.950000E-01      0.414214E-02
      0.100000          0.370607E-02
      0.105000          0.331483E-02
      0.110000          0.296622E-02
      0.115000          0.265733E-02
      0.120000          0.238477E-02
      0.125000          0.214486E-02
      0.130000          0.193390E-02
      0.135000          0.174824E-02
      0.140000          0.158448E-02
      0.145000          0.143952E-02
      0.150000          0.131062E-02
      0.155000          0.119544E-02
      0.160000          0.109200E-02
      0.165000          0.998699E-03
      0.170000          0.914232E-03
      0.175000          0.837565E-03
      0.180000          0.767879E-03
      0.185000          0.704516E-03
      0.190000          0.646935E-03
      0.195000          0.594676E-03
      0.200000          0.547327E-03
      0.205000          0.504505E-03
      0.210000          0.465843E-03
      0.215000          0.430983E-03
      0.220000          0.399578E-03
      0.225000          0.371291E-03
      0.230000          0.345805E-03
      0.235000          0.322822E-03
      0.240000          0.302074E-03
      0.245000          0.283322E-03
      0.250000          0.266358E-03
      0.255000          0.251006E-03
      0.260000          0.237114E-03
      0.265000          0.224559E-03
      0.270000          0.213231E-03
      0.275000          0.203039E-03
      0.280000          0.193897E-03
      0.285000          0.185725E-03
      0.290000          0.178443E-03
      0.295000          0.171971E-03
      0.300000          0.166228E-03
      0.305000          0.161131E-03
      0.310000          0.156595E-03
      0.315000          0.152539E-03
      0.320000          0.148883E-03
      0.325000          0.145553E-03
      0.330000          0.142482E-03
      0.335000          0.139612E-03
      0.340000          0.136891E-03
      0.345000          0.134278E-03
      0.350000          0.131742E-03
      0.355000          0.129259E-03
      0.360000          0.126809E-03
      0.365000          0.124382E-03
      0.370000          0.121969E-03
      0.375000          0.119565E-03
      0.380000          0.117166E-03
      0.385000          0.114770E-03
      0.390000          0.112376E-03
      0.395000          0.109981E-03
      0.400000          0.107587E-03
      0.405000          0.105194E-03
      0.410000          0.102805E-03
      0.415000          0.100425E-03
      0.420000          0.980618E-04
      0.425000          0.957268E-04
      0.430000          0.934342E-04
      0.435000          0.912015E-04
      0.440000          0.890485E-04
      0.445000          0.869974E-04
      0.450000          0.850711E-04
      0.455000          0.832924E-04
      0.460000          0.816830E-04
      0.465000          0.802621E-04
      0.470000          0.790453E-04
      0.475000          0.780438E-04
      0.480000          0.772637E-04
      0.485000          0.767051E-04
      0.490000          0.763626E-04
      0.495000          0.762247E-04
      0.500000          0.762748E-04
