 I_abs(s)[cm^-1]/c[mg/ml]
       0.00000          0.143815E-01
      0.500000E-02      0.143281E-01
      0.100000E-01      0.141691E-01
      0.150000E-01      0.139079E-01
      0.200000E-01      0.135498E-01
      0.250000E-01      0.131023E-01
      0.300000E-01      0.125744E-01
      0.350000E-01      0.119766E-01
      0.400000E-01      0.113206E-01
      0.450000E-01      0.106186E-01
      0.500000E-01      0.988359E-02
      0.550000E-01      0.912826E-02
      0.600000E-01      0.836517E-02
      0.650000E-01      0.760623E-02
      0.700000E-01      0.686246E-02
      0.750000E-01      0.614372E-02
      0.800000E-01      0.545856E-02
      0.850000E-01      0.481403E-02
      0.900000E-01      0.421566E-02
      0.950000E-01      0.366740E-02
      0.100000          0.317167E-02
      0.105000          0.272942E-02
      0.110000          0.234024E-02
      0.115000          0.200256E-02
      0.120000          0.171378E-02
      0.125000          0.147049E-02
      0.130000          0.126866E-02
      0.135000          0.110385E-02
      0.140000          0.971389E-03
      0.145000          0.866577E-03
      0.150000          0.784817E-03
      0.155000          0.721758E-03
      0.160000          0.673399E-03
      0.165000          0.636168E-03
      0.170000          0.606970E-03
      0.175000          0.583209E-03
      0.180000          0.562794E-03
      0.185000          0.544114E-03
      0.190000          0.526002E-03
      0.195000          0.507688E-03
      0.200000          0.488742E-03
      0.205000          0.469006E-03
      0.210000          0.448540E-03
      0.215000          0.427553E-03
      0.220000          0.406354E-03
      0.225000          0.385297E-03
      0.230000          0.364743E-03
      0.235000          0.345025E-03
      0.240000          0.326428E-03
      0.245000          0.309169E-03
      0.250000          0.293393E-03
      0.255000          0.279169E-03
      0.260000          0.266497E-03
      0.265000          0.255313E-03
      0.270000          0.245505E-03
      0.275000          0.236922E-03
      0.280000          0.229389E-03
      0.285000          0.222720E-03
      0.290000          0.216730E-03
      0.295000          0.211241E-03
      0.300000          0.206097E-03
      0.305000          0.201162E-03
      0.310000          0.196327E-03
      0.315000          0.191514E-03
      0.320000          0.186668E-03
      0.325000          0.181763E-03
      0.330000          0.176794E-03
      0.335000          0.171774E-03
      0.340000          0.166730E-03
      0.345000          0.161701E-03
      0.350000          0.156729E-03
      0.355000          0.151860E-03
      0.360000          0.147138E-03
      0.365000          0.142602E-03
      0.370000          0.138288E-03
      0.375000          0.134221E-03
      0.380000          0.130420E-03
      0.385000          0.126896E-03
      0.390000          0.123652E-03
      0.395000          0.120682E-03
      0.400000          0.117977E-03
      0.405000          0.115520E-03
      0.410000          0.113292E-03
      0.415000          0.111268E-03
      0.420000          0.109426E-03
      0.425000          0.107739E-03
      0.430000          0.106184E-03
      0.435000          0.104738E-03
      0.440000          0.103379E-03
      0.445000          0.102089E-03
      0.450000          0.100851E-03
      0.455000          0.996526E-04
      0.460000          0.984841E-04
      0.465000          0.973382E-04
      0.470000          0.962103E-04
      0.475000          0.950986E-04
      0.480000          0.940031E-04
      0.485000          0.929256E-04
      0.490000          0.918695E-04
      0.495000          0.908386E-04
      0.500000          0.898378E-04
