 I_abs(s)[cm^-1]/c[mg/ml]
       0.00000          0.143263E-01
      0.500000E-02      0.142692E-01
      0.100000E-01      0.140992E-01
      0.150000E-01      0.138212E-01
      0.200000E-01      0.134423E-01
      0.250000E-01      0.129726E-01
      0.300000E-01      0.124241E-01
      0.350000E-01      0.118104E-01
      0.400000E-01      0.111460E-01
      0.450000E-01      0.104460E-01
      0.500000E-01      0.972545E-02
      0.550000E-01      0.899848E-02
      0.600000E-01      0.827824E-02
      0.650000E-01      0.757637E-02
      0.700000E-01      0.690264E-02
      0.750000E-01      0.626487E-02
      0.800000E-01      0.566878E-02
      0.850000E-01      0.511808E-02
      0.900000E-01      0.461452E-02
      0.950000E-01      0.415816E-02
      0.100000          0.374759E-02
      0.105000          0.338023E-02
      0.110000          0.305266E-02
      0.115000          0.276094E-02
      0.120000          0.250086E-02
      0.125000          0.226828E-02
      0.130000          0.205924E-02
      0.135000          0.187023E-02
      0.140000          0.169821E-02
      0.145000          0.154070E-02
      0.150000          0.139579E-02
      0.155000          0.126209E-02
      0.160000          0.113865E-02
      0.165000          0.102490E-02
      0.170000          0.920492E-03
      0.175000          0.825275E-03
      0.180000          0.739141E-03
      0.185000          0.661966E-03
      0.190000          0.593551E-03
      0.195000          0.533575E-03
      0.200000          0.481585E-03
      0.205000          0.436989E-03
      0.210000          0.399080E-03
      0.215000          0.367065E-03
      0.220000          0.340103E-03
      0.225000          0.317344E-03
      0.230000          0.297976E-03
      0.235000          0.281250E-03
      0.240000          0.266518E-03
      0.245000          0.253245E-03
      0.250000          0.241016E-03
      0.255000          0.229540E-03
      0.260000          0.218635E-03
      0.265000          0.208215E-03
      0.270000          0.198264E-03
      0.275000          0.188822E-03
      0.280000          0.179951E-03
      0.285000          0.171724E-03
      0.290000          0.164203E-03
      0.295000          0.157428E-03
      0.300000          0.151409E-03
      0.305000          0.146126E-03
      0.310000          0.141528E-03
      0.315000          0.137542E-03
      0.320000          0.134077E-03
      0.325000          0.131038E-03
      0.330000          0.128331E-03
      0.335000          0.125873E-03
      0.340000          0.123599E-03
      0.345000          0.121466E-03
      0.350000          0.119452E-03
      0.355000          0.117557E-03
      0.360000          0.115799E-03
      0.365000          0.114207E-03
      0.370000          0.112818E-03
      0.375000          0.111668E-03
      0.380000          0.110787E-03
      0.385000          0.110193E-03
      0.390000          0.109887E-03
      0.395000          0.109855E-03
      0.400000          0.110064E-03
      0.405000          0.110463E-03
      0.410000          0.110992E-03
      0.415000          0.111580E-03
      0.420000          0.112154E-03
      0.425000          0.112642E-03
      0.430000          0.112981E-03
      0.435000          0.113122E-03
      0.440000          0.113028E-03
      0.445000          0.112682E-03
      0.450000          0.112087E-03
      0.455000          0.111260E-03
      0.460000          0.110235E-03
      0.465000          0.109058E-03
      0.470000          0.107782E-03
      0.475000          0.106461E-03
      0.480000          0.105147E-03
      0.485000          0.103888E-03
      0.490000          0.102717E-03
      0.495000          0.101657E-03
      0.500000          0.100713E-03
