 I_abs(s)[cm^-1]/c[mg/ml]
       0.00000          0.140288E-01
      0.500000E-02      0.139278E-01
      0.100000E-01      0.136295E-01
      0.150000E-01      0.131475E-01
      0.200000E-01      0.125033E-01
      0.250000E-01      0.117250E-01
      0.300000E-01      0.108453E-01
      0.350000E-01      0.989938E-02
      0.400000E-01      0.892272E-02
      0.450000E-01      0.794898E-02
      0.500000E-01      0.700812E-02
      0.550000E-01      0.612504E-02
      0.600000E-01      0.531856E-02
      0.650000E-01      0.460100E-02
      0.700000E-01      0.397825E-02
      0.750000E-01      0.345029E-02
      0.800000E-01      0.301213E-02
      0.850000E-01      0.265491E-02
      0.900000E-01      0.236723E-02
      0.950000E-01      0.213640E-02
      0.100000          0.194966E-02
      0.105000          0.179511E-02
      0.110000          0.166251E-02
      0.115000          0.154368E-02
      0.120000          0.143271E-02
      0.125000          0.132589E-02
      0.130000          0.122144E-02
      0.135000          0.111913E-02
      0.140000          0.101984E-02
      0.145000          0.925049E-03
      0.150000          0.836428E-03
      0.155000          0.755515E-03
      0.160000          0.683457E-03
      0.165000          0.620882E-03
      0.170000          0.567862E-03
      0.175000          0.523965E-03
      0.180000          0.488353E-03
      0.185000          0.459926E-03
      0.190000          0.437459E-03
      0.195000          0.419731E-03
      0.200000          0.405628E-03
      0.205000          0.394205E-03
      0.210000          0.384720E-03
      0.215000          0.376629E-03
      0.220000          0.369561E-03
      0.225000          0.363279E-03
      0.230000          0.357632E-03
      0.235000          0.352513E-03
      0.240000          0.347828E-03
      0.245000          0.343470E-03
      0.250000          0.339313E-03
      0.255000          0.335211E-03
      0.260000          0.331006E-03
      0.265000          0.326546E-03
      0.270000          0.321696E-03
      0.275000          0.316352E-03
      0.280000          0.310450E-03
      0.285000          0.303971E-03
      0.290000          0.296939E-03
      0.295000          0.289418E-03
      0.300000          0.281506E-03
      0.305000          0.273322E-03
      0.310000          0.265003E-03
      0.315000          0.256691E-03
      0.320000          0.248524E-03
      0.325000          0.240630E-03
      0.330000          0.233119E-03
      0.335000          0.226079E-03
      0.340000          0.219568E-03
      0.345000          0.213611E-03
      0.350000          0.208200E-03
      0.355000          0.203289E-03
      0.360000          0.198798E-03
      0.365000          0.194617E-03
      0.370000          0.190614E-03
      0.375000          0.186643E-03
      0.380000          0.182557E-03
      0.385000          0.178220E-03
      0.390000          0.173520E-03
      0.395000          0.168379E-03
      0.400000          0.162763E-03
      0.405000          0.156687E-03
      0.410000          0.150212E-03
      0.415000          0.143448E-03
      0.420000          0.136541E-03
      0.425000          0.129665E-03
      0.430000          0.123006E-03
      0.435000          0.116749E-03
      0.440000          0.111063E-03
      0.445000          0.106089E-03
      0.450000          0.101928E-03
      0.455000          0.986358E-04
      0.460000          0.962205E-04
      0.465000          0.946411E-04
      0.470000          0.938134E-04
      0.475000          0.936172E-04
      0.480000          0.939061E-04
      0.485000          0.945181E-04
      0.490000          0.952873E-04
      0.495000          0.960549E-04
      0.500000          0.966784E-04
