 I_abs(s)[cm^-1]/c[mg/ml]
       0.00000          0.146509E-01
      0.500000E-02      0.145837E-01
      0.100000E-01      0.143842E-01
      0.150000E-01      0.140587E-01
      0.200000E-01      0.136171E-01
      0.250000E-01      0.130726E-01
      0.300000E-01      0.124411E-01
      0.350000E-01      0.117403E-01
      0.400000E-01      0.109889E-01
      0.450000E-01      0.102056E-01
      0.500000E-01      0.940864E-02
      0.550000E-01      0.861493E-02
      0.600000E-01      0.783934E-02
      0.650000E-01      0.709443E-02
      0.700000E-01      0.639014E-02
      0.750000E-01      0.573366E-02
      0.800000E-01      0.512955E-02
      0.850000E-01      0.457989E-02
      0.900000E-01      0.408459E-02
      0.950000E-01      0.364180E-02
      0.100000          0.324831E-02
      0.105000          0.289995E-02
      0.110000          0.259207E-02
      0.115000          0.231983E-02
      0.120000          0.207855E-02
      0.125000          0.186391E-02
      0.130000          0.167210E-02
      0.135000          0.149992E-02
      0.140000          0.134478E-02
      0.145000          0.120465E-02
      0.150000          0.107800E-02
      0.155000          0.963696E-03
      0.160000          0.860916E-03
      0.165000          0.769016E-03
      0.170000          0.687454E-03
      0.175000          0.615718E-03
      0.180000          0.553273E-03
      0.185000          0.499526E-03
      0.190000          0.453817E-03
      0.195000          0.415426E-03
      0.200000          0.383578E-03
      0.205000          0.357475E-03
      0.210000          0.336314E-03
      0.215000          0.319311E-03
      0.220000          0.305725E-03
      0.225000          0.294872E-03
      0.230000          0.286137E-03
      0.235000          0.278981E-03
      0.240000          0.272942E-03
      0.245000          0.267633E-03
      0.250000          0.262745E-03
      0.255000          0.258035E-03
      0.260000          0.253322E-03
      0.265000          0.248485E-03
      0.270000          0.243451E-03
      0.275000          0.238194E-03
      0.280000          0.232722E-03
      0.285000          0.227075E-03
      0.290000          0.221315E-03
      0.295000          0.215517E-03
      0.300000          0.209763E-03
      0.305000          0.204132E-03
      0.310000          0.198696E-03
      0.315000          0.193513E-03
      0.320000          0.188621E-03
      0.325000          0.184041E-03
      0.330000          0.179772E-03
      0.335000          0.175792E-03
      0.340000          0.172066E-03
      0.345000          0.168548E-03
      0.350000          0.165184E-03
      0.355000          0.161920E-03
      0.360000          0.158706E-03
      0.365000          0.155502E-03
      0.370000          0.152276E-03
      0.375000          0.149013E-03
      0.380000          0.145709E-03
      0.385000          0.142374E-03
      0.390000          0.139028E-03
      0.395000          0.135699E-03
      0.400000          0.132421E-03
      0.405000          0.129230E-03
      0.410000          0.126159E-03
      0.415000          0.123240E-03
      0.420000          0.120496E-03
      0.425000          0.117947E-03
      0.430000          0.115603E-03
      0.435000          0.113468E-03
      0.440000          0.111539E-03
      0.445000          0.109808E-03
      0.450000          0.108262E-03
      0.455000          0.106884E-03
      0.460000          0.105658E-03
      0.465000          0.104565E-03
      0.470000          0.103587E-03
      0.475000          0.102705E-03
      0.480000          0.101905E-03
      0.485000          0.101169E-03
      0.490000          0.100485E-03
      0.495000          0.998403E-04
      0.500000          0.992222E-04
