 I_abs(s)[cm^-1]/c[mg/ml]
       0.00000          0.145238E-01
      0.500000E-02      0.144636E-01
      0.100000E-01      0.142846E-01
      0.150000E-01      0.139914E-01
      0.200000E-01      0.135917E-01
      0.250000E-01      0.130956E-01
      0.300000E-01      0.125154E-01
      0.350000E-01      0.118650E-01
      0.400000E-01      0.111596E-01
      0.450000E-01      0.104146E-01
      0.500000E-01      0.964568E-02
      0.550000E-01      0.886769E-02
      0.600000E-01      0.809455E-02
      0.650000E-01      0.733875E-02
      0.700000E-01      0.661103E-02
      0.750000E-01      0.592023E-02
      0.800000E-01      0.527318E-02
      0.850000E-01      0.467470E-02
      0.900000E-01      0.412772E-02
      0.950000E-01      0.363340E-02
      0.100000          0.319140E-02
      0.105000          0.280010E-02
      0.110000          0.245687E-02
      0.115000          0.215836E-02
      0.120000          0.190072E-02
      0.125000          0.167986E-02
      0.130000          0.149165E-02
      0.135000          0.133203E-02
      0.140000          0.119714E-02
      0.145000          0.108345E-02
      0.150000          0.987712E-03
      0.155000          0.907043E-03
      0.160000          0.838888E-03
      0.165000          0.781014E-03
      0.170000          0.731474E-03
      0.175000          0.688582E-03
      0.180000          0.650888E-03
      0.185000          0.617150E-03
      0.190000          0.586320E-03
      0.195000          0.557533E-03
      0.200000          0.530093E-03
      0.205000          0.503472E-03
      0.210000          0.477303E-03
      0.215000          0.451368E-03
      0.220000          0.425589E-03
      0.225000          0.400013E-03
      0.230000          0.374788E-03
      0.235000          0.350141E-03
      0.240000          0.326348E-03
      0.245000          0.303707E-03
      0.250000          0.282507E-03
      0.255000          0.263005E-03
      0.260000          0.245401E-03
      0.265000          0.229824E-03
      0.270000          0.216323E-03
      0.275000          0.204862E-03
      0.280000          0.195328E-03
      0.285000          0.187539E-03
      0.290000          0.181260E-03
      0.295000          0.176221E-03
      0.300000          0.172137E-03
      0.305000          0.168725E-03
      0.310000          0.165727E-03
      0.315000          0.162917E-03
      0.320000          0.160118E-03
      0.325000          0.157204E-03
      0.330000          0.154100E-03
      0.335000          0.150784E-03
      0.340000          0.147275E-03
      0.345000          0.143626E-03
      0.350000          0.139913E-03
      0.355000          0.136225E-03
      0.360000          0.132651E-03
      0.365000          0.129270E-03
      0.370000          0.126147E-03
      0.375000          0.123326E-03
      0.380000          0.120825E-03
      0.385000          0.118642E-03
      0.390000          0.116752E-03
      0.395000          0.115114E-03
      0.400000          0.113673E-03
      0.405000          0.112371E-03
      0.410000          0.111147E-03
      0.415000          0.109945E-03
      0.420000          0.108720E-03
      0.425000          0.107436E-03
      0.430000          0.106073E-03
      0.435000          0.104624E-03
      0.440000          0.103094E-03
      0.445000          0.101502E-03
      0.450000          0.998737E-04
      0.455000          0.982416E-04
      0.460000          0.966401E-04
      0.465000          0.951032E-04
      0.470000          0.936618E-04
      0.475000          0.923413E-04
      0.480000          0.911606E-04
      0.485000          0.901309E-04
      0.490000          0.892558E-04
      0.495000          0.885320E-04
      0.500000          0.879496E-04
