 I_abs(s)[cm^-1]/c[mg/ml]
       0.00000          0.141615E-01
      0.500000E-02      0.141035E-01
      0.100000E-01      0.139313E-01
      0.150000E-01      0.136494E-01
      0.200000E-01      0.132655E-01
      0.250000E-01      0.127899E-01
      0.300000E-01      0.122349E-01
      0.350000E-01      0.116144E-01
      0.400000E-01      0.109434E-01
      0.450000E-01      0.102372E-01
      0.500000E-01      0.951109E-02
      0.550000E-01      0.877953E-02
      0.600000E-01      0.805581E-02
      0.650000E-01      0.735163E-02
      0.700000E-01      0.667682E-02
      0.750000E-01      0.603914E-02
      0.800000E-01      0.544424E-02
      0.850000E-01      0.489569E-02
      0.900000E-01      0.439513E-02
      0.950000E-01      0.394248E-02
      0.100000          0.353620E-02
      0.105000          0.317364E-02
      0.110000          0.285132E-02
      0.115000          0.256528E-02
      0.120000          0.231134E-02
      0.125000          0.208540E-02
      0.130000          0.188360E-02
      0.135000          0.170250E-02
      0.140000          0.153916E-02
      0.145000          0.139117E-02
      0.150000          0.125666E-02
      0.155000          0.113422E-02
      0.160000          0.102287E-02
      0.165000          0.921943E-03
      0.170000          0.830960E-03
      0.175000          0.749578E-03
      0.180000          0.677479E-03
      0.185000          0.614305E-03
      0.190000          0.559617E-03
      0.195000          0.512861E-03
      0.200000          0.473367E-03
      0.205000          0.440361E-03
      0.210000          0.412991E-03
      0.215000          0.390363E-03
      0.220000          0.371583E-03
      0.225000          0.355793E-03
      0.230000          0.342213E-03
      0.235000          0.330164E-03
      0.240000          0.319090E-03
      0.245000          0.308566E-03
      0.250000          0.298297E-03
      0.255000          0.288108E-03
      0.260000          0.277928E-03
      0.265000          0.267764E-03
      0.270000          0.257682E-03
      0.275000          0.247781E-03
      0.280000          0.238168E-03
      0.285000          0.228944E-03
      0.290000          0.220189E-03
      0.295000          0.211951E-03
      0.300000          0.204250E-03
      0.305000          0.197069E-03
      0.310000          0.190369E-03
      0.315000          0.184093E-03
      0.320000          0.178171E-03
      0.325000          0.172537E-03
      0.330000          0.167130E-03
      0.335000          0.161906E-03
      0.340000          0.156835E-03
      0.345000          0.151912E-03
      0.350000          0.147146E-03
      0.355000          0.142564E-03
      0.360000          0.138206E-03
      0.365000          0.134114E-03
      0.370000          0.130332E-03
      0.375000          0.126897E-03
      0.380000          0.123837E-03
      0.385000          0.121163E-03
      0.390000          0.118873E-03
      0.395000          0.116946E-03
      0.400000          0.115347E-03
      0.405000          0.114028E-03
      0.410000          0.112932E-03
      0.415000          0.111995E-03
      0.420000          0.111155E-03
      0.425000          0.110350E-03
      0.430000          0.109526E-03
      0.435000          0.108641E-03
      0.440000          0.107661E-03
      0.445000          0.106568E-03
      0.450000          0.105354E-03
      0.455000          0.104024E-03
      0.460000          0.102592E-03
      0.465000          0.101082E-03
      0.470000          0.995187E-04
      0.475000          0.979320E-04
      0.480000          0.963497E-04
      0.485000          0.947967E-04
      0.490000          0.932931E-04
      0.495000          0.918526E-04
      0.500000          0.904821E-04
