 I_abs(s)[cm^-1]/c[mg/ml]
       0.00000          0.141928E-01
      0.500000E-02      0.141421E-01
      0.100000E-01      0.139910E-01
      0.150000E-01      0.137426E-01
      0.200000E-01      0.134021E-01
      0.250000E-01      0.129764E-01
      0.300000E-01      0.124743E-01
      0.350000E-01      0.119055E-01
      0.400000E-01      0.112810E-01
      0.450000E-01      0.106127E-01
      0.500000E-01      0.991250E-02
      0.550000E-01      0.919261E-02
      0.600000E-01      0.846487E-02
      0.650000E-01      0.774057E-02
      0.700000E-01      0.703012E-02
      0.750000E-01      0.634284E-02
      0.800000E-01      0.568680E-02
      0.850000E-01      0.506866E-02
      0.900000E-01      0.449361E-02
      0.950000E-01      0.396535E-02
      0.100000          0.348611E-02
      0.105000          0.305672E-02
      0.110000          0.267674E-02
      0.115000          0.234460E-02
      0.120000          0.205777E-02
      0.125000          0.181296E-02
      0.130000          0.160630E-02
      0.135000          0.143355E-02
      0.140000          0.129031E-02
      0.145000          0.117213E-02
      0.150000          0.107472E-02
      0.155000          0.994047E-03
      0.160000          0.926463E-03
      0.165000          0.868749E-03
      0.170000          0.818174E-03
      0.175000          0.772511E-03
      0.180000          0.730031E-03
      0.185000          0.689475E-03
      0.190000          0.650011E-03
      0.195000          0.611179E-03
      0.200000          0.572826E-03
      0.205000          0.535035E-03
      0.210000          0.498062E-03
      0.215000          0.462267E-03
      0.220000          0.428057E-03
      0.225000          0.395836E-03
      0.230000          0.365962E-03
      0.235000          0.338719E-03
      0.240000          0.314299E-03
      0.245000          0.292787E-03
      0.250000          0.274167E-03
      0.255000          0.258324E-03
      0.260000          0.245058E-03
      0.265000          0.234102E-03
      0.270000          0.225141E-03
      0.275000          0.217837E-03
      0.280000          0.211839E-03
      0.285000          0.206813E-03
      0.290000          0.202449E-03
      0.295000          0.198476E-03
      0.300000          0.194673E-03
      0.305000          0.190868E-03
      0.310000          0.186943E-03
      0.315000          0.182831E-03
      0.320000          0.178508E-03
      0.325000          0.173991E-03
      0.330000          0.169324E-03
      0.335000          0.164574E-03
      0.340000          0.159816E-03
      0.345000          0.155133E-03
      0.350000          0.150598E-03
      0.355000          0.146277E-03
      0.360000          0.142220E-03
      0.365000          0.138459E-03
      0.370000          0.135009E-03
      0.375000          0.131864E-03
      0.380000          0.129004E-03
      0.385000          0.126394E-03
      0.390000          0.123991E-03
      0.395000          0.121743E-03
      0.400000          0.119599E-03
      0.405000          0.117507E-03
      0.410000          0.115422E-03
      0.415000          0.113307E-03
      0.420000          0.111135E-03
      0.425000          0.108887E-03
      0.430000          0.106560E-03
      0.435000          0.104157E-03
      0.440000          0.101695E-03
      0.445000          0.991951E-04
      0.450000          0.966869E-04
      0.455000          0.942023E-04
      0.460000          0.917744E-04
      0.465000          0.894353E-04
      0.470000          0.872140E-04
      0.475000          0.851344E-04
      0.480000          0.832144E-04
      0.485000          0.814653E-04
      0.490000          0.798909E-04
      0.495000          0.784884E-04
      0.500000          0.772486E-04
