 I_abs(s)[cm^-1]/c[mg/ml]
       0.00000          0.143578E-01
      0.500000E-02      0.142979E-01
      0.100000E-01      0.141198E-01
      0.150000E-01      0.138284E-01
      0.200000E-01      0.134316E-01
      0.250000E-01      0.129397E-01
      0.300000E-01      0.123656E-01
      0.350000E-01      0.117237E-01
      0.400000E-01      0.110292E-01
      0.450000E-01      0.102983E-01
      0.500000E-01      0.954652E-02
      0.550000E-01      0.878901E-02
      0.600000E-01      0.803960E-02
      0.650000E-01      0.731050E-02
      0.700000E-01      0.661205E-02
      0.750000E-01      0.595246E-02
      0.800000E-01      0.533778E-02
      0.850000E-01      0.477191E-02
      0.900000E-01      0.425676E-02
      0.950000E-01      0.379241E-02
      0.100000          0.337744E-02
      0.105000          0.300919E-02
      0.110000          0.268413E-02
      0.115000          0.239814E-02
      0.120000          0.214683E-02
      0.125000          0.192581E-02
      0.130000          0.173091E-02
      0.135000          0.155830E-02
      0.140000          0.140467E-02
      0.145000          0.126722E-02
      0.150000          0.114368E-02
      0.155000          0.103231E-02
      0.160000          0.931801E-03
      0.165000          0.841192E-03
      0.170000          0.759798E-03
      0.175000          0.687102E-03
      0.180000          0.622675E-03
      0.185000          0.566103E-03
      0.190000          0.516939E-03
      0.195000          0.474665E-03
      0.200000          0.438678E-03
      0.205000          0.408298E-03
      0.210000          0.382779E-03
      0.215000          0.361342E-03
      0.220000          0.343205E-03
      0.225000          0.327621E-03
      0.230000          0.313904E-03
      0.235000          0.301466E-03
      0.240000          0.289827E-03
      0.245000          0.278629E-03
      0.250000          0.267642E-03
      0.255000          0.256748E-03
      0.260000          0.245934E-03
      0.265000          0.235268E-03
      0.270000          0.224878E-03
      0.275000          0.214924E-03
      0.280000          0.205578E-03
      0.285000          0.197003E-03
      0.290000          0.189329E-03
      0.295000          0.182649E-03
      0.300000          0.177003E-03
      0.305000          0.172381E-03
      0.310000          0.168723E-03
      0.315000          0.165925E-03
      0.320000          0.163849E-03
      0.325000          0.162330E-03
      0.330000          0.161195E-03
      0.335000          0.160265E-03
      0.340000          0.159376E-03
      0.345000          0.158381E-03
      0.350000          0.157157E-03
      0.355000          0.155614E-03
      0.360000          0.153694E-03
      0.365000          0.151368E-03
      0.370000          0.148640E-03
      0.375000          0.145538E-03
      0.380000          0.142113E-03
      0.385000          0.138429E-03
      0.390000          0.134560E-03
      0.395000          0.130584E-03
      0.400000          0.126580E-03
      0.405000          0.122620E-03
      0.410000          0.118767E-03
      0.415000          0.115074E-03
      0.420000          0.111584E-03
      0.425000          0.108326E-03
      0.430000          0.105321E-03
      0.435000          0.102575E-03
      0.440000          0.100091E-03
      0.445000          0.978629E-04
      0.450000          0.958803E-04
      0.455000          0.941307E-04
      0.460000          0.926001E-04
      0.465000          0.912746E-04
      0.470000          0.901411E-04
      0.475000          0.891877E-04
      0.480000          0.884040E-04
      0.485000          0.877804E-04
      0.490000          0.873080E-04
      0.495000          0.869778E-04
      0.500000          0.867801E-04
