 I_abs(s)[cm^-1]/c[mg/ml]
       0.00000          0.143736E-01
      0.500000E-02      0.143193E-01
      0.100000E-01      0.141579E-01
      0.150000E-01      0.138935E-01
      0.200000E-01      0.135324E-01
      0.250000E-01      0.130835E-01
      0.300000E-01      0.125574E-01
      0.350000E-01      0.119662E-01
      0.400000E-01      0.113230E-01
      0.450000E-01      0.106413E-01
      0.500000E-01      0.993457E-02
      0.550000E-01      0.921600E-02
      0.600000E-01      0.849779E-02
      0.650000E-01      0.779100E-02
      0.700000E-01      0.710522E-02
      0.750000E-01      0.644839E-02
      0.800000E-01      0.582678E-02
      0.850000E-01      0.524489E-02
      0.900000E-01      0.470563E-02
      0.950000E-01      0.421036E-02
      0.100000          0.375912E-02
      0.105000          0.335087E-02
      0.110000          0.298370E-02
      0.115000          0.265504E-02
      0.120000          0.236197E-02
      0.125000          0.210133E-02
      0.130000          0.186996E-02
      0.135000          0.166482E-02
      0.140000          0.148306E-02
      0.145000          0.132211E-02
      0.150000          0.117971E-02
      0.155000          0.105390E-02
      0.160000          0.942976E-03
      0.165000          0.845489E-03
      0.170000          0.760174E-03
      0.175000          0.685911E-03
      0.180000          0.621675E-03
      0.185000          0.566505E-03
      0.190000          0.519468E-03
      0.195000          0.479652E-03
      0.200000          0.446152E-03
      0.205000          0.418079E-03
      0.210000          0.394568E-03
      0.215000          0.374795E-03
      0.220000          0.357994E-03
      0.225000          0.343472E-03
      0.230000          0.330628E-03
      0.235000          0.318959E-03
      0.240000          0.308066E-03
      0.245000          0.297656E-03
      0.250000          0.287528E-03
      0.255000          0.277572E-03
      0.260000          0.267748E-03
      0.265000          0.258068E-03
      0.270000          0.248587E-03
      0.275000          0.239377E-03
      0.280000          0.230518E-03
      0.285000          0.222083E-03
      0.290000          0.214129E-03
      0.295000          0.206694E-03
      0.300000          0.199790E-03
      0.305000          0.193406E-03
      0.310000          0.187509E-03
      0.315000          0.182052E-03
      0.320000          0.176974E-03
      0.325000          0.172212E-03
      0.330000          0.167700E-03
      0.335000          0.163378E-03
      0.340000          0.159193E-03
      0.345000          0.155105E-03
      0.350000          0.151081E-03
      0.355000          0.147104E-03
      0.360000          0.143165E-03
      0.365000          0.139264E-03
      0.370000          0.135406E-03
      0.375000          0.131605E-03
      0.380000          0.127873E-03
      0.385000          0.124224E-03
      0.390000          0.120674E-03
      0.395000          0.117234E-03
      0.400000          0.113918E-03
      0.405000          0.110736E-03
      0.410000          0.107697E-03
      0.415000          0.104812E-03
      0.420000          0.102090E-03
      0.425000          0.995422E-04
      0.430000          0.971803E-04
      0.435000          0.950165E-04
      0.440000          0.930634E-04
      0.445000          0.913333E-04
      0.450000          0.898369E-04
      0.455000          0.885819E-04
      0.460000          0.875725E-04
      0.465000          0.868073E-04
      0.470000          0.862792E-04
      0.475000          0.859738E-04
      0.480000          0.858697E-04
      0.485000          0.859383E-04
      0.490000          0.861446E-04
      0.495000          0.864480E-04
      0.500000          0.868036E-04
