 I_abs(s)[cm^-1]/c[mg/ml]
       0.00000          0.144130E-01
      0.500000E-02      0.143537E-01
      0.100000E-01      0.141773E-01
      0.150000E-01      0.138889E-01
      0.200000E-01      0.134963E-01
      0.250000E-01      0.130102E-01
      0.300000E-01      0.124435E-01
      0.350000E-01      0.118106E-01
      0.400000E-01      0.111268E-01
      0.450000E-01      0.104079E-01
      0.500000E-01      0.966955E-02
      0.550000E-01      0.892625E-02
      0.600000E-01      0.819139E-02
      0.650000E-01      0.747660E-02
      0.700000E-01      0.679156E-02
      0.750000E-01      0.614381E-02
      0.800000E-01      0.553876E-02
      0.850000E-01      0.497975E-02
      0.900000E-01      0.446824E-02
      0.950000E-01      0.400403E-02
      0.100000          0.358559E-02
      0.105000          0.321033E-02
      0.110000          0.287500E-02
      0.115000          0.257589E-02
      0.120000          0.230918E-02
      0.125000          0.207115E-02
      0.130000          0.185832E-02
      0.135000          0.166759E-02
      0.140000          0.149629E-02
      0.145000          0.134221E-02
      0.150000          0.120355E-02
      0.155000          0.107888E-02
      0.160000          0.967097E-03
      0.165000          0.867285E-03
      0.170000          0.778684E-03
      0.175000          0.700607E-03
      0.180000          0.632383E-03
      0.185000          0.573314E-03
      0.190000          0.522661E-03
      0.195000          0.479629E-03
      0.200000          0.443381E-03
      0.205000          0.413053E-03
      0.210000          0.387778E-03
      0.215000          0.366712E-03
      0.220000          0.349064E-03
      0.225000          0.334113E-03
      0.230000          0.321228E-03
      0.235000          0.309878E-03
      0.240000          0.299634E-03
      0.245000          0.290166E-03
      0.250000          0.281234E-03
      0.255000          0.272678E-03
      0.260000          0.264401E-03
      0.265000          0.256353E-03
      0.270000          0.248518E-03
      0.275000          0.240901E-03
      0.280000          0.233516E-03
      0.285000          0.226376E-03
      0.290000          0.219494E-03
      0.295000          0.212872E-03
      0.300000          0.206506E-03
      0.305000          0.200385E-03
      0.310000          0.194491E-03
      0.315000          0.188807E-03
      0.320000          0.183310E-03
      0.325000          0.177983E-03
      0.330000          0.172809E-03
      0.335000          0.167774E-03
      0.340000          0.162870E-03
      0.345000          0.158091E-03
      0.350000          0.153432E-03
      0.355000          0.148893E-03
      0.360000          0.144472E-03
      0.365000          0.140170E-03
      0.370000          0.135987E-03
      0.375000          0.131922E-03
      0.380000          0.127976E-03
      0.385000          0.124146E-03
      0.390000          0.120436E-03
      0.395000          0.116844E-03
      0.400000          0.113376E-03
      0.405000          0.110037E-03
      0.410000          0.106833E-03
      0.415000          0.103775E-03
      0.420000          0.100875E-03
      0.425000          0.981454E-04
      0.430000          0.956002E-04
      0.435000          0.932525E-04
      0.440000          0.911144E-04
      0.445000          0.891954E-04
      0.450000          0.875020E-04
      0.455000          0.860364E-04
      0.460000          0.847965E-04
      0.465000          0.837753E-04
      0.470000          0.829610E-04
      0.475000          0.823373E-04
      0.480000          0.818840E-04
      0.485000          0.815776E-04
      0.490000          0.813926E-04
      0.495000          0.813019E-04
      0.500000          0.812785E-04
