 I_abs(s)[cm^-1]/c[mg/ml]
       0.00000          0.143499E-01
      0.500000E-02      0.142957E-01
      0.100000E-01      0.141342E-01
      0.150000E-01      0.138695E-01
      0.200000E-01      0.135082E-01
      0.250000E-01      0.130590E-01
      0.300000E-01      0.125325E-01
      0.350000E-01      0.119409E-01
      0.400000E-01      0.112971E-01
      0.450000E-01      0.106149E-01
      0.500000E-01      0.990795E-02
      0.550000E-01      0.918940E-02
      0.600000E-01      0.847167E-02
      0.650000E-01      0.776598E-02
      0.700000E-01      0.708207E-02
      0.750000E-01      0.642804E-02
      0.800000E-01      0.581023E-02
      0.850000E-01      0.523322E-02
      0.900000E-01      0.469986E-02
      0.950000E-01      0.421146E-02
      0.100000          0.376789E-02
      0.105000          0.336787E-02
      0.110000          0.300920E-02
      0.115000          0.268900E-02
      0.120000          0.240397E-02
      0.125000          0.215063E-02
      0.130000          0.192546E-02
      0.135000          0.172514E-02
      0.140000          0.154662E-02
      0.145000          0.138718E-02
      0.150000          0.124453E-02
      0.155000          0.111674E-02
      0.160000          0.100228E-02
      0.165000          0.899894E-03
      0.170000          0.808624E-03
      0.175000          0.727676E-03
      0.180000          0.656382E-03
      0.185000          0.594129E-03
      0.190000          0.540316E-03
      0.195000          0.494309E-03
      0.200000          0.455426E-03
      0.205000          0.422929E-03
      0.210000          0.396027E-03
      0.215000          0.373894E-03
      0.220000          0.355696E-03
      0.225000          0.340615E-03
      0.230000          0.327877E-03
      0.235000          0.316784E-03
      0.240000          0.306729E-03
      0.245000          0.297215E-03
      0.250000          0.287862E-03
      0.255000          0.278408E-03
      0.260000          0.268700E-03
      0.265000          0.258683E-03
      0.270000          0.248384E-03
      0.275000          0.237889E-03
      0.280000          0.227327E-03
      0.285000          0.216844E-03
      0.290000          0.206590E-03
      0.295000          0.196703E-03
      0.300000          0.187296E-03
      0.305000          0.178453E-03
      0.310000          0.170225E-03
      0.315000          0.162630E-03
      0.320000          0.155659E-03
      0.325000          0.149280E-03
      0.330000          0.143445E-03
      0.335000          0.138100E-03
      0.340000          0.133186E-03
      0.345000          0.128653E-03
      0.350000          0.124458E-03
      0.355000          0.120568E-03
      0.360000          0.116965E-03
      0.365000          0.113640E-03
      0.370000          0.110596E-03
      0.375000          0.107838E-03
      0.380000          0.105379E-03
      0.385000          0.103227E-03
      0.390000          0.101387E-03
      0.395000          0.998567E-04
      0.400000          0.986266E-04
      0.405000          0.976766E-04
      0.410000          0.969779E-04
      0.415000          0.964938E-04
      0.420000          0.961817E-04
      0.425000          0.959954E-04
      0.430000          0.958878E-04
      0.435000          0.958137E-04
      0.440000          0.957324E-04
      0.445000          0.956094E-04
      0.450000          0.954181E-04
      0.455000          0.951409E-04
      0.460000          0.947686E-04
      0.465000          0.943005E-04
      0.470000          0.937430E-04
      0.475000          0.931083E-04
      0.480000          0.924122E-04
      0.485000          0.916726E-04
      0.490000          0.909074E-04
      0.495000          0.901329E-04
      0.500000          0.893621E-04
