 I_abs(s)[cm^-1]/c[mg/ml]
       0.00000          0.139122E-01
      0.500000E-02      0.138384E-01
      0.100000E-01      0.136194E-01
      0.150000E-01      0.132624E-01
      0.200000E-01      0.127788E-01
      0.250000E-01      0.121838E-01
      0.300000E-01      0.114956E-01
      0.350000E-01      0.107345E-01
      0.400000E-01      0.992213E-02
      0.450000E-01      0.908007E-02
      0.500000E-01      0.822931E-02
      0.550000E-01      0.738927E-02
      0.600000E-01      0.657711E-02
      0.650000E-01      0.580727E-02
      0.700000E-01      0.509111E-02
      0.750000E-01      0.443676E-02
      0.800000E-01      0.384922E-02
      0.850000E-01      0.333051E-02
      0.900000E-01      0.288003E-02
      0.950000E-01      0.249500E-02
      0.100000          0.217090E-02
      0.105000          0.190203E-02
      0.110000          0.168192E-02
      0.115000          0.150384E-02
      0.120000          0.136109E-02
      0.125000          0.124738E-02
      0.130000          0.115695E-02
      0.135000          0.108474E-02
      0.140000          0.102646E-02
      0.145000          0.978535E-03
      0.150000          0.938077E-03
      0.155000          0.902809E-03
      0.160000          0.870962E-03
      0.165000          0.841183E-03
      0.170000          0.812447E-03
      0.175000          0.783986E-03
      0.180000          0.755239E-03
      0.185000          0.725808E-03
      0.190000          0.695446E-03
      0.195000          0.664039E-03
      0.200000          0.631604E-03
      0.205000          0.598280E-03
      0.210000          0.564325E-03
      0.215000          0.530098E-03
      0.220000          0.496038E-03
      0.225000          0.462636E-03
      0.230000          0.430402E-03
      0.235000          0.399830E-03
      0.240000          0.371361E-03
      0.245000          0.345356E-03
      0.250000          0.322067E-03
      0.255000          0.301626E-03
      0.260000          0.284037E-03
      0.265000          0.269185E-03
      0.270000          0.256847E-03
      0.275000          0.246716E-03
      0.280000          0.238427E-03
      0.285000          0.231589E-03
      0.290000          0.225808E-03
      0.295000          0.220723E-03
      0.300000          0.216017E-03
      0.305000          0.211437E-03
      0.310000          0.206804E-03
      0.315000          0.202009E-03
      0.320000          0.197011E-03
      0.325000          0.191827E-03
      0.330000          0.186519E-03
      0.335000          0.181179E-03
      0.340000          0.175912E-03
      0.345000          0.170825E-03
      0.350000          0.166014E-03
      0.355000          0.161557E-03
      0.360000          0.157504E-03
      0.365000          0.153883E-03
      0.370000          0.150694E-03
      0.375000          0.147914E-03
      0.380000          0.145505E-03
      0.385000          0.143415E-03
      0.390000          0.141583E-03
      0.395000          0.139949E-03
      0.400000          0.138452E-03
      0.405000          0.137035E-03
      0.410000          0.135649E-03
      0.415000          0.134248E-03
      0.420000          0.132795E-03
      0.425000          0.131257E-03
      0.430000          0.129607E-03
      0.435000          0.127823E-03
      0.440000          0.125887E-03
      0.445000          0.123787E-03
      0.450000          0.121516E-03
      0.455000          0.119073E-03
      0.460000          0.116468E-03
      0.465000          0.113716E-03
      0.470000          0.110841E-03
      0.475000          0.107879E-03
      0.480000          0.104868E-03
      0.485000          0.101857E-03
      0.490000          0.988918E-04
      0.495000          0.960224E-04
      0.500000          0.932928E-04
