 I_abs(s)[cm^-1]/c[mg/ml]
       0.00000          0.145238E-01
      0.500000E-02      0.144602E-01
      0.100000E-01      0.142713E-01
      0.150000E-01      0.139623E-01
      0.200000E-01      0.135416E-01
      0.250000E-01      0.130203E-01
      0.300000E-01      0.124123E-01
      0.350000E-01      0.117328E-01
      0.400000E-01      0.109985E-01
      0.450000E-01      0.102265E-01
      0.500000E-01      0.943357E-02
      0.550000E-01      0.863599E-02
      0.600000E-01      0.784864E-02
      0.650000E-01      0.708466E-02
      0.700000E-01      0.635517E-02
      0.750000E-01      0.566900E-02
      0.800000E-01      0.503264E-02
      0.850000E-01      0.445025E-02
      0.900000E-01      0.392380E-02
      0.950000E-01      0.345329E-02
      0.100000          0.303706E-02
      0.105000          0.267205E-02
      0.110000          0.235426E-02
      0.115000          0.207899E-02
      0.120000          0.184126E-02
      0.125000          0.163604E-02
      0.130000          0.145851E-02
      0.135000          0.130426E-02
      0.140000          0.116940E-02
      0.145000          0.105065E-02
      0.150000          0.945322E-03
      0.155000          0.851313E-03
      0.160000          0.767052E-03
      0.165000          0.691402E-03
      0.170000          0.623569E-03
      0.175000          0.563002E-03
      0.180000          0.509301E-03
      0.185000          0.462135E-03
      0.190000          0.421181E-03
      0.195000          0.386083E-03
      0.200000          0.356420E-03
      0.205000          0.331705E-03
      0.210000          0.311390E-03
      0.215000          0.294885E-03
      0.220000          0.281582E-03
      0.225000          0.270884E-03
      0.230000          0.262226E-03
      0.235000          0.255105E-03
      0.240000          0.249090E-03
      0.245000          0.243832E-03
      0.250000          0.239068E-03
      0.255000          0.234617E-03
      0.260000          0.230364E-03
      0.265000          0.226256E-03
      0.270000          0.222276E-03
      0.275000          0.218436E-03
      0.280000          0.214759E-03
      0.285000          0.211265E-03
      0.290000          0.207967E-03
      0.295000          0.204862E-03
      0.300000          0.201933E-03
      0.305000          0.199147E-03
      0.310000          0.196460E-03
      0.315000          0.193823E-03
      0.320000          0.191185E-03
      0.325000          0.188500E-03
      0.330000          0.185733E-03
      0.335000          0.182859E-03
      0.340000          0.179867E-03
      0.345000          0.176760E-03
      0.350000          0.173554E-03
      0.355000          0.170272E-03
      0.360000          0.166946E-03
      0.365000          0.163607E-03
      0.370000          0.160287E-03
      0.375000          0.157014E-03
      0.380000          0.153811E-03
      0.385000          0.150693E-03
      0.390000          0.147669E-03
      0.395000          0.144743E-03
      0.400000          0.141913E-03
      0.405000          0.139175E-03
      0.410000          0.136524E-03
      0.415000          0.133958E-03
      0.420000          0.131476E-03
      0.425000          0.129083E-03
      0.430000          0.126787E-03
      0.435000          0.124599E-03
      0.440000          0.122535E-03
      0.445000          0.120611E-03
      0.450000          0.118845E-03
      0.455000          0.117249E-03
      0.460000          0.115834E-03
      0.465000          0.114604E-03
      0.470000          0.113559E-03
      0.475000          0.112689E-03
      0.480000          0.111977E-03
      0.485000          0.111402E-03
      0.490000          0.110936E-03
      0.495000          0.110547E-03
      0.500000          0.110203E-03
