 I_abs(s)[cm^-1]/c[mg/ml]
       0.00000          0.142007E-01
      0.500000E-02      0.141412E-01
      0.100000E-01      0.139645E-01
      0.150000E-01      0.136754E-01
      0.200000E-01      0.132821E-01
      0.250000E-01      0.127951E-01
      0.300000E-01      0.122274E-01
      0.350000E-01      0.115935E-01
      0.400000E-01      0.109090E-01
      0.450000E-01      0.101899E-01
      0.500000E-01      0.945208E-02
      0.550000E-01      0.871045E-02
      0.600000E-01      0.797876E-02
      0.650000E-01      0.726901E-02
      0.700000E-01      0.659122E-02
      0.750000E-01      0.595322E-02
      0.800000E-01      0.536061E-02
      0.850000E-01      0.481678E-02
      0.900000E-01      0.432313E-02
      0.950000E-01      0.387922E-02
      0.100000          0.348313E-02
      0.105000          0.313177E-02
      0.110000          0.282122E-02
      0.115000          0.254705E-02
      0.120000          0.230470E-02
      0.125000          0.208965E-02
      0.130000          0.189773E-02
      0.135000          0.172521E-02
      0.140000          0.156893E-02
      0.145000          0.142636E-02
      0.150000          0.129553E-02
      0.155000          0.117505E-02
      0.160000          0.106398E-02
      0.165000          0.961755E-03
      0.170000          0.868064E-03
      0.175000          0.782761E-03
      0.180000          0.705755E-03
      0.185000          0.636940E-03
      0.190000          0.576131E-03
      0.195000          0.523029E-03
      0.200000          0.477205E-03
      0.205000          0.438100E-03
      0.210000          0.405050E-03
      0.215000          0.377307E-03
      0.220000          0.354083E-03
      0.225000          0.334581E-03
      0.230000          0.318038E-03
      0.235000          0.303752E-03
      0.240000          0.291109E-03
      0.245000          0.279598E-03
      0.250000          0.268820E-03
      0.255000          0.258483E-03
      0.260000          0.248401E-03
      0.265000          0.238476E-03
      0.270000          0.228682E-03
      0.275000          0.219047E-03
      0.280000          0.209637E-03
      0.285000          0.200535E-03
      0.290000          0.191827E-03
      0.295000          0.183594E-03
      0.300000          0.175899E-03
      0.305000          0.168786E-03
      0.310000          0.162277E-03
      0.315000          0.156373E-03
      0.320000          0.151055E-03
      0.325000          0.146290E-03
      0.330000          0.142035E-03
      0.335000          0.138240E-03
      0.340000          0.134853E-03
      0.345000          0.131822E-03
      0.350000          0.129099E-03
      0.355000          0.126640E-03
      0.360000          0.124408E-03
      0.365000          0.122367E-03
      0.370000          0.120490E-03
      0.375000          0.118753E-03
      0.380000          0.117133E-03
      0.385000          0.115612E-03
      0.390000          0.114174E-03
      0.395000          0.112804E-03
      0.400000          0.111489E-03
      0.405000          0.110217E-03
      0.410000          0.108978E-03
      0.415000          0.107766E-03
      0.420000          0.106575E-03
      0.425000          0.105403E-03
      0.430000          0.104249E-03
      0.435000          0.103116E-03
      0.440000          0.102009E-03
      0.445000          0.100934E-03
      0.450000          0.998972E-04
      0.455000          0.989072E-04
      0.460000          0.979710E-04
      0.465000          0.970946E-04
      0.470000          0.962826E-04
      0.475000          0.955373E-04
      0.480000          0.948583E-04
      0.485000          0.942426E-04
      0.490000          0.936842E-04
      0.495000          0.931745E-04
      0.500000          0.927021E-04
