 I_abs(s)[cm^-1]/c[mg/ml]
       0.00000          0.144604E-01
      0.500000E-02      0.144153E-01
      0.100000E-01      0.142809E-01
      0.150000E-01      0.140597E-01
      0.200000E-01      0.137563E-01
      0.250000E-01      0.133765E-01
      0.300000E-01      0.129276E-01
      0.350000E-01      0.124180E-01
      0.400000E-01      0.118570E-01
      0.450000E-01      0.112543E-01
      0.500000E-01      0.106202E-01
      0.550000E-01      0.996484E-02
      0.600000E-01      0.929803E-02
      0.650000E-01      0.862918E-02
      0.700000E-01      0.796694E-02
      0.750000E-01      0.731907E-02
      0.800000E-01      0.669232E-02
      0.850000E-01      0.609228E-02
      0.900000E-01      0.552343E-02
      0.950000E-01      0.498907E-02
      0.100000          0.449138E-02
      0.105000          0.403154E-02
      0.110000          0.360975E-02
      0.115000          0.322543E-02
      0.120000          0.287732E-02
      0.125000          0.256365E-02
      0.130000          0.228222E-02
      0.135000          0.203061E-02
      0.140000          0.180626E-02
      0.145000          0.160660E-02
      0.150000          0.142911E-02
      0.155000          0.127141E-02
      0.160000          0.113129E-02
      0.165000          0.100678E-02
      0.170000          0.896119E-03
      0.175000          0.797768E-03
      0.180000          0.710408E-03
      0.185000          0.632907E-03
      0.190000          0.564298E-03
      0.195000          0.503748E-03
      0.200000          0.450532E-03
      0.205000          0.404002E-03
      0.210000          0.363567E-03
      0.215000          0.328674E-03
      0.220000          0.298795E-03
      0.225000          0.273416E-03
      0.230000          0.252039E-03
      0.235000          0.234177E-03
      0.240000          0.219357E-03
      0.245000          0.207131E-03
      0.250000          0.197076E-03
      0.255000          0.188802E-03
      0.260000          0.181958E-03
      0.265000          0.176237E-03
      0.270000          0.171374E-03
      0.275000          0.167151E-03
      0.280000          0.163392E-03
      0.285000          0.159960E-03
      0.290000          0.156756E-03
      0.295000          0.153708E-03
      0.300000          0.150770E-03
      0.305000          0.147912E-03
      0.310000          0.145118E-03
      0.315000          0.142377E-03
      0.320000          0.139683E-03
      0.325000          0.137029E-03
      0.330000          0.134409E-03
      0.335000          0.131811E-03
      0.340000          0.129223E-03
      0.345000          0.126631E-03
      0.350000          0.124019E-03
      0.355000          0.121374E-03
      0.360000          0.118685E-03
      0.365000          0.115945E-03
      0.370000          0.113151E-03
      0.375000          0.110308E-03
      0.380000          0.107425E-03
      0.385000          0.104518E-03
      0.390000          0.101606E-03
      0.395000          0.987151E-04
      0.400000          0.958710E-04
      0.405000          0.931023E-04
      0.410000          0.904369E-04
      0.415000          0.879010E-04
      0.420000          0.855181E-04
      0.425000          0.833078E-04
      0.430000          0.812851E-04
      0.435000          0.794600E-04
      0.440000          0.778375E-04
      0.445000          0.764179E-04
      0.450000          0.751966E-04
      0.455000          0.741657E-04
      0.460000          0.733139E-04
      0.465000          0.726275E-04
      0.470000          0.720916E-04
      0.475000          0.716905E-04
      0.480000          0.714083E-04
      0.485000          0.712300E-04
      0.490000          0.711415E-04
      0.495000          0.711302E-04
      0.500000          0.711850E-04
