 I_abs(s)[cm^-1]/c[mg/ml]
       0.00000          0.149308E-01
      0.500000E-02      0.148823E-01
      0.100000E-01      0.147377E-01
      0.150000E-01      0.144998E-01
      0.200000E-01      0.141730E-01
      0.250000E-01      0.137632E-01
      0.300000E-01      0.132779E-01
      0.350000E-01      0.127257E-01
      0.400000E-01      0.121163E-01
      0.450000E-01      0.114598E-01
      0.500000E-01      0.107671E-01
      0.550000E-01      0.100488E-01
      0.600000E-01      0.931577E-02
      0.650000E-01      0.857833E-02
      0.700000E-01      0.784619E-02
      0.750000E-01      0.712830E-02
      0.800000E-01      0.643261E-02
      0.850000E-01      0.576601E-02
      0.900000E-01      0.513423E-02
      0.950000E-01      0.454177E-02
      0.100000          0.399195E-02
      0.105000          0.348690E-02
      0.110000          0.302766E-02
      0.115000          0.261427E-02
      0.120000          0.224585E-02
      0.125000          0.192077E-02
      0.130000          0.163677E-02
      0.135000          0.139111E-02
      0.140000          0.118070E-02
      0.145000          0.100222E-02
      0.150000          0.852268E-03
      0.155000          0.727460E-03
      0.160000          0.624504E-03
      0.165000          0.540282E-03
      0.170000          0.471911E-03
      0.175000          0.416776E-03
      0.180000          0.372552E-03
      0.185000          0.337216E-03
      0.190000          0.309039E-03
      0.195000          0.286574E-03
      0.200000          0.268636E-03
      0.205000          0.254269E-03
      0.210000          0.242723E-03
      0.215000          0.233414E-03
      0.220000          0.225900E-03
      0.225000          0.219846E-03
      0.230000          0.215001E-03
      0.235000          0.211172E-03
      0.240000          0.208205E-03
      0.245000          0.205972E-03
      0.250000          0.204354E-03
      0.255000          0.203240E-03
      0.260000          0.202519E-03
      0.265000          0.202077E-03
      0.270000          0.201801E-03
      0.275000          0.201576E-03
      0.280000          0.201295E-03
      0.285000          0.200854E-03
      0.290000          0.200161E-03
      0.295000          0.199140E-03
      0.300000          0.197730E-03
      0.305000          0.195887E-03
      0.310000          0.193590E-03
      0.315000          0.190835E-03
      0.320000          0.187638E-03
      0.325000          0.184033E-03
      0.330000          0.180068E-03
      0.335000          0.175804E-03
      0.340000          0.171312E-03
      0.345000          0.166669E-03
      0.350000          0.161952E-03
      0.355000          0.157242E-03
      0.360000          0.152614E-03
      0.365000          0.148136E-03
      0.370000          0.143869E-03
      0.375000          0.139864E-03
      0.380000          0.136161E-03
      0.385000          0.132789E-03
      0.390000          0.129763E-03
      0.395000          0.127089E-03
      0.400000          0.124762E-03
      0.405000          0.122767E-03
      0.410000          0.121083E-03
      0.415000          0.119680E-03
      0.420000          0.118525E-03
      0.425000          0.117582E-03
      0.430000          0.116814E-03
      0.435000          0.116182E-03
      0.440000          0.115650E-03
      0.445000          0.115185E-03
      0.450000          0.114755E-03
      0.455000          0.114334E-03
      0.460000          0.113898E-03
      0.465000          0.113429E-03
      0.470000          0.112911E-03
      0.475000          0.112334E-03
      0.480000          0.111689E-03
      0.485000          0.110974E-03
      0.490000          0.110186E-03
      0.495000          0.109325E-03
      0.500000          0.108394E-03
