 I_abs(s)[cm^-1]/c[mg/ml]
       0.00000          0.119182E-01
      0.500000E-02      0.116558E-01
      0.100000E-01      0.109167E-01
      0.150000E-01      0.983171E-02
      0.200000E-01      0.857954E-02
      0.250000E-01      0.734120E-02
      0.300000E-01      0.625845E-02
      0.350000E-01      0.540800E-02
      0.400000E-01      0.479739E-02
      0.450000E-01      0.438058E-02
      0.500000E-01      0.408506E-02
      0.550000E-01      0.384004E-02
      0.600000E-01      0.359659E-02
      0.650000E-01      0.333519E-02
      0.700000E-01      0.306131E-02
      0.750000E-01      0.279388E-02
      0.800000E-01      0.255248E-02
      0.850000E-01      0.234840E-02
      0.900000E-01      0.218154E-02
      0.950000E-01      0.204282E-02
      0.100000          0.191931E-02
      0.105000          0.179956E-02
      0.110000          0.167691E-02
      0.115000          0.155034E-02
      0.120000          0.142321E-02
      0.125000          0.130110E-02
      0.130000          0.118958E-02
      0.135000          0.109263E-02
      0.140000          0.101173E-02
      0.145000          0.945790E-03
      0.150000          0.891546E-03
      0.155000          0.844599E-03
      0.160000          0.800677E-03
      0.165000          0.756913E-03
      0.170000          0.712667E-03
      0.175000          0.669554E-03
      0.180000          0.630586E-03
      0.185000          0.598724E-03
      0.190000          0.575414E-03
      0.195000          0.559746E-03
      0.200000          0.548603E-03
      0.205000          0.537756E-03
      0.210000          0.523402E-03
      0.215000          0.503505E-03
      0.220000          0.478356E-03
      0.225000          0.450189E-03
      0.230000          0.422075E-03
      0.235000          0.396648E-03
      0.240000          0.375197E-03
      0.245000          0.357454E-03
      0.250000          0.342060E-03
      0.255000          0.327382E-03
      0.260000          0.312272E-03
      0.265000          0.296439E-03
      0.270000          0.280363E-03
      0.275000          0.264867E-03
      0.280000          0.250645E-03
      0.285000          0.237955E-03
      0.290000          0.226602E-03
      0.295000          0.216143E-03
      0.300000          0.206160E-03
      0.305000          0.196463E-03
      0.310000          0.187115E-03
      0.315000          0.178326E-03
      0.320000          0.170287E-03
      0.325000          0.163047E-03
      0.330000          0.156493E-03
      0.335000          0.150403E-03
      0.340000          0.144554E-03
      0.345000          0.138788E-03
      0.350000          0.133040E-03
      0.355000          0.127307E-03
      0.360000          0.121605E-03
      0.365000          0.115945E-03
      0.370000          0.110333E-03
      0.375000          0.104801E-03
      0.380000          0.994216E-04
      0.385000          0.943137E-04
      0.390000          0.896083E-04
      0.395000          0.854087E-04
      0.400000          0.817580E-04
      0.405000          0.786329E-04
      0.410000          0.759655E-04
      0.415000          0.736796E-04
      0.420000          0.717192E-04
      0.425000          0.700553E-04
      0.430000          0.686687E-04
      0.435000          0.675231E-04
      0.440000          0.665451E-04
      0.445000          0.656286E-04
      0.450000          0.646601E-04
      0.455000          0.635565E-04
      0.460000          0.622921E-04
      0.465000          0.609032E-04
      0.470000          0.594668E-04
      0.475000          0.580655E-04
      0.480000          0.567560E-04
      0.485000          0.555551E-04
      0.490000          0.544479E-04
      0.495000          0.534078E-04
      0.500000          0.524165E-04
