 I_abs(s)[cm^-1]/c[mg/ml]
       0.00000          0.116256E-01
      0.500000E-02      0.113424E-01
      0.100000E-01      0.105461E-01
      0.150000E-01      0.938221E-02
      0.200000E-01      0.804866E-02
      0.250000E-01      0.674515E-02
      0.300000E-01      0.562669E-02
      0.350000E-01      0.477531E-02
      0.400000E-01      0.419605E-02
      0.450000E-01      0.383462E-02
      0.500000E-01      0.360775E-02
      0.550000E-01      0.343412E-02
      0.600000E-01      0.325624E-02
      0.650000E-01      0.304861E-02
      0.700000E-01      0.281325E-02
      0.750000E-01      0.256781E-02
      0.800000E-01      0.233273E-02
      0.850000E-01      0.212228E-02
      0.900000E-01      0.194142E-02
      0.950000E-01      0.178747E-02
      0.100000          0.165404E-02
      0.105000          0.153478E-02
      0.110000          0.142534E-02
      0.115000          0.132356E-02
      0.120000          0.122869E-02
      0.125000          0.114055E-02
      0.130000          0.105911E-02
      0.135000          0.984523E-03
      0.140000          0.917149E-03
      0.145000          0.857364E-03
      0.150000          0.805134E-03
      0.155000          0.759641E-03
      0.160000          0.719281E-03
      0.165000          0.682142E-03
      0.170000          0.646757E-03
      0.175000          0.612733E-03
      0.180000          0.580879E-03
      0.185000          0.552753E-03
      0.190000          0.529794E-03
      0.195000          0.512486E-03
      0.200000          0.499929E-03
      0.205000          0.490008E-03
      0.210000          0.480079E-03
      0.215000          0.467835E-03
      0.220000          0.452010E-03
      0.225000          0.432647E-03
      0.230000          0.410912E-03
      0.235000          0.388568E-03
      0.240000          0.367352E-03
      0.245000          0.348486E-03
      0.250000          0.332427E-03
      0.255000          0.318896E-03
      0.260000          0.307096E-03
      0.265000          0.296024E-03
      0.270000          0.284765E-03
      0.275000          0.272708E-03
      0.280000          0.259653E-03
      0.285000          0.245795E-03
      0.290000          0.231631E-03
      0.295000          0.217820E-03
      0.300000          0.205031E-03
      0.305000          0.193812E-03
      0.310000          0.184492E-03
      0.315000          0.177121E-03
      0.320000          0.171455E-03
      0.325000          0.166986E-03
      0.330000          0.163021E-03
      0.335000          0.158834E-03
      0.340000          0.153833E-03
      0.345000          0.147725E-03
      0.350000          0.140604E-03
      0.355000          0.132918E-03
      0.360000          0.125317E-03
      0.365000          0.118431E-03
      0.370000          0.112655E-03
      0.375000          0.108039E-03
      0.380000          0.104309E-03
      0.385000          0.101015E-03
      0.390000          0.977296E-04
      0.395000          0.942063E-04
      0.400000          0.904331E-04
      0.405000          0.865807E-04
      0.410000          0.828794E-04
      0.415000          0.794999E-04
      0.420000          0.764906E-04
      0.425000          0.737927E-04
      0.430000          0.713064E-04
      0.435000          0.689622E-04
      0.440000          0.667570E-04
      0.445000          0.647395E-04
      0.450000          0.629656E-04
      0.455000          0.614544E-04
      0.460000          0.601731E-04
      0.465000          0.590573E-04
      0.470000          0.580474E-04
      0.475000          0.571159E-04
      0.480000          0.562681E-04
      0.485000          0.555171E-04
      0.490000          0.548554E-04
      0.495000          0.542458E-04
      0.500000          0.536408E-04
