 I_abs(s)[cm^-1]/c[mg/ml]
       0.00000          0.120622E-01
      0.500000E-02      0.118064E-01
      0.100000E-01      0.110851E-01
      0.150000E-01      0.100237E-01
      0.200000E-01      0.879282E-02
      0.250000E-01      0.756431E-02
      0.300000E-01      0.647157E-02
      0.350000E-01      0.558605E-02
      0.400000E-01      0.491478E-02
      0.450000E-01      0.441657E-02
      0.500000E-01      0.402829E-02
      0.550000E-01      0.369079E-02
      0.600000E-01      0.336619E-02
      0.650000E-01      0.304277E-02
      0.700000E-01      0.272906E-02
      0.750000E-01      0.244240E-02
      0.800000E-01      0.219768E-02
      0.850000E-01      0.200057E-02
      0.900000E-01      0.184664E-02
      0.950000E-01      0.172491E-02
      0.100000          0.162297E-02
      0.105000          0.153121E-02
      0.110000          0.144454E-02
      0.115000          0.136179E-02
      0.120000          0.128385E-02
      0.125000          0.121175E-02
      0.130000          0.114565E-02
      0.135000          0.108474E-02
      0.140000          0.102789E-02
      0.145000          0.974146E-03
      0.150000          0.923095E-03
      0.155000          0.874685E-03
      0.160000          0.828920E-03
      0.165000          0.785590E-03
      0.170000          0.744216E-03
      0.175000          0.704219E-03
      0.180000          0.665158E-03
      0.185000          0.626924E-03
      0.190000          0.589760E-03
      0.195000          0.554156E-03
      0.200000          0.520660E-03
      0.205000          0.489719E-03
      0.210000          0.461589E-03
      0.215000          0.436326E-03
      0.220000          0.413824E-03
      0.225000          0.393849E-03
      0.230000          0.376075E-03
      0.235000          0.360097E-03
      0.240000          0.345467E-03
      0.245000          0.331762E-03
      0.250000          0.318673E-03
      0.255000          0.306092E-03
      0.260000          0.294141E-03
      0.265000          0.283100E-03
      0.270000          0.273246E-03
      0.275000          0.264646E-03
      0.280000          0.257005E-03
      0.285000          0.249652E-03
      0.290000          0.241696E-03
      0.295000          0.232331E-03
      0.300000          0.221146E-03
      0.305000          0.208325E-03
      0.310000          0.194618E-03
      0.315000          0.181098E-03
      0.320000          0.168784E-03
      0.325000          0.158305E-03
      0.330000          0.149735E-03
      0.335000          0.142663E-03
      0.340000          0.136448E-03
      0.345000          0.130536E-03
      0.350000          0.124679E-03
      0.355000          0.118995E-03
      0.360000          0.113841E-03
      0.365000          0.109603E-03
      0.370000          0.106489E-03
      0.375000          0.104440E-03
      0.380000          0.103159E-03
      0.385000          0.102231E-03
      0.390000          0.101277E-03
      0.395000          0.100050E-03
      0.400000          0.984620E-04
      0.405000          0.965345E-04
      0.410000          0.943301E-04
      0.415000          0.918978E-04
      0.420000          0.892653E-04
      0.425000          0.864695E-04
      0.430000          0.835951E-04
      0.435000          0.807851E-04
      0.440000          0.782079E-04
      0.445000          0.759948E-04
      0.450000          0.741839E-04
      0.455000          0.727048E-04
      0.460000          0.714144E-04
      0.465000          0.701649E-04
      0.470000          0.688661E-04
      0.475000          0.675087E-04
      0.480000          0.661459E-04
      0.485000          0.648492E-04
      0.490000          0.636721E-04
      0.495000          0.626388E-04
      0.500000          0.617551E-04
