 I_abs(s)[cm^-1]/c[mg/ml]
       0.00000          0.122798E-01
      0.500000E-02      0.120251E-01
      0.100000E-01      0.113057E-01
      0.150000E-01      0.102433E-01
      0.200000E-01      0.900475E-02
      0.250000E-01      0.775998E-02
      0.300000E-01      0.664410E-02
      0.350000E-01      0.573375E-02
      0.400000E-01      0.504320E-02
      0.450000E-01      0.453805E-02
      0.500000E-01      0.415913E-02
      0.550000E-01      0.384698E-02
      0.600000E-01      0.355922E-02
      0.650000E-01      0.327693E-02
      0.700000E-01      0.300102E-02
      0.750000E-01      0.274282E-02
      0.800000E-01      0.251414E-02
      0.850000E-01      0.232051E-02
      0.900000E-01      0.215939E-02
      0.950000E-01      0.202226E-02
      0.100000          0.189873E-02
      0.105000          0.178016E-02
      0.110000          0.166180E-02
      0.115000          0.154295E-02
      0.120000          0.142582E-02
      0.125000          0.131407E-02
      0.130000          0.121138E-02
      0.135000          0.112059E-02
      0.140000          0.104315E-02
      0.145000          0.978913E-03
      0.150000          0.926217E-03
      0.155000          0.882190E-03
      0.160000          0.843398E-03
      0.165000          0.806652E-03
      0.170000          0.769760E-03
      0.175000          0.731956E-03
      0.180000          0.693826E-03
      0.185000          0.656790E-03
      0.190000          0.622353E-03
      0.195000          0.591438E-03
      0.200000          0.564060E-03
      0.205000          0.539406E-03
      0.210000          0.516243E-03
      0.215000          0.493419E-03
      0.220000          0.470249E-03
      0.225000          0.446663E-03
      0.230000          0.423096E-03
      0.235000          0.400240E-03
      0.240000          0.378769E-03
      0.245000          0.359147E-03
      0.250000          0.341558E-03
      0.255000          0.325939E-03
      0.260000          0.312054E-03
      0.265000          0.299579E-03
      0.270000          0.288155E-03
      0.275000          0.277424E-03
      0.280000          0.267048E-03
      0.285000          0.256740E-03
      0.290000          0.246298E-03
      0.295000          0.235636E-03
      0.300000          0.224800E-03
      0.305000          0.213956E-03
      0.310000          0.203346E-03
      0.315000          0.193217E-03
      0.320000          0.183756E-03
      0.325000          0.175044E-03
      0.330000          0.167035E-03
      0.335000          0.159589E-03
      0.340000          0.152518E-03
      0.345000          0.145653E-03
      0.350000          0.138887E-03
      0.355000          0.132198E-03
      0.360000          0.125644E-03
      0.365000          0.119330E-03
      0.370000          0.113371E-03
      0.375000          0.107856E-03
      0.380000          0.102829E-03
      0.385000          0.982820E-04
      0.390000          0.941614E-04
      0.395000          0.903913E-04
      0.400000          0.868973E-04
      0.405000          0.836309E-04
      0.410000          0.805838E-04
      0.415000          0.777869E-04
      0.420000          0.752922E-04
      0.425000          0.731435E-04
      0.430000          0.713473E-04
      0.435000          0.698548E-04
      0.440000          0.685658E-04
      0.445000          0.673506E-04
      0.450000          0.660841E-04
      0.455000          0.646788E-04
      0.460000          0.631051E-04
      0.465000          0.613956E-04
      0.470000          0.596331E-04
      0.475000          0.579280E-04
      0.480000          0.563893E-04
      0.485000          0.550972E-04
      0.490000          0.540806E-04
      0.495000          0.533070E-04
      0.500000          0.526896E-04
