 I_abs(s)[cm^-1]/c[mg/ml]
       0.00000          0.126100E-01
      0.500000E-02      0.123911E-01
      0.100000E-01      0.117669E-01
      0.150000E-01      0.108272E-01
      0.200000E-01      0.969835E-02
      0.250000E-01      0.851544E-02
      0.300000E-01      0.739510E-02
      0.350000E-01      0.641636E-02
      0.400000E-01      0.561341E-02
      0.450000E-01      0.498045E-02
      0.500000E-01      0.448534E-02
      0.550000E-01      0.408642E-02
      0.600000E-01      0.374703E-02
      0.650000E-01      0.344391E-02
      0.700000E-01      0.316842E-02
      0.750000E-01      0.292209E-02
      0.800000E-01      0.270969E-02
      0.850000E-01      0.253300E-02
      0.900000E-01      0.238765E-02
      0.950000E-01      0.226360E-02
      0.100000          0.214829E-02
      0.105000          0.203072E-02
      0.110000          0.190462E-02
      0.115000          0.176959E-02
      0.120000          0.163012E-02
      0.125000          0.149321E-02
      0.130000          0.136568E-02
      0.135000          0.125224E-02
      0.140000          0.115468E-02
      0.145000          0.107232E-02
      0.150000          0.100304E-02
      0.155000          0.944397E-03
      0.160000          0.894353E-03
      0.165000          0.851454E-03
      0.170000          0.814571E-03
      0.175000          0.782503E-03
      0.180000          0.753713E-03
      0.185000          0.726355E-03
      0.190000          0.698565E-03
      0.195000          0.668863E-03
      0.200000          0.636501E-03
      0.205000          0.601592E-03
      0.210000          0.565002E-03
      0.215000          0.528043E-03
      0.220000          0.492100E-03
      0.225000          0.458298E-03
      0.230000          0.427312E-03
      0.235000          0.399327E-03
      0.240000          0.374132E-03
      0.245000          0.351297E-03
      0.250000          0.330336E-03
      0.255000          0.310845E-03
      0.260000          0.292558E-03
      0.265000          0.275349E-03
      0.270000          0.259185E-03
      0.275000          0.244070E-03
      0.280000          0.229999E-03
      0.285000          0.216937E-03
      0.290000          0.204826E-03
      0.295000          0.193595E-03
      0.300000          0.183190E-03
      0.305000          0.173583E-03
      0.310000          0.164765E-03
      0.315000          0.156733E-03
      0.320000          0.149467E-03
      0.325000          0.142913E-03
      0.330000          0.136988E-03
      0.335000          0.131590E-03
      0.340000          0.126624E-03
      0.345000          0.122029E-03
      0.350000          0.117781E-03
      0.355000          0.113894E-03
      0.360000          0.110391E-03
      0.365000          0.107279E-03
      0.370000          0.104539E-03
      0.375000          0.102123E-03
      0.380000          0.999778E-04
      0.385000          0.980678E-04
      0.390000          0.963888E-04
      0.395000          0.949651E-04
      0.400000          0.938281E-04
      0.405000          0.929879E-04
      0.410000          0.924121E-04
      0.415000          0.920228E-04
      0.420000          0.917123E-04
      0.425000          0.913706E-04
      0.430000          0.909113E-04
      0.435000          0.902867E-04
      0.440000          0.894878E-04
      0.445000          0.885324E-04
      0.450000          0.874507E-04
      0.455000          0.862730E-04
      0.460000          0.850254E-04
      0.465000          0.837324E-04
      0.470000          0.824210E-04
      0.475000          0.811242E-04
      0.480000          0.798786E-04
      0.485000          0.787172E-04
      0.490000          0.776607E-04
      0.495000          0.767089E-04
      0.500000          0.758382E-04
