 I_abs(s)[cm^-1]/c[mg/ml]
       0.00000          0.118608E-01
      0.500000E-02      0.116022E-01
      0.100000E-01      0.108724E-01
      0.150000E-01      0.979705E-02
      0.200000E-01      0.854902E-02
      0.250000E-01      0.730535E-02
      0.300000E-01      0.620769E-02
      0.350000E-01      0.533682E-02
      0.400000E-01      0.470706E-02
      0.450000E-01      0.427941E-02
      0.500000E-01      0.398623E-02
      0.550000E-01      0.375785E-02
      0.600000E-01      0.354262E-02
      0.650000E-01      0.331552E-02
      0.700000E-01      0.307572E-02
      0.750000E-01      0.283668E-02
      0.800000E-01      0.261459E-02
      0.850000E-01      0.241978E-02
      0.900000E-01      0.225346E-02
      0.950000E-01      0.210936E-02
      0.100000          0.197819E-02
      0.105000          0.185212E-02
      0.110000          0.172737E-02
      0.115000          0.160438E-02
      0.120000          0.148619E-02
      0.125000          0.137630E-02
      0.130000          0.127698E-02
      0.135000          0.118875E-02
      0.140000          0.111061E-02
      0.145000          0.104081E-02
      0.150000          0.977554E-03
      0.155000          0.919299E-03
      0.160000          0.864933E-03
      0.165000          0.813758E-03
      0.170000          0.765520E-03
      0.175000          0.720430E-03
      0.180000          0.679078E-03
      0.185000          0.642167E-03
      0.190000          0.610101E-03
      0.195000          0.582607E-03
      0.200000          0.558596E-03
      0.205000          0.536370E-03
      0.210000          0.514145E-03
      0.215000          0.490650E-03
      0.220000          0.465551E-03
      0.225000          0.439499E-03
      0.230000          0.413796E-03
      0.235000          0.389837E-03
      0.240000          0.368576E-03
      0.245000          0.350239E-03
      0.250000          0.334353E-03
      0.255000          0.320034E-03
      0.260000          0.306374E-03
      0.265000          0.292734E-03
      0.270000          0.278873E-03
      0.275000          0.264897E-03
      0.280000          0.251105E-03
      0.285000          0.237832E-03
      0.290000          0.225339E-03
      0.295000          0.213779E-03
      0.300000          0.203199E-03
      0.305000          0.193560E-03
      0.310000          0.184763E-03
      0.315000          0.176680E-03
      0.320000          0.169194E-03
      0.325000          0.162246E-03
      0.330000          0.155855E-03
      0.335000          0.150097E-03
      0.340000          0.145041E-03
      0.345000          0.140668E-03
      0.350000          0.136821E-03
      0.355000          0.133229E-03
      0.360000          0.129596E-03
      0.365000          0.125724E-03
      0.370000          0.121610E-03
      0.375000          0.117447E-03
      0.380000          0.113532E-03
      0.385000          0.110115E-03
      0.390000          0.107270E-03
      0.395000          0.104848E-03
      0.400000          0.102551E-03
      0.405000          0.100077E-03
      0.410000          0.972755E-04
      0.415000          0.942379E-04
      0.420000          0.912643E-04
      0.425000          0.887381E-04
      0.430000          0.869564E-04
      0.435000          0.859961E-04
      0.440000          0.856723E-04
      0.445000          0.856012E-04
      0.450000          0.853354E-04
      0.455000          0.845137E-04
      0.460000          0.829664E-04
      0.465000          0.807435E-04
      0.470000          0.780675E-04
      0.475000          0.752388E-04
      0.480000          0.725353E-04
      0.485000          0.701407E-04
      0.490000          0.681186E-04
      0.495000          0.664302E-04
      0.500000          0.649780E-04
