 I_abs(s)[cm^-1]/c[mg/ml]
       0.00000          0.119253E-01
      0.500000E-02      0.116536E-01
      0.100000E-01      0.108908E-01
      0.150000E-01      0.977940E-02
      0.200000E-01      0.851155E-02
      0.250000E-01      0.727753E-02
      0.300000E-01      0.622045E-02
      0.350000E-01      0.541026E-02
      0.400000E-01      0.484303E-02
      0.450000E-01      0.446153E-02
      0.500000E-01      0.418676E-02
      0.550000E-01      0.394772E-02
      0.600000E-01      0.370017E-02
      0.650000E-01      0.343082E-02
      0.700000E-01      0.314947E-02
      0.750000E-01      0.287571E-02
      0.800000E-01      0.262669E-02
      0.850000E-01      0.241038E-02
      0.900000E-01      0.222514E-02
      0.950000E-01      0.206359E-02
      0.100000          0.191743E-02
      0.105000          0.178085E-02
      0.110000          0.165148E-02
      0.115000          0.152939E-02
      0.120000          0.141547E-02
      0.125000          0.131032E-02
      0.130000          0.121394E-02
      0.135000          0.112609E-02
      0.140000          0.104658E-02
      0.145000          0.975380E-03
      0.150000          0.912223E-03
      0.155000          0.856321E-03
      0.160000          0.806285E-03
      0.165000          0.760459E-03
      0.170000          0.717459E-03
      0.175000          0.676605E-03
      0.180000          0.638004E-03
      0.185000          0.602244E-03
      0.190000          0.569897E-03
      0.195000          0.541088E-03
      0.200000          0.515353E-03
      0.205000          0.491794E-03
      0.210000          0.469419E-03
      0.215000          0.447488E-03
      0.220000          0.425690E-03
      0.225000          0.404151E-03
      0.230000          0.383290E-03
      0.235000          0.363639E-03
      0.240000          0.345679E-03
      0.245000          0.329730E-03
      0.250000          0.315885E-03
      0.255000          0.303987E-03
      0.260000          0.293647E-03
      0.265000          0.284321E-03
      0.270000          0.275432E-03
      0.275000          0.266516E-03
      0.280000          0.257333E-03
      0.285000          0.247888E-03
      0.290000          0.238367E-03
      0.295000          0.229003E-03
      0.300000          0.219938E-03
      0.305000          0.211149E-03
      0.310000          0.202458E-03
      0.315000          0.193628E-03
      0.320000          0.184494E-03
      0.325000          0.175053E-03
      0.330000          0.165507E-03
      0.335000          0.156208E-03
      0.340000          0.147555E-03
      0.345000          0.139863E-03
      0.350000          0.133267E-03
      0.355000          0.127685E-03
      0.360000          0.122849E-03
      0.365000          0.118406E-03
      0.370000          0.114038E-03
      0.375000          0.109563E-03
      0.380000          0.104977E-03
      0.385000          0.100422E-03
      0.390000          0.961035E-04
      0.395000          0.921872E-04
      0.400000          0.887311E-04
      0.405000          0.856795E-04
      0.410000          0.829136E-04
      0.415000          0.803279E-04
      0.420000          0.778865E-04
      0.425000          0.756285E-04
      0.430000          0.736216E-04
      0.435000          0.718928E-04
      0.440000          0.703800E-04
      0.445000          0.689359E-04
      0.450000          0.673857E-04
      0.455000          0.656097E-04
      0.460000          0.636058E-04
      0.465000          0.614969E-04
      0.470000          0.594758E-04
      0.475000          0.577160E-04
      0.480000          0.562933E-04
      0.485000          0.551581E-04
      0.490000          0.541706E-04
      0.495000          0.531777E-04
      0.500000          0.520880E-04
