 I_abs(s)[cm^-1]/c[mg/ml]
       0.00000          0.117679E-01
      0.500000E-02      0.114979E-01
      0.100000E-01      0.107381E-01
      0.150000E-01      0.962486E-02
      0.200000E-01      0.834293E-02
      0.250000E-01      0.707680E-02
      0.300000E-01      0.596809E-02
      0.350000E-01      0.509078E-02
      0.400000E-01      0.444993E-02
      0.450000E-01      0.400007E-02
      0.500000E-01      0.367351E-02
      0.550000E-01      0.340722E-02
      0.600000E-01      0.315969E-02
      0.650000E-01      0.291496E-02
      0.700000E-01      0.267624E-02
      0.750000E-01      0.245485E-02
      0.800000E-01      0.226034E-02
      0.850000E-01      0.209536E-02
      0.900000E-01      0.195565E-02
      0.950000E-01      0.183337E-02
      0.100000          0.172098E-02
      0.105000          0.161367E-02
      0.110000          0.150981E-02
      0.115000          0.140986E-02
      0.120000          0.131495E-02
      0.125000          0.122590E-02
      0.130000          0.114304E-02
      0.135000          0.106643E-02
      0.140000          0.996159E-03
      0.145000          0.932349E-03
      0.150000          0.874972E-03
      0.155000          0.823609E-03
      0.160000          0.777419E-03
      0.165000          0.735321E-03
      0.170000          0.696301E-03
      0.175000          0.659649E-03
      0.180000          0.625004E-03
      0.185000          0.592227E-03
      0.190000          0.561194E-03
      0.195000          0.531653E-03
      0.200000          0.503211E-03
      0.205000          0.475449E-03
      0.210000          0.448069E-03
      0.215000          0.421012E-03
      0.220000          0.394487E-03
      0.225000          0.368896E-03
      0.230000          0.344709E-03
      0.235000          0.322327E-03
      0.240000          0.301969E-03
      0.245000          0.283640E-03
      0.250000          0.267166E-03
      0.255000          0.252294E-03
      0.260000          0.238810E-03
      0.265000          0.226622E-03
      0.270000          0.215763E-03
      0.275000          0.206303E-03
      0.280000          0.198226E-03
      0.285000          0.191318E-03
      0.290000          0.185162E-03
      0.295000          0.179230E-03
      0.300000          0.173069E-03
      0.305000          0.166459E-03
      0.310000          0.159502E-03
      0.315000          0.152567E-03
      0.320000          0.146132E-03
      0.325000          0.140596E-03
      0.330000          0.136125E-03
      0.335000          0.132614E-03
      0.340000          0.129744E-03
      0.345000          0.127107E-03
      0.350000          0.124342E-03
      0.355000          0.121228E-03
      0.360000          0.117715E-03
      0.365000          0.113896E-03
      0.370000          0.109942E-03
      0.375000          0.106038E-03
      0.380000          0.102325E-03
      0.385000          0.988811E-04
      0.390000          0.957175E-04
      0.395000          0.928085E-04
      0.400000          0.901179E-04
      0.405000          0.876242E-04
      0.410000          0.853329E-04
      0.415000          0.832752E-04
      0.420000          0.814960E-04
      0.425000          0.800335E-04
      0.430000          0.788956E-04
      0.435000          0.780387E-04
      0.440000          0.773587E-04
      0.445000          0.767018E-04
      0.450000          0.758975E-04
      0.455000          0.748038E-04
      0.460000          0.733482E-04
      0.465000          0.715449E-04
      0.470000          0.694836E-04
      0.475000          0.672938E-04
      0.480000          0.651052E-04
      0.485000          0.630200E-04
      0.490000          0.611037E-04
      0.495000          0.593914E-04
      0.500000          0.578986E-04
