 I_abs(s)[cm^-1]/c[mg/ml]
       0.00000          0.124700E-01
      0.500000E-02      0.122262E-01
      0.100000E-01      0.115350E-01
      0.150000E-01      0.105081E-01
      0.200000E-01      0.930032E-02
      0.250000E-01      0.807356E-02
      0.300000E-01      0.696195E-02
      0.350000E-01      0.604784E-02
      0.400000E-01      0.535434E-02
      0.450000E-01      0.485411E-02
      0.500000E-01      0.448947E-02
      0.550000E-01      0.419624E-02
      0.600000E-01      0.392343E-02
      0.650000E-01      0.364397E-02
      0.700000E-01      0.335501E-02
      0.750000E-01      0.307021E-02
      0.800000E-01      0.280850E-02
      0.850000E-01      0.258398E-02
      0.900000E-01      0.240034E-02
      0.950000E-01      0.225057E-02
      0.100000          0.212110E-02
      0.105000          0.199753E-02
      0.110000          0.186970E-02
      0.115000          0.173428E-02
      0.120000          0.159445E-02
      0.125000          0.145742E-02
      0.130000          0.133110E-02
      0.135000          0.122126E-02
      0.140000          0.113000E-02
      0.145000          0.105573E-02
      0.150000          0.994230E-03
      0.155000          0.940319E-03
      0.160000          0.889390E-03
      0.165000          0.838452E-03
      0.170000          0.786509E-03
      0.175000          0.734336E-03
      0.180000          0.683840E-03
      0.185000          0.637247E-03
      0.190000          0.596344E-03
      0.195000          0.561953E-03
      0.200000          0.533751E-03
      0.205000          0.510434E-03
      0.210000          0.490167E-03
      0.215000          0.471145E-03
      0.220000          0.452088E-03
      0.225000          0.432517E-03
      0.230000          0.412738E-03
      0.235000          0.393557E-03
      0.240000          0.375860E-03
      0.245000          0.360212E-03
      0.250000          0.346612E-03
      0.255000          0.334480E-03
      0.260000          0.322858E-03
      0.265000          0.310727E-03
      0.270000          0.297339E-03
      0.275000          0.282437E-03
      0.280000          0.266323E-03
      0.285000          0.249748E-03
      0.290000          0.233693E-03
      0.295000          0.219101E-03
      0.300000          0.206641E-03
      0.305000          0.196568E-03
      0.310000          0.188714E-03
      0.315000          0.182580E-03
      0.320000          0.177511E-03
      0.325000          0.172882E-03
      0.330000          0.168241E-03
      0.335000          0.163385E-03
      0.340000          0.158335E-03
      0.345000          0.153266E-03
      0.350000          0.148394E-03
      0.355000          0.143890E-03
      0.360000          0.139823E-03
      0.365000          0.136151E-03
      0.370000          0.132754E-03
      0.375000          0.129482E-03
      0.380000          0.126214E-03
      0.385000          0.122894E-03
      0.390000          0.119556E-03
      0.395000          0.116313E-03
      0.400000          0.113320E-03
      0.405000          0.110720E-03
      0.410000          0.108582E-03
      0.415000          0.106866E-03
      0.420000          0.105415E-03
      0.425000          0.103997E-03
      0.430000          0.102376E-03
      0.435000          0.100388E-03
      0.440000          0.979936E-04
      0.445000          0.952911E-04
      0.450000          0.924758E-04
      0.455000          0.897694E-04
      0.460000          0.873421E-04
      0.465000          0.852558E-04
      0.470000          0.834484E-04
      0.475000          0.817640E-04
      0.480000          0.800161E-04
      0.485000          0.780609E-04
      0.490000          0.758537E-04
      0.495000          0.734687E-04
      0.500000          0.710746E-04
