 I_abs(s)[cm^-1]/c[mg/ml]
       0.00000          0.122289E-01
      0.500000E-02      0.120120E-01
      0.100000E-01      0.113933E-01
      0.150000E-01      0.104606E-01
      0.200000E-01      0.933913E-02
      0.250000E-01      0.816434E-02
      0.300000E-01      0.705603E-02
      0.350000E-01      0.609833E-02
      0.400000E-01      0.533058E-02
      0.450000E-01      0.474984E-02
      0.500000E-01      0.432269E-02
      0.550000E-01      0.400140E-02
      0.600000E-01      0.373973E-02
      0.650000E-01      0.350378E-02
      0.700000E-01      0.327621E-02
      0.750000E-01      0.305427E-02
      0.800000E-01      0.284370E-02
      0.850000E-01      0.265178E-02
      0.900000E-01      0.248210E-02
      0.950000E-01      0.233243E-02
      0.100000          0.219585E-02
      0.105000          0.206389E-02
      0.110000          0.192994E-02
      0.115000          0.179170E-02
      0.120000          0.165159E-02
      0.125000          0.151550E-02
      0.130000          0.139034E-02
      0.135000          0.128167E-02
      0.140000          0.119198E-02
      0.145000          0.112030E-02
      0.150000          0.106284E-02
      0.155000          0.101449E-02
      0.160000          0.970228E-03
      0.165000          0.926342E-03
      0.170000          0.880915E-03
      0.175000          0.833727E-03
      0.180000          0.785734E-03
      0.185000          0.738395E-03
      0.190000          0.693088E-03
      0.195000          0.650746E-03
      0.200000          0.611748E-03
      0.205000          0.575988E-03
      0.210000          0.543058E-03
      0.215000          0.512443E-03
      0.220000          0.483675E-03
      0.225000          0.456432E-03
      0.230000          0.430566E-03
      0.235000          0.406080E-03
      0.240000          0.383073E-03
      0.245000          0.361673E-03
      0.250000          0.341965E-03
      0.255000          0.323956E-03
      0.260000          0.307553E-03
      0.265000          0.292581E-03
      0.270000          0.278819E-03
      0.275000          0.266039E-03
      0.280000          0.254048E-03
      0.285000          0.242703E-03
      0.290000          0.231917E-03
      0.295000          0.221649E-03
      0.300000          0.211884E-03
      0.305000          0.202616E-03
      0.310000          0.193829E-03
      0.315000          0.185498E-03
      0.320000          0.177589E-03
      0.325000          0.170069E-03
      0.330000          0.162921E-03
      0.335000          0.156156E-03
      0.340000          0.149813E-03
      0.345000          0.143943E-03
      0.350000          0.138590E-03
      0.355000          0.133761E-03
      0.360000          0.129407E-03
      0.365000          0.125420E-03
      0.370000          0.121659E-03
      0.375000          0.117983E-03
      0.380000          0.114297E-03
      0.385000          0.110576E-03
      0.390000          0.106870E-03
      0.395000          0.103277E-03
      0.400000          0.999054E-04
      0.405000          0.968305E-04
      0.410000          0.940759E-04
      0.415000          0.916162E-04
      0.420000          0.894021E-04
      0.425000          0.873925E-04
      0.430000          0.855767E-04
      0.435000          0.839749E-04
      0.440000          0.826171E-04
      0.445000          0.815094E-04
      0.450000          0.806048E-04
      0.455000          0.797932E-04
      0.460000          0.789180E-04
      0.465000          0.778150E-04
      0.470000          0.763601E-04
      0.475000          0.745098E-04
      0.480000          0.723188E-04
      0.485000          0.699282E-04
      0.490000          0.675292E-04
      0.495000          0.653127E-04
      0.500000          0.634221E-04
