 I_abs(s)[cm^-1]/c[mg/ml]
       0.00000          0.122580E-01
      0.500000E-02      0.120726E-01
      0.100000E-01      0.115416E-01
      0.150000E-01      0.107352E-01
      0.200000E-01      0.975256E-02
      0.250000E-01      0.870132E-02
      0.300000E-01      0.767672E-02
      0.350000E-01      0.674689E-02
      0.400000E-01      0.594661E-02
      0.450000E-01      0.528007E-02
      0.500000E-01      0.473006E-02
      0.550000E-01      0.426979E-02
      0.600000E-01      0.387339E-02
      0.650000E-01      0.352247E-02
      0.700000E-01      0.320790E-02
      0.750000E-01      0.292770E-02
      0.800000E-01      0.268310E-02
      0.850000E-01      0.247471E-02
      0.900000E-01      0.230029E-02
      0.950000E-01      0.215448E-02
      0.100000          0.203006E-02
      0.105000          0.191971E-02
      0.110000          0.181760E-02
      0.115000          0.172004E-02
      0.120000          0.162541E-02
      0.125000          0.153349E-02
      0.130000          0.144473E-02
      0.135000          0.135971E-02
      0.140000          0.127889E-02
      0.145000          0.120257E-02
      0.150000          0.113090E-02
      0.155000          0.106386E-02
      0.160000          0.100123E-02
      0.165000          0.942537E-03
      0.170000          0.887080E-03
      0.175000          0.834116E-03
      0.180000          0.783060E-03
      0.185000          0.733683E-03
      0.190000          0.686177E-03
      0.195000          0.641084E-03
      0.200000          0.599090E-03
      0.205000          0.560792E-03
      0.210000          0.526505E-03
      0.215000          0.496181E-03
      0.220000          0.469436E-03
      0.225000          0.445671E-03
      0.230000          0.424220E-03
      0.235000          0.404477E-03
      0.240000          0.385984E-03
      0.245000          0.368459E-03
      0.250000          0.351776E-03
      0.255000          0.335919E-03
      0.260000          0.320917E-03
      0.265000          0.306781E-03
      0.270000          0.293466E-03
      0.275000          0.280858E-03
      0.280000          0.268794E-03
      0.285000          0.257109E-03
      0.290000          0.245684E-03
      0.295000          0.234479E-03
      0.300000          0.223540E-03
      0.305000          0.212965E-03
      0.310000          0.202864E-03
      0.315000          0.193322E-03
      0.320000          0.184376E-03
      0.325000          0.176030E-03
      0.330000          0.168269E-03
      0.335000          0.161085E-03
      0.340000          0.154475E-03
      0.345000          0.148428E-03
      0.350000          0.142909E-03
      0.355000          0.137842E-03
      0.360000          0.133120E-03
      0.365000          0.128632E-03
      0.370000          0.124289E-03
      0.375000          0.120046E-03
      0.380000          0.115907E-03
      0.385000          0.111904E-03
      0.390000          0.108079E-03
      0.395000          0.104459E-03
      0.400000          0.101057E-03
      0.405000          0.978751E-04
      0.410000          0.949109E-04
      0.415000          0.921651E-04
      0.420000          0.896342E-04
      0.425000          0.873007E-04
      0.430000          0.851272E-04
      0.435000          0.830609E-04
      0.440000          0.810491E-04
      0.445000          0.790594E-04
      0.450000          0.770948E-04
      0.455000          0.751942E-04
      0.460000          0.734177E-04
      0.465000          0.718233E-04
      0.470000          0.704455E-04
      0.475000          0.692869E-04
      0.480000          0.683256E-04
      0.485000          0.675341E-04
      0.490000          0.668993E-04
      0.495000          0.664297E-04
      0.500000          0.661463E-04
