 I_abs(s)[cm^-1]/c[mg/ml]
       0.00000          0.118250E-01
      0.500000E-02      0.116072E-01
      0.100000E-01      0.109886E-01
      0.150000E-01      0.100649E-01
      0.200000E-01      0.896873E-02
      0.250000E-01      0.783853E-02
      0.300000E-01      0.678952E-02
      0.350000E-01      0.589454E-02
      0.400000E-01      0.517907E-02
      0.450000E-01      0.462940E-02
      0.500000E-01      0.420892E-02
      0.550000E-01      0.387579E-02
      0.600000E-01      0.359624E-02
      0.650000E-01      0.335034E-02
      0.700000E-01      0.313061E-02
      0.750000E-01      0.293639E-02
      0.800000E-01      0.276754E-02
      0.850000E-01      0.262059E-02
      0.900000E-01      0.248825E-02
      0.950000E-01      0.236174E-02
      0.100000          0.223397E-02
      0.105000          0.210188E-02
      0.110000          0.196687E-02
      0.115000          0.183333E-02
      0.120000          0.170640E-02
      0.125000          0.158990E-02
      0.130000          0.148533E-02
      0.135000          0.139206E-02
      0.140000          0.130820E-02
      0.145000          0.123169E-02
      0.150000          0.116090E-02
      0.155000          0.109479E-02
      0.160000          0.103266E-02
      0.165000          0.973869E-03
      0.170000          0.917827E-03
      0.175000          0.864101E-03
      0.180000          0.812657E-03
      0.185000          0.763925E-03
      0.190000          0.718628E-03
      0.195000          0.677401E-03
      0.200000          0.640404E-03
      0.205000          0.607122E-03
      0.210000          0.576458E-03
      0.215000          0.547074E-03
      0.220000          0.517816E-03
      0.225000          0.488038E-03
      0.230000          0.457698E-03
      0.235000          0.427235E-03
      0.240000          0.397309E-03
      0.245000          0.368562E-03
      0.250000          0.341478E-03
      0.255000          0.316378E-03
      0.260000          0.293483E-03
      0.265000          0.272973E-03
      0.270000          0.254992E-03
      0.275000          0.239577E-03
      0.280000          0.226582E-03
      0.285000          0.215630E-03
      0.290000          0.206157E-03
      0.295000          0.197526E-03
      0.300000          0.189176E-03
      0.305000          0.180745E-03
      0.310000          0.172118E-03
      0.315000          0.163395E-03
      0.320000          0.154798E-03
      0.325000          0.146572E-03
      0.330000          0.138902E-03
      0.335000          0.131883E-03
      0.340000          0.125523E-03
      0.345000          0.119782E-03
      0.350000          0.114590E-03
      0.355000          0.109876E-03
      0.360000          0.105574E-03
      0.365000          0.101630E-03
      0.370000          0.980103E-04
      0.375000          0.947072E-04
      0.380000          0.917350E-04
      0.385000          0.891180E-04
      0.390000          0.868686E-04
      0.395000          0.849704E-04
      0.400000          0.833773E-04
      0.405000          0.820285E-04
      0.410000          0.808744E-04
      0.415000          0.798947E-04
      0.420000          0.790959E-04
      0.425000          0.784879E-04
      0.430000          0.780514E-04
      0.435000          0.777176E-04
      0.440000          0.773734E-04
      0.445000          0.768964E-04
      0.450000          0.762008E-04
      0.455000          0.752736E-04
      0.460000          0.741799E-04
      0.465000          0.730327E-04
      0.470000          0.719414E-04
      0.475000          0.709613E-04
      0.480000          0.700698E-04
      0.485000          0.691784E-04
      0.490000          0.681763E-04
      0.495000          0.669828E-04
      0.500000          0.655844E-04
