 I_abs(s)[cm^-1]/c[mg/ml]
       0.00000          0.118465E-01
      0.500000E-02      0.115935E-01
      0.100000E-01      0.108820E-01
      0.150000E-01      0.984036E-02
      0.200000E-01      0.864242E-02
      0.250000E-01      0.746164E-02
      0.300000E-01      0.643030E-02
      0.350000E-01      0.561579E-02
      0.400000E-01      0.501932E-02
      0.450000E-01      0.459373E-02
      0.500000E-01      0.427140E-02
      0.550000E-01      0.399105E-02
      0.600000E-01      0.371487E-02
      0.650000E-01      0.343244E-02
      0.700000E-01      0.315358E-02
      0.750000E-01      0.289594E-02
      0.800000E-01      0.267339E-02
      0.850000E-01      0.248969E-02
      0.900000E-01      0.233842E-02
      0.950000E-01      0.220739E-02
      0.100000          0.208437E-02
      0.105000          0.196145E-02
      0.110000          0.183643E-02
      0.115000          0.171166E-02
      0.120000          0.159143E-02
      0.125000          0.147955E-02
      0.130000          0.137784E-02
      0.135000          0.128605E-02
      0.140000          0.120253E-02
      0.145000          0.112528E-02
      0.150000          0.105273E-02
      0.155000          0.984153E-03
      0.160000          0.919610E-03
      0.165000          0.859626E-03
      0.170000          0.804774E-03
      0.175000          0.755292E-03
      0.180000          0.710863E-03
      0.185000          0.670616E-03
      0.190000          0.633341E-03
      0.195000          0.597849E-03
      0.200000          0.563320E-03
      0.205000          0.529498E-03
      0.210000          0.496661E-03
      0.215000          0.465373E-03
      0.220000          0.436165E-03
      0.225000          0.409287E-03
      0.230000          0.384647E-03
      0.235000          0.361934E-03
      0.240000          0.340818E-03
      0.245000          0.321116E-03
      0.250000          0.302826E-03
      0.255000          0.286038E-03
      0.260000          0.270796E-03
      0.265000          0.257004E-03
      0.270000          0.244430E-03
      0.275000          0.232791E-03
      0.280000          0.221855E-03
      0.285000          0.211500E-03
      0.290000          0.201705E-03
      0.295000          0.192492E-03
      0.300000          0.183860E-03
      0.305000          0.175759E-03
      0.310000          0.168108E-03
      0.315000          0.160831E-03
      0.320000          0.153884E-03
      0.325000          0.147262E-03
      0.330000          0.140982E-03
      0.335000          0.135064E-03
      0.340000          0.129528E-03
      0.345000          0.124388E-03
      0.350000          0.119669E-03
      0.355000          0.115399E-03
      0.360000          0.111605E-03
      0.365000          0.108287E-03
      0.370000          0.105406E-03
      0.375000          0.102874E-03
      0.380000          0.100568E-03
      0.385000          0.983709E-04
      0.390000          0.962075E-04
      0.395000          0.940842E-04
      0.400000          0.920884E-04
      0.405000          0.903482E-04
      0.410000          0.889641E-04
      0.415000          0.879457E-04
      0.420000          0.871909E-04
      0.425000          0.865216E-04
      0.430000          0.857573E-04
      0.435000          0.847826E-04
      0.440000          0.835709E-04
      0.445000          0.821557E-04
      0.450000          0.805786E-04
      0.455000          0.788537E-04
      0.460000          0.769746E-04
      0.465000          0.749511E-04
      0.470000          0.728406E-04
      0.475000          0.707452E-04
      0.480000          0.687739E-04
      0.485000          0.669978E-04
      0.490000          0.654308E-04
      0.495000          0.640451E-04
      0.500000          0.628049E-04
