 I_abs(s)[cm^-1]/c[mg/ml]
       0.00000          0.118895E-01
      0.500000E-02      0.116313E-01
      0.100000E-01      0.109033E-01
      0.150000E-01      0.983266E-02
      0.200000E-01      0.859362E-02
      0.250000E-01      0.736366E-02
      0.300000E-01      0.628312E-02
      0.350000E-01      0.542961E-02
      0.400000E-01      0.481304E-02
      0.450000E-01      0.438986E-02
      0.500000E-01      0.408910E-02
      0.550000E-01      0.384004E-02
      0.600000E-01      0.359271E-02
      0.650000E-01      0.332630E-02
      0.700000E-01      0.304573E-02
      0.750000E-01      0.277047E-02
      0.800000E-01      0.252157E-02
      0.850000E-01      0.231199E-02
      0.900000E-01      0.214286E-02
      0.950000E-01      0.200532E-02
      0.100000          0.188582E-02
      0.105000          0.177185E-02
      0.110000          0.165583E-02
      0.115000          0.153623E-02
      0.120000          0.141636E-02
      0.125000          0.130181E-02
      0.130000          0.119791E-02
      0.135000          0.110799E-02
      0.140000          0.103264E-02
      0.145000          0.969953E-03
      0.150000          0.916336E-03
      0.155000          0.867593E-03
      0.160000          0.820023E-03
      0.165000          0.771310E-03
      0.170000          0.721012E-03
      0.175000          0.670508E-03
      0.180000          0.622394E-03
      0.185000          0.579481E-03
      0.190000          0.543755E-03
      0.195000          0.515657E-03
      0.200000          0.493981E-03
      0.205000          0.476394E-03
      0.210000          0.460356E-03
      0.215000          0.444025E-03
      0.220000          0.426783E-03
      0.225000          0.409180E-03
      0.230000          0.392398E-03
      0.235000          0.377513E-03
      0.240000          0.364912E-03
      0.245000          0.354115E-03
      0.250000          0.344024E-03
      0.255000          0.333436E-03
      0.260000          0.321551E-03
      0.265000          0.308242E-03
      0.270000          0.293988E-03
      0.275000          0.279574E-03
      0.280000          0.265703E-03
      0.285000          0.252733E-03
      0.290000          0.240628E-03
      0.295000          0.229109E-03
      0.300000          0.217889E-03
      0.305000          0.206863E-03
      0.310000          0.196159E-03
      0.315000          0.186056E-03
      0.320000          0.176813E-03
      0.325000          0.168523E-03
      0.330000          0.161056E-03
      0.335000          0.154112E-03
      0.340000          0.147350E-03
      0.345000          0.140521E-03
      0.350000          0.133551E-03
      0.355000          0.126545E-03
      0.360000          0.119717E-03
      0.365000          0.113296E-03
      0.370000          0.107444E-03
      0.375000          0.102216E-03
      0.380000          0.975712E-04
      0.385000          0.934054E-04
      0.390000          0.896014E-04
      0.395000          0.860597E-04
      0.400000          0.827148E-04
      0.405000          0.795387E-04
      0.410000          0.765395E-04
      0.415000          0.737588E-04
      0.420000          0.712656E-04
      0.425000          0.691388E-04
      0.430000          0.674379E-04
      0.435000          0.661685E-04
      0.440000          0.652573E-04
      0.445000          0.645546E-04
      0.450000          0.638705E-04
      0.455000          0.630360E-04
      0.460000          0.619656E-04
      0.465000          0.606907E-04
      0.470000          0.593474E-04
      0.475000          0.581174E-04
      0.480000          0.571486E-04
      0.485000          0.564884E-04
      0.490000          0.560610E-04
      0.495000          0.556985E-04
      0.500000          0.552115E-04
