 I_abs(s)[cm^-1]/c[mg/ml]
       0.00000          0.124700E-01
      0.500000E-02      0.122594E-01
      0.100000E-01      0.116596E-01
      0.150000E-01      0.107589E-01
      0.200000E-01      0.968046E-02
      0.250000E-01      0.855398E-02
      0.300000E-01      0.748911E-02
      0.350000E-01      0.655747E-02
      0.400000E-01      0.578731E-02
      0.450000E-01      0.517005E-02
      0.500000E-01      0.467458E-02
      0.550000E-01      0.426351E-02
      0.600000E-01      0.390585E-02
      0.650000E-01      0.358322E-02
      0.700000E-01      0.328953E-02
      0.750000E-01      0.302618E-02
      0.800000E-01      0.279608E-02
      0.850000E-01      0.259918E-02
      0.900000E-01      0.243101E-02
      0.950000E-01      0.228382E-02
      0.100000          0.214918E-02
      0.105000          0.202051E-02
      0.110000          0.189437E-02
      0.115000          0.177034E-02
      0.120000          0.164987E-02
      0.125000          0.153495E-02
      0.130000          0.142706E-02
      0.135000          0.132689E-02
      0.140000          0.123451E-02
      0.145000          0.114979E-02
      0.150000          0.107263E-02
      0.155000          0.100302E-02
      0.160000          0.940806E-03
      0.165000          0.885524E-03
      0.170000          0.836290E-03
      0.175000          0.791925E-03
      0.180000          0.751185E-03
      0.185000          0.712998E-03
      0.190000          0.676596E-03
      0.195000          0.641520E-03
      0.200000          0.607519E-03
      0.205000          0.574437E-03
      0.210000          0.542135E-03
      0.215000          0.510496E-03
      0.220000          0.479483E-03
      0.225000          0.449197E-03
      0.230000          0.419911E-03
      0.235000          0.392045E-03
      0.240000          0.366081E-03
      0.245000          0.342459E-03
      0.250000          0.321465E-03
      0.255000          0.303168E-03
      0.260000          0.287392E-03
      0.265000          0.273766E-03
      0.270000          0.261808E-03
      0.275000          0.251032E-03
      0.280000          0.241041E-03
      0.285000          0.231572E-03
      0.290000          0.222478E-03
      0.295000          0.213678E-03
      0.300000          0.205080E-03
      0.305000          0.196551E-03
      0.310000          0.187931E-03
      0.315000          0.179100E-03
      0.320000          0.170064E-03
      0.325000          0.161003E-03
      0.330000          0.152259E-03
      0.335000          0.144244E-03
      0.340000          0.137319E-03
      0.345000          0.131664E-03
      0.350000          0.127221E-03
      0.355000          0.123710E-03
      0.360000          0.120724E-03
      0.365000          0.117853E-03
      0.370000          0.114804E-03
      0.375000          0.111467E-03
      0.380000          0.107905E-03
      0.385000          0.104301E-03
      0.390000          0.100858E-03
      0.395000          0.977165E-04
      0.400000          0.949039E-04
      0.405000          0.923434E-04
      0.410000          0.899052E-04
      0.415000          0.874805E-04
      0.420000          0.850405E-04
      0.425000          0.826548E-04
      0.430000          0.804597E-04
      0.435000          0.785918E-04
      0.440000          0.771195E-04
      0.445000          0.760019E-04
      0.450000          0.750945E-04
      0.455000          0.741958E-04
      0.460000          0.731130E-04
      0.465000          0.717223E-04
      0.470000          0.700048E-04
      0.475000          0.680519E-04
      0.480000          0.660435E-04
      0.485000          0.642054E-04
      0.490000          0.627533E-04
      0.495000          0.618343E-04
      0.500000          0.614783E-04
