 I_abs(s)[cm^-1]/c[mg/ml]
       0.00000          0.124627E-01
      0.500000E-02      0.122693E-01
      0.100000E-01      0.117162E-01
      0.150000E-01      0.108788E-01
      0.200000E-01      0.986368E-02
      0.250000E-01      0.878597E-02
      0.300000E-01      0.774691E-02
      0.350000E-01      0.681756E-02
      0.400000E-01      0.603201E-02
      0.450000E-01      0.539052E-02
      0.500000E-01      0.486992E-02
      0.550000E-01      0.443724E-02
      0.600000E-01      0.406185E-02
      0.650000E-01      0.372318E-02
      0.700000E-01      0.341259E-02
      0.750000E-01      0.313063E-02
      0.800000E-01      0.288177E-02
      0.850000E-01      0.266920E-02
      0.900000E-01      0.249171E-02
      0.950000E-01      0.234323E-02
      0.100000          0.221466E-02
      0.105000          0.209665E-02
      0.110000          0.198209E-02
      0.115000          0.186735E-02
      0.120000          0.175211E-02
      0.125000          0.163818E-02
      0.130000          0.152801E-02
      0.135000          0.142357E-02
      0.140000          0.132586E-02
      0.145000          0.123507E-02
      0.150000          0.115107E-02
      0.155000          0.107381E-02
      0.160000          0.100347E-02
      0.165000          0.940263E-03
      0.170000          0.884131E-03
      0.175000          0.834450E-03
      0.180000          0.790005E-03
      0.185000          0.749200E-03
      0.190000          0.710429E-03
      0.195000          0.672435E-03
      0.200000          0.634531E-03
      0.205000          0.596603E-03
      0.210000          0.558949E-03
      0.215000          0.522040E-03
      0.220000          0.486321E-03
      0.225000          0.452105E-03
      0.230000          0.419577E-03
      0.235000          0.388857E-03
      0.240000          0.360071E-03
      0.245000          0.333367E-03
      0.250000          0.308891E-03
      0.255000          0.286722E-03
      0.260000          0.266815E-03
      0.265000          0.248976E-03
      0.270000          0.232899E-03
      0.275000          0.218227E-03
      0.280000          0.204640E-03
      0.285000          0.191921E-03
      0.290000          0.179983E-03
      0.295000          0.168861E-03
      0.300000          0.158661E-03
      0.305000          0.149495E-03
      0.310000          0.141425E-03
      0.315000          0.134416E-03
      0.320000          0.128340E-03
      0.325000          0.122991E-03
      0.330000          0.118138E-03
      0.335000          0.113579E-03
      0.340000          0.109183E-03
      0.345000          0.104913E-03
      0.350000          0.100822E-03
      0.355000          0.970229E-04
      0.360000          0.936463E-04
      0.365000          0.907991E-04
      0.370000          0.885331E-04
      0.375000          0.868347E-04
      0.380000          0.856339E-04
      0.385000          0.848293E-04
      0.390000          0.843170E-04
      0.395000          0.840131E-04
      0.400000          0.838627E-04
      0.405000          0.838328E-04
      0.410000          0.838952E-04
      0.415000          0.840103E-04
      0.420000          0.841202E-04
      0.425000          0.841577E-04
      0.430000          0.840669E-04
      0.435000          0.838252E-04
      0.440000          0.834558E-04
      0.445000          0.830225E-04
      0.450000          0.826088E-04
      0.455000          0.822888E-04
      0.460000          0.821037E-04
      0.465000          0.820514E-04
      0.470000          0.820909E-04
      0.475000          0.821577E-04
      0.480000          0.821802E-04
      0.485000          0.820914E-04
      0.490000          0.818355E-04
      0.495000          0.813707E-04
      0.500000          0.806732E-04
