 I_abs(s)[cm^-1]/c[mg/ml]
       0.00000          0.116895E-01
      0.500000E-02      0.114136E-01
      0.100000E-01      0.106360E-01
      0.150000E-01      0.949456E-02
      0.200000E-01      0.817839E-02
      0.250000E-01      0.688103E-02
      0.300000E-01      0.575629E-02
      0.350000E-01      0.488960E-02
      0.400000E-01      0.429139E-02
      0.450000E-01      0.391161E-02
      0.500000E-01      0.366800E-02
      0.550000E-01      0.347729E-02
      0.600000E-01      0.327936E-02
      0.650000E-01      0.304829E-02
      0.700000E-01      0.278965E-02
      0.750000E-01      0.252803E-02
      0.800000E-01      0.229144E-02
      0.850000E-01      0.209863E-02
      0.900000E-01      0.195324E-02
      0.950000E-01      0.184507E-02
      0.100000          0.175643E-02
      0.105000          0.166989E-02
      0.110000          0.157419E-02
      0.115000          0.146668E-02
      0.120000          0.135217E-02
      0.125000          0.123944E-02
      0.130000          0.113734E-02
      0.135000          0.105166E-02
      0.140000          0.983870E-03
      0.145000          0.931335E-03
      0.150000          0.888782E-03
      0.155000          0.850177E-03
      0.160000          0.810485E-03
      0.165000          0.766911E-03
      0.170000          0.719410E-03
      0.175000          0.670416E-03
      0.180000          0.623881E-03
      0.185000          0.583872E-03
      0.190000          0.553139E-03
      0.195000          0.532115E-03
      0.200000          0.518708E-03
      0.205000          0.508993E-03
      0.210000          0.498589E-03
      0.215000          0.484175E-03
      0.220000          0.464579E-03
      0.225000          0.440999E-03
      0.230000          0.416290E-03
      0.235000          0.393656E-03
      0.240000          0.375294E-03
      0.245000          0.361579E-03
      0.250000          0.351084E-03
      0.255000          0.341358E-03
      0.260000          0.330075E-03
      0.265000          0.316017E-03
      0.270000          0.299485E-03
      0.275000          0.282009E-03
      0.280000          0.265568E-03
      0.285000          0.251694E-03
      0.290000          0.240884E-03
      0.295000          0.232520E-03
      0.300000          0.225280E-03
      0.305000          0.217780E-03
      0.310000          0.209143E-03
      0.315000          0.199263E-03
      0.320000          0.188684E-03
      0.325000          0.178235E-03
      0.330000          0.168607E-03
      0.335000          0.160090E-03
      0.340000          0.152537E-03
      0.345000          0.145543E-03
      0.350000          0.138694E-03
      0.355000          0.131769E-03
      0.360000          0.124796E-03
      0.365000          0.117983E-03
      0.370000          0.111577E-03
      0.375000          0.105741E-03
      0.380000          0.100502E-03
      0.385000          0.957854E-04
      0.390000          0.914864E-04
      0.395000          0.875318E-04
      0.400000          0.839031E-04
      0.405000          0.806147E-04
      0.410000          0.776747E-04
      0.415000          0.750599E-04
      0.420000          0.727216E-04
      0.425000          0.706157E-04
      0.430000          0.687329E-04
      0.435000          0.671055E-04
      0.440000          0.657839E-04
      0.445000          0.647935E-04
      0.450000          0.640991E-04
      0.455000          0.635986E-04
      0.460000          0.631530E-04
      0.465000          0.626361E-04
      0.470000          0.619799E-04
      0.475000          0.611886E-04
      0.480000          0.603162E-04
      0.485000          0.594189E-04
      0.490000          0.585093E-04
      0.495000          0.575393E-04
      0.500000          0.564196E-04
