 I_abs(s)[cm^-1]/c[mg/ml]
       0.00000          0.124700E-01
      0.500000E-02      0.122852E-01
      0.100000E-01      0.117536E-01
      0.150000E-01      0.109393E-01
      0.200000E-01      0.993455E-02
      0.250000E-01      0.884223E-02
      0.300000E-01      0.775743E-02
      0.350000E-01      0.675324E-02
      0.400000E-01      0.587306E-02
      0.450000E-01      0.513052E-02
      0.500000E-01      0.451575E-02
      0.550000E-01      0.400525E-02
      0.600000E-01      0.357216E-02
      0.650000E-01      0.319422E-02
      0.700000E-01      0.285782E-02
      0.750000E-01      0.255814E-02
      0.800000E-01      0.229625E-02
      0.850000E-01      0.207519E-02
      0.900000E-01      0.189632E-02
      0.950000E-01      0.175737E-02
      0.100000          0.165222E-02
      0.105000          0.157217E-02
      0.110000          0.150791E-02
      0.115000          0.145128E-02
      0.120000          0.139646E-02
      0.125000          0.134018E-02
      0.130000          0.128145E-02
      0.135000          0.122077E-02
      0.140000          0.115946E-02
      0.145000          0.109912E-02
      0.150000          0.104124E-02
      0.155000          0.987057E-03
      0.160000          0.937389E-03
      0.165000          0.892509E-03
      0.170000          0.852075E-03
      0.175000          0.815162E-03
      0.180000          0.780448E-03
      0.185000          0.746523E-03
      0.190000          0.712245E-03
      0.195000          0.677019E-03
      0.200000          0.640899E-03
      0.205000          0.604490E-03
      0.210000          0.568681E-03
      0.215000          0.534340E-03
      0.220000          0.502063E-03
      0.225000          0.472082E-03
      0.230000          0.444316E-03
      0.235000          0.418541E-03
      0.240000          0.394559E-03
      0.245000          0.372314E-03
      0.250000          0.351899E-03
      0.255000          0.333472E-03
      0.260000          0.317128E-03
      0.265000          0.302800E-03
      0.270000          0.290228E-03
      0.275000          0.278993E-03
      0.280000          0.268619E-03
      0.285000          0.258666E-03
      0.290000          0.248807E-03
      0.295000          0.238857E-03
      0.300000          0.228762E-03
      0.305000          0.218567E-03
      0.310000          0.208388E-03
      0.315000          0.198388E-03
      0.320000          0.188761E-03
      0.325000          0.179709E-03
      0.330000          0.171410E-03
      0.335000          0.163976E-03
      0.340000          0.157422E-03
      0.345000          0.151656E-03
      0.350000          0.146502E-03
      0.355000          0.141756E-03
      0.360000          0.137245E-03
      0.365000          0.132876E-03
      0.370000          0.128645E-03
      0.375000          0.124615E-03
      0.380000          0.120864E-03
      0.385000          0.117433E-03
      0.390000          0.114299E-03
      0.395000          0.111384E-03
      0.400000          0.108594E-03
      0.405000          0.105869E-03
      0.410000          0.103215E-03
      0.415000          0.100716E-03
      0.420000          0.984913E-04
      0.425000          0.966495E-04
      0.430000          0.952317E-04
      0.435000          0.941829E-04
      0.440000          0.933593E-04
      0.445000          0.925699E-04
      0.450000          0.916342E-04
      0.455000          0.904355E-04
      0.460000          0.889495E-04
      0.465000          0.872394E-04
      0.470000          0.854234E-04
      0.475000          0.836302E-04
      0.480000          0.819596E-04
      0.485000          0.804620E-04
      0.490000          0.791417E-04
      0.495000          0.779758E-04
      0.500000          0.769364E-04
