 I_abs(s)[cm^-1]/c[mg/ml]
       0.00000          0.117964E-01
      0.500000E-02      0.115430E-01
      0.100000E-01      0.108291E-01
      0.150000E-01      0.978048E-02
      0.200000E-01      0.856895E-02
      0.250000E-01      0.736816E-02
      0.300000E-01      0.631384E-02
      0.350000E-01      0.547943E-02
      0.400000E-01      0.487268E-02
      0.450000E-01      0.445100E-02
      0.500000E-01      0.414746E-02
      0.550000E-01      0.389725E-02
      0.600000E-01      0.365600E-02
      0.650000E-01      0.340597E-02
      0.700000E-01      0.315121E-02
      0.750000E-01      0.290651E-02
      0.800000E-01      0.268605E-02
      0.850000E-01      0.249610E-02
      0.900000E-01      0.233359E-02
      0.950000E-01      0.218921E-02
      0.100000          0.205256E-02
      0.105000          0.191648E-02
      0.110000          0.177889E-02
      0.115000          0.164219E-02
      0.120000          0.151101E-02
      0.125000          0.138975E-02
      0.130000          0.128103E-02
      0.135000          0.118523E-02
      0.140000          0.110102E-02
      0.145000          0.102623E-02
      0.150000          0.958669E-03
      0.155000          0.896691E-03
      0.160000          0.839329E-03
      0.165000          0.786276E-03
      0.170000          0.737692E-03
      0.175000          0.693949E-03
      0.180000          0.655321E-03
      0.185000          0.621717E-03
      0.190000          0.592527E-03
      0.195000          0.566686E-03
      0.200000          0.542923E-03
      0.205000          0.520128E-03
      0.210000          0.497652E-03
      0.215000          0.475408E-03
      0.220000          0.453735E-03
      0.225000          0.433109E-03
      0.230000          0.413843E-03
      0.235000          0.395934E-03
      0.240000          0.379094E-03
      0.245000          0.362930E-03
      0.250000          0.347144E-03
      0.255000          0.331639E-03
      0.260000          0.316509E-03
      0.265000          0.301923E-03
      0.270000          0.288015E-03
      0.275000          0.274830E-03
      0.280000          0.262352E-03
      0.285000          0.250575E-03
      0.290000          0.239536E-03
      0.295000          0.229302E-03
      0.300000          0.219884E-03
      0.305000          0.211165E-03
      0.310000          0.202868E-03
      0.315000          0.194620E-03
      0.320000          0.186076E-03
      0.325000          0.177058E-03
      0.330000          0.167635E-03
      0.335000          0.158122E-03
      0.340000          0.148987E-03
      0.345000          0.140710E-03
      0.350000          0.133659E-03
      0.355000          0.128006E-03
      0.360000          0.123705E-03
      0.365000          0.120539E-03
      0.370000          0.118183E-03
      0.375000          0.116279E-03
      0.380000          0.114492E-03
      0.385000          0.112556E-03
      0.390000          0.110295E-03
      0.395000          0.107645E-03
      0.400000          0.104656E-03
      0.405000          0.101479E-03
      0.410000          0.983291E-04
      0.415000          0.954295E-04
      0.420000          0.929532E-04
      0.425000          0.909798E-04
      0.430000          0.894858E-04
      0.435000          0.883671E-04
      0.440000          0.874807E-04
      0.445000          0.866833E-04
      0.450000          0.858533E-04
      0.455000          0.848937E-04
      0.460000          0.837284E-04
      0.465000          0.823021E-04
      0.470000          0.805890E-04
      0.475000          0.786028E-04
      0.480000          0.763982E-04
      0.485000          0.740583E-04
      0.490000          0.716728E-04
      0.495000          0.693177E-04
      0.500000          0.670445E-04
