 I_abs(s)[cm^-1]/c[mg/ml]
       0.00000          0.120694E-01
      0.500000E-02      0.118516E-01
      0.100000E-01      0.112317E-01
      0.150000E-01      0.103016E-01
      0.200000E-01      0.918993E-02
      0.250000E-01      0.803243E-02
      0.300000E-01      0.694448E-02
      0.350000E-01      0.600228E-02
      0.400000E-01      0.523697E-02
      0.450000E-01      0.464108E-02
      0.500000E-01      0.418312E-02
      0.550000E-01      0.382405E-02
      0.600000E-01      0.353031E-02
      0.650000E-01      0.328028E-02
      0.700000E-01      0.306386E-02
      0.750000E-01      0.287786E-02
      0.800000E-01      0.272020E-02
      0.850000E-01      0.258602E-02
      0.900000E-01      0.246685E-02
      0.950000E-01      0.235254E-02
      0.100000          0.223443E-02
      0.105000          0.210789E-02
      0.110000          0.197319E-02
      0.115000          0.183451E-02
      0.120000          0.169776E-02
      0.125000          0.156841E-02
      0.130000          0.144995E-02
      0.135000          0.134364E-02
      0.140000          0.124896E-02
      0.145000          0.116461E-02
      0.150000          0.108917E-02
      0.155000          0.102146E-02
      0.160000          0.960459E-03
      0.165000          0.905084E-03
      0.170000          0.854132E-03
      0.175000          0.806385E-03
      0.180000          0.760877E-03
      0.185000          0.717116E-03
      0.190000          0.675118E-03
      0.195000          0.635229E-03
      0.200000          0.597823E-03
      0.205000          0.563038E-03
      0.210000          0.530679E-03
      0.215000          0.500309E-03
      0.220000          0.471461E-03
      0.225000          0.443842E-03
      0.230000          0.417420E-03
      0.235000          0.392376E-03
      0.240000          0.368952E-03
      0.245000          0.347305E-03
      0.250000          0.327425E-03
      0.255000          0.309157E-03
      0.260000          0.292288E-03
      0.265000          0.276642E-03
      0.270000          0.262121E-03
      0.275000          0.248690E-03
      0.280000          0.236313E-03
      0.285000          0.224905E-03
      0.290000          0.214317E-03
      0.295000          0.204382E-03
      0.300000          0.194975E-03
      0.305000          0.186073E-03
      0.310000          0.177753E-03
      0.315000          0.170147E-03
      0.320000          0.163366E-03
      0.325000          0.157427E-03
      0.330000          0.152226E-03
      0.335000          0.147561E-03
      0.340000          0.143192E-03
      0.345000          0.138918E-03
      0.350000          0.134620E-03
      0.355000          0.130279E-03
      0.360000          0.125949E-03
      0.365000          0.121721E-03
      0.370000          0.117676E-03
      0.375000          0.113871E-03
      0.380000          0.110324E-03
      0.385000          0.107034E-03
      0.390000          0.103987E-03
      0.395000          0.101180E-03
      0.400000          0.986197E-04
      0.405000          0.963283E-04
      0.410000          0.943282E-04
      0.415000          0.926232E-04
      0.420000          0.911774E-04
      0.425000          0.899041E-04
      0.430000          0.886743E-04
      0.435000          0.873469E-04
      0.440000          0.858127E-04
      0.445000          0.840340E-04
      0.450000          0.820614E-04
      0.455000          0.800188E-04
      0.460000          0.780605E-04
      0.465000          0.763173E-04
      0.470000          0.748514E-04
      0.475000          0.736379E-04
      0.480000          0.725751E-04
      0.485000          0.715193E-04
      0.490000          0.703298E-04
      0.495000          0.689094E-04
      0.500000          0.672287E-04
