 I_abs(s)[cm^-1]/c[mg/ml]
       0.00000          0.118107E-01
      0.500000E-02      0.115427E-01
      0.100000E-01      0.107888E-01
      0.150000E-01      0.968580E-02
      0.200000E-01      0.841892E-02
      0.250000E-01      0.717376E-02
      0.300000E-01      0.609285E-02
      0.350000E-01      0.525016E-02
      0.400000E-01      0.464884E-02
      0.450000E-01      0.423924E-02
      0.500000E-01      0.394781E-02
      0.550000E-01      0.370533E-02
      0.600000E-01      0.346577E-02
      0.650000E-01      0.321190E-02
      0.700000E-01      0.294947E-02
      0.750000E-01      0.269551E-02
      0.800000E-01      0.246664E-02
      0.850000E-01      0.227169E-02
      0.900000E-01      0.211002E-02
      0.950000E-01      0.197404E-02
      0.100000          0.185367E-02
      0.105000          0.174015E-02
      0.110000          0.162823E-02
      0.115000          0.151641E-02
      0.120000          0.140608E-02
      0.125000          0.130017E-02
      0.130000          0.120192E-02
      0.135000          0.111391E-02
      0.140000          0.103739E-02
      0.145000          0.971946E-03
      0.150000          0.915680E-03
      0.155000          0.865748E-03
      0.160000          0.819272E-03
      0.165000          0.774202E-03
      0.170000          0.729811E-03
      0.175000          0.686627E-03
      0.180000          0.645840E-03
      0.185000          0.608541E-03
      0.190000          0.575133E-03
      0.195000          0.545191E-03
      0.200000          0.517753E-03
      0.205000          0.491822E-03
      0.210000          0.466780E-03
      0.215000          0.442519E-03
      0.220000          0.419280E-03
      0.225000          0.397366E-03
      0.230000          0.376920E-03
      0.235000          0.357891E-03
      0.240000          0.340167E-03
      0.245000          0.323730E-03
      0.250000          0.308716E-03
      0.255000          0.295316E-03
      0.260000          0.283595E-03
      0.265000          0.273346E-03
      0.270000          0.264082E-03
      0.275000          0.255190E-03
      0.280000          0.246158E-03
      0.285000          0.236762E-03
      0.290000          0.227096E-03
      0.295000          0.217461E-03
      0.300000          0.208166E-03
      0.305000          0.199357E-03
      0.310000          0.190964E-03
      0.315000          0.182775E-03
      0.320000          0.174582E-03
      0.325000          0.166318E-03
      0.330000          0.158103E-03
      0.335000          0.150184E-03
      0.340000          0.142819E-03
      0.345000          0.136151E-03
      0.350000          0.130160E-03
      0.355000          0.124685E-03
      0.360000          0.119516E-03
      0.365000          0.114490E-03
      0.370000          0.109551E-03
      0.375000          0.104746E-03
      0.380000          0.100173E-03
      0.385000          0.959081E-04
      0.390000          0.919675E-04
      0.395000          0.883073E-04
      0.400000          0.848678E-04
      0.405000          0.816299E-04
      0.410000          0.786486E-04
      0.415000          0.760414E-04
      0.420000          0.739354E-04
      0.425000          0.723979E-04
      0.430000          0.713855E-04
      0.435000          0.707405E-04
      0.440000          0.702344E-04
      0.445000          0.696407E-04
      0.450000          0.688025E-04
      0.455000          0.676675E-04
      0.460000          0.662810E-04
      0.465000          0.647496E-04
      0.470000          0.631959E-04
      0.475000          0.617261E-04
      0.480000          0.604149E-04
      0.485000          0.593022E-04
      0.490000          0.583939E-04
      0.495000          0.576594E-04
      0.500000          0.570335E-04
