 I_abs(s)[cm^-1]/c[mg/ml]
       0.00000          0.116966E-01
      0.500000E-02      0.114333E-01
      0.100000E-01      0.106947E-01
      0.150000E-01      0.962001E-02
      0.200000E-01      0.839528E-02
      0.250000E-01      0.720214E-02
      0.300000E-01      0.617407E-02
      0.350000E-01      0.537333E-02
      0.400000E-01      0.479318E-02
      0.450000E-01      0.438013E-02
      0.500000E-01      0.406463E-02
      0.550000E-01      0.378777E-02
      0.600000E-01      0.351593E-02
      0.650000E-01      0.324143E-02
      0.700000E-01      0.297358E-02
      0.750000E-01      0.272650E-02
      0.800000E-01      0.250977E-02
      0.850000E-01      0.232466E-02
      0.900000E-01      0.216554E-02
      0.950000E-01      0.202384E-02
      0.100000          0.189199E-02
      0.105000          0.176547E-02
      0.110000          0.164302E-02
      0.115000          0.152553E-02
      0.120000          0.141484E-02
      0.125000          0.131273E-02
      0.130000          0.122047E-02
      0.135000          0.113853E-02
      0.140000          0.106649E-02
      0.145000          0.100309E-02
      0.150000          0.946471E-03
      0.155000          0.894694E-03
      0.160000          0.846219E-03
      0.165000          0.800242E-03
      0.170000          0.756659E-03
      0.175000          0.715714E-03
      0.180000          0.677566E-03
      0.185000          0.642029E-03
      0.190000          0.608607E-03
      0.195000          0.576774E-03
      0.200000          0.546288E-03
      0.205000          0.517317E-03
      0.210000          0.490303E-03
      0.215000          0.465648E-03
      0.220000          0.443418E-03
      0.225000          0.423225E-03
      0.230000          0.404358E-03
      0.235000          0.386084E-03
      0.240000          0.367939E-03
      0.245000          0.349892E-03
      0.250000          0.332293E-03
      0.255000          0.315676E-03
      0.260000          0.300504E-03
      0.265000          0.286977E-03
      0.270000          0.274979E-03
      0.275000          0.264146E-03
      0.280000          0.254020E-03
      0.285000          0.244199E-03
      0.290000          0.234446E-03
      0.295000          0.224698E-03
      0.300000          0.215015E-03
      0.305000          0.205481E-03
      0.310000          0.196122E-03
      0.315000          0.186877E-03
      0.320000          0.177627E-03
      0.325000          0.168277E-03
      0.330000          0.158823E-03
      0.335000          0.149401E-03
      0.340000          0.140254E-03
      0.345000          0.131662E-03
      0.350000          0.123846E-03
      0.355000          0.116909E-03
      0.360000          0.110825E-03
      0.365000          0.105476E-03
      0.370000          0.100715E-03
      0.375000          0.964218E-04
      0.380000          0.925286E-04
      0.385000          0.890108E-04
      0.390000          0.858612E-04
      0.395000          0.830641E-04
      0.400000          0.805832E-04
      0.405000          0.783651E-04
      0.410000          0.763540E-04
      0.415000          0.745069E-04
      0.420000          0.728050E-04
      0.425000          0.712555E-04
      0.430000          0.698847E-04
      0.435000          0.687236E-04
      0.440000          0.677888E-04
      0.445000          0.670668E-04
      0.450000          0.665077E-04
      0.455000          0.660351E-04
      0.460000          0.655701E-04
      0.465000          0.650581E-04
      0.470000          0.644871E-04
      0.475000          0.638827E-04
      0.480000          0.632819E-04
      0.485000          0.626992E-04
      0.490000          0.621050E-04
      0.495000          0.614311E-04
      0.500000          0.606043E-04
