 I_abs(s)[cm^-1]/c[mg/ml]
       0.00000          0.118823E-01
      0.500000E-02      0.116096E-01
      0.100000E-01      0.108444E-01
      0.150000E-01      0.972943E-02
      0.200000E-01      0.845681E-02
      0.250000E-01      0.721580E-02
      0.300000E-01      0.614765E-02
      0.350000E-01      0.532065E-02
      0.400000E-01      0.473069E-02
      0.450000E-01      0.432295E-02
      0.500000E-01      0.402345E-02
      0.550000E-01      0.376761E-02
      0.600000E-01      0.351702E-02
      0.650000E-01      0.326142E-02
      0.700000E-01      0.300968E-02
      0.750000E-01      0.277658E-02
      0.800000E-01      0.257209E-02
      0.850000E-01      0.239683E-02
      0.900000E-01      0.224372E-02
      0.950000E-01      0.210301E-02
      0.100000          0.196717E-02
      0.105000          0.183334E-02
      0.110000          0.170287E-02
      0.115000          0.157903E-02
      0.120000          0.146466E-02
      0.125000          0.136086E-02
      0.130000          0.126708E-02
      0.135000          0.118196E-02
      0.140000          0.110423E-02
      0.145000          0.103306E-02
      0.150000          0.967961E-03
      0.155000          0.908325E-03
      0.160000          0.853273E-03
      0.165000          0.801748E-03
      0.170000          0.752862E-03
      0.175000          0.706217E-03
      0.180000          0.661993E-03
      0.185000          0.620759E-03
      0.190000          0.583137E-03
      0.195000          0.549480E-03
      0.200000          0.519715E-03
      0.205000          0.493366E-03
      0.210000          0.469695E-03
      0.215000          0.447899E-03
      0.220000          0.427270E-03
      0.225000          0.407334E-03
      0.230000          0.387919E-03
      0.235000          0.369161E-03
      0.240000          0.351424E-03
      0.245000          0.335133E-03
      0.250000          0.320579E-03
      0.255000          0.307771E-03
      0.260000          0.296390E-03
      0.265000          0.285886E-03
      0.270000          0.275665E-03
      0.275000          0.265273E-03
      0.280000          0.254517E-03
      0.285000          0.243466E-03
      0.290000          0.232372E-03
      0.295000          0.221559E-03
      0.300000          0.211329E-03
      0.305000          0.201906E-03
      0.310000          0.193409E-03
      0.315000          0.185842E-03
      0.320000          0.179075E-03
      0.325000          0.172864E-03
      0.330000          0.166891E-03
      0.335000          0.160846E-03
      0.340000          0.154507E-03
      0.345000          0.147797E-03
      0.350000          0.140781E-03
      0.355000          0.133616E-03
      0.360000          0.126483E-03
      0.365000          0.119530E-03
      0.370000          0.112851E-03
      0.375000          0.106500E-03
      0.380000          0.100511E-03
      0.385000          0.949098E-04
      0.390000          0.897142E-04
      0.395000          0.849298E-04
      0.400000          0.805465E-04
      0.405000          0.765492E-04
      0.410000          0.729360E-04
      0.415000          0.697365E-04
      0.420000          0.670146E-04
      0.425000          0.648490E-04
      0.430000          0.632928E-04
      0.435000          0.623250E-04
      0.440000          0.618223E-04
      0.445000          0.615707E-04
      0.450000          0.613257E-04
      0.455000          0.608988E-04
      0.460000          0.602292E-04
      0.465000          0.594003E-04
      0.470000          0.585886E-04
      0.475000          0.579695E-04
      0.480000          0.576291E-04
      0.485000          0.575262E-04
      0.490000          0.575176E-04
      0.495000          0.574241E-04
      0.500000          0.571008E-04
