 I_abs(s)[cm^-1]/c[mg/ml]
       0.00000          0.120189E-01
      0.500000E-02      0.117535E-01
      0.100000E-01      0.110072E-01
      0.150000E-01      0.991486E-02
      0.200000E-01      0.865969E-02
      0.250000E-01      0.742494E-02
      0.300000E-01      0.635104E-02
      0.350000E-01      0.551033E-02
      0.400000E-01      0.490484E-02
      0.450000E-01      0.448445E-02
      0.500000E-01      0.417595E-02
      0.550000E-01      0.391150E-02
      0.600000E-01      0.364757E-02
      0.650000E-01      0.337021E-02
      0.700000E-01      0.308863E-02
      0.750000E-01      0.282247E-02
      0.800000E-01      0.258929E-02
      0.850000E-01      0.239678E-02
      0.900000E-01      0.224131E-02
      0.950000E-01      0.211140E-02
      0.100000          0.199336E-02
      0.105000          0.187631E-02
      0.110000          0.175486E-02
      0.115000          0.162932E-02
      0.120000          0.150408E-02
      0.125000          0.138525E-02
      0.130000          0.127849E-02
      0.135000          0.118734E-02
      0.140000          0.111246E-02
      0.145000          0.105162E-02
      0.150000          0.100045E-02
      0.155000          0.953722E-03
      0.160000          0.906926E-03
      0.165000          0.857510E-03
      0.170000          0.805449E-03
      0.175000          0.752877E-03
      0.180000          0.702942E-03
      0.185000          0.658391E-03
      0.190000          0.620471E-03
      0.195000          0.588605E-03
      0.200000          0.560873E-03
      0.205000          0.535011E-03
      0.210000          0.509392E-03
      0.215000          0.483552E-03
      0.220000          0.458082E-03
      0.225000          0.434058E-03
      0.230000          0.412351E-03
      0.235000          0.393192E-03
      0.240000          0.376140E-03
      0.245000          0.360398E-03
      0.250000          0.345238E-03
      0.255000          0.330292E-03
      0.260000          0.315586E-03
      0.265000          0.301359E-03
      0.270000          0.287812E-03
      0.275000          0.274957E-03
      0.280000          0.262621E-03
      0.285000          0.250592E-03
      0.290000          0.238777E-03
      0.295000          0.227277E-03
      0.300000          0.216328E-03
      0.305000          0.206165E-03
      0.310000          0.196866E-03
      0.315000          0.188296E-03
      0.320000          0.180147E-03
      0.325000          0.172076E-03
      0.330000          0.163848E-03
      0.335000          0.155430E-03
      0.340000          0.146990E-03
      0.345000          0.138823E-03
      0.350000          0.131235E-03
      0.355000          0.124440E-03
      0.360000          0.118507E-03
      0.365000          0.113367E-03
      0.370000          0.108855E-03
      0.375000          0.104770E-03
      0.380000          0.100922E-03
      0.385000          0.971577E-04
      0.390000          0.933740E-04
      0.395000          0.895169E-04
      0.400000          0.855870E-04
      0.405000          0.816434E-04
      0.410000          0.778002E-04
      0.415000          0.742068E-04
      0.420000          0.710093E-04
      0.425000          0.683049E-04
      0.430000          0.661082E-04
      0.435000          0.643461E-04
      0.440000          0.628875E-04
      0.445000          0.615932E-04
      0.450000          0.603618E-04
      0.455000          0.591501E-04
      0.460000          0.579603E-04
      0.465000          0.568065E-04
      0.470000          0.556845E-04
      0.475000          0.545651E-04
      0.480000          0.534124E-04
      0.485000          0.522149E-04
      0.490000          0.510043E-04
      0.495000          0.498502E-04
      0.500000          0.488310E-04
