 I_abs(s)[cm^-1]/c[mg/ml]
       0.00000          0.117821E-01
      0.500000E-02      0.115230E-01
      0.100000E-01      0.107909E-01
      0.150000E-01      0.970963E-02
      0.200000E-01      0.844955E-02
      0.250000E-01      0.718557E-02
      0.300000E-01      0.605854E-02
      0.350000E-01      0.515070E-02
      0.400000E-01      0.448046E-02
      0.450000E-01      0.401506E-02
      0.500000E-01      0.369383E-02
      0.550000E-01      0.345301E-02
      0.600000E-01      0.324395E-02
      0.650000E-01      0.304088E-02
      0.700000E-01      0.283847E-02
      0.750000E-01      0.264340E-02
      0.800000E-01      0.246470E-02
      0.850000E-01      0.230697E-02
      0.900000E-01      0.216821E-02
      0.950000E-01      0.204154E-02
      0.100000          0.191882E-02
      0.105000          0.179405E-02
      0.110000          0.166505E-02
      0.115000          0.153339E-02
      0.120000          0.140309E-02
      0.125000          0.127893E-02
      0.130000          0.116524E-02
      0.135000          0.106512E-02
      0.140000          0.980210E-03
      0.145000          0.910597E-03
      0.150000          0.854887E-03
      0.155000          0.810403E-03
      0.160000          0.773645E-03
      0.165000          0.741008E-03
      0.170000          0.709573E-03
      0.175000          0.677711E-03
      0.180000          0.645242E-03
      0.185000          0.613106E-03
      0.190000          0.582678E-03
      0.195000          0.555046E-03
      0.200000          0.530532E-03
      0.205000          0.508629E-03
      0.210000          0.488296E-03
      0.215000          0.468429E-03
      0.220000          0.448265E-03
      0.225000          0.427572E-03
      0.230000          0.406584E-03
      0.235000          0.385786E-03
      0.240000          0.365672E-03
      0.245000          0.346589E-03
      0.250000          0.328701E-03
      0.255000          0.312044E-03
      0.260000          0.296588E-03
      0.265000          0.282278E-03
      0.270000          0.269034E-03
      0.275000          0.256720E-03
      0.280000          0.245145E-03
      0.285000          0.234097E-03
      0.290000          0.223409E-03
      0.295000          0.213026E-03
      0.300000          0.203033E-03
      0.305000          0.193628E-03
      0.310000          0.185028E-03
      0.315000          0.177370E-03
      0.320000          0.170625E-03
      0.325000          0.164577E-03
      0.330000          0.158882E-03
      0.335000          0.153177E-03
      0.340000          0.147215E-03
      0.345000          0.140957E-03
      0.350000          0.134583E-03
      0.355000          0.128421E-03
      0.360000          0.122820E-03
      0.365000          0.118009E-03
      0.370000          0.114016E-03
      0.375000          0.110668E-03
      0.380000          0.107677E-03
      0.385000          0.104759E-03
      0.390000          0.101747E-03
      0.395000          0.986370E-04
      0.400000          0.955632E-04
      0.405000          0.927164E-04
      0.410000          0.902537E-04
      0.415000          0.882399E-04
      0.420000          0.866384E-04
      0.425000          0.853441E-04
      0.430000          0.842304E-04
      0.435000          0.831842E-04
      0.440000          0.821177E-04
      0.445000          0.809635E-04
      0.450000          0.796697E-04
      0.455000          0.782048E-04
      0.460000          0.765702E-04
      0.465000          0.748079E-04
      0.470000          0.729906E-04
      0.475000          0.711925E-04
      0.480000          0.694555E-04
      0.485000          0.677689E-04
      0.490000          0.660769E-04
      0.495000          0.643120E-04
      0.500000          0.624365E-04
