 I_abs(s)[cm^-1]/c[mg/ml]
       0.00000          0.121998E-01
      0.500000E-02      0.119785E-01
      0.100000E-01      0.113493E-01
      0.150000E-01      0.104072E-01
      0.200000E-01      0.928488E-02
      0.250000E-01      0.812220E-02
      0.300000E-01      0.703730E-02
      0.350000E-01      0.610700E-02
      0.400000E-01      0.536065E-02
      0.450000E-01      0.478695E-02
      0.500000E-01      0.434941E-02
      0.550000E-01      0.400408E-02
      0.600000E-01      0.371380E-02
      0.650000E-01      0.345537E-02
      0.700000E-01      0.321956E-02
      0.750000E-01      0.300600E-02
      0.800000E-01      0.281668E-02
      0.850000E-01      0.265098E-02
      0.900000E-01      0.250399E-02
      0.950000E-01      0.236783E-02
      0.100000          0.223471E-02
      0.105000          0.209971E-02
      0.110000          0.196212E-02
      0.115000          0.182492E-02
      0.120000          0.169295E-02
      0.125000          0.157075E-02
      0.130000          0.146102E-02
      0.135000          0.136416E-02
      0.140000          0.127873E-02
      0.145000          0.120242E-02
      0.150000          0.113291E-02
      0.155000          0.106845E-02
      0.160000          0.100795E-02
      0.165000          0.950752E-03
      0.170000          0.896468E-03
      0.175000          0.844858E-03
      0.180000          0.795851E-03
      0.185000          0.749592E-03
      0.190000          0.706410E-03
      0.195000          0.666659E-03
      0.200000          0.630501E-03
      0.205000          0.597716E-03
      0.210000          0.567656E-03
      0.215000          0.539362E-03
      0.220000          0.511805E-03
      0.225000          0.484145E-03
      0.230000          0.455928E-03
      0.235000          0.427143E-03
      0.240000          0.398160E-03
      0.245000          0.369587E-03
      0.250000          0.342108E-03
      0.255000          0.316343E-03
      0.260000          0.292764E-03
      0.265000          0.271653E-03
      0.270000          0.253102E-03
      0.275000          0.237029E-03
      0.280000          0.223215E-03
      0.285000          0.211353E-03
      0.290000          0.201098E-03
      0.295000          0.192110E-03
      0.300000          0.184086E-03
      0.305000          0.176769E-03
      0.310000          0.169950E-03
      0.315000          0.163457E-03
      0.320000          0.157159E-03
      0.325000          0.150968E-03
      0.330000          0.144845E-03
      0.335000          0.138806E-03
      0.340000          0.132910E-03
      0.345000          0.127243E-03
      0.350000          0.121891E-03
      0.355000          0.116928E-03
      0.360000          0.112404E-03
      0.365000          0.108345E-03
      0.370000          0.104760E-03
      0.375000          0.101643E-03
      0.380000          0.989697E-04
      0.385000          0.966920E-04
      0.390000          0.947380E-04
      0.395000          0.930191E-04
      0.400000          0.914482E-04
      0.405000          0.899635E-04
      0.410000          0.885438E-04
      0.415000          0.872076E-04
      0.420000          0.859906E-04
      0.425000          0.849112E-04
      0.430000          0.839386E-04
      0.435000          0.829816E-04
      0.440000          0.819075E-04
      0.445000          0.805860E-04
      0.450000          0.789406E-04
      0.455000          0.769837E-04
      0.460000          0.748190E-04
      0.465000          0.726080E-04
      0.470000          0.705155E-04
      0.475000          0.686555E-04
      0.480000          0.670607E-04
      0.485000          0.656831E-04
      0.490000          0.644226E-04
      0.495000          0.631678E-04
      0.500000          0.618334E-04
