 I_abs(s)[cm^-1]/c[mg/ml]
       0.00000          0.122871E-01
      0.500000E-02      0.120675E-01
      0.100000E-01      0.114417E-01
      0.150000E-01      0.105014E-01
      0.200000E-01      0.937468E-02
      0.250000E-01      0.819801E-02
      0.300000E-01      0.708817E-02
      0.350000E-01      0.612330E-02
      0.400000E-01      0.533620E-02
      0.450000E-01      0.471990E-02
      0.500000E-01      0.424174E-02
      0.550000E-01      0.386014E-02
      0.600000E-01      0.353859E-02
      0.650000E-01      0.325340E-02
      0.700000E-01      0.299472E-02
      0.750000E-01      0.276226E-02
      0.800000E-01      0.255915E-02
      0.850000E-01      0.238661E-02
      0.900000E-01      0.224135E-02
      0.950000E-01      0.211593E-02
      0.100000          0.200109E-02
      0.105000          0.188865E-02
      0.110000          0.177357E-02
      0.115000          0.165469E-02
      0.120000          0.153401E-02
      0.125000          0.141537E-02
      0.130000          0.130284E-02
      0.135000          0.119968E-02
      0.140000          0.110772E-02
      0.145000          0.102738E-02
      0.150000          0.957894E-03
      0.155000          0.897732E-03
      0.160000          0.845030E-03
      0.165000          0.797975E-03
      0.170000          0.755133E-03
      0.175000          0.715650E-03
      0.180000          0.679287E-03
      0.185000          0.646275E-03
      0.190000          0.617028E-03
      0.195000          0.591802E-03
      0.200000          0.570447E-03
      0.205000          0.552319E-03
      0.210000          0.536386E-03
      0.215000          0.521464E-03
      0.220000          0.506495E-03
      0.225000          0.490747E-03
      0.230000          0.473897E-03
      0.235000          0.455979E-03
      0.240000          0.437264E-03
      0.245000          0.418104E-03
      0.250000          0.398825E-03
      0.255000          0.379657E-03
      0.260000          0.360724E-03
      0.265000          0.342072E-03
      0.270000          0.323707E-03
      0.275000          0.305643E-03
      0.280000          0.287945E-03
      0.285000          0.270745E-03
      0.290000          0.254250E-03
      0.295000          0.238709E-03
      0.300000          0.224368E-03
      0.305000          0.211421E-03
      0.310000          0.199971E-03
      0.315000          0.190021E-03
      0.320000          0.181484E-03
      0.325000          0.174216E-03
      0.330000          0.168036E-03
      0.335000          0.162746E-03
      0.340000          0.158133E-03
      0.345000          0.153980E-03
      0.350000          0.150074E-03
      0.355000          0.146238E-03
      0.360000          0.142350E-03
      0.365000          0.138359E-03
      0.370000          0.134267E-03
      0.375000          0.130098E-03
      0.380000          0.125859E-03
      0.385000          0.121525E-03
      0.390000          0.117047E-03
      0.395000          0.112401E-03
      0.400000          0.107640E-03
      0.405000          0.102921E-03
      0.410000          0.984932E-04
      0.415000          0.946411E-04
      0.420000          0.915958E-04
      0.425000          0.894599E-04
      0.430000          0.881703E-04
      0.435000          0.875162E-04
      0.440000          0.872028E-04
      0.445000          0.869344E-04
      0.450000          0.864851E-04
      0.455000          0.857352E-04
      0.460000          0.846663E-04
      0.465000          0.833304E-04
      0.470000          0.818084E-04
      0.475000          0.801792E-04
      0.480000          0.785037E-04
      0.485000          0.768233E-04
      0.490000          0.751650E-04
      0.495000          0.735466E-04
      0.500000          0.719805E-04
