 I_abs(s)[cm^-1]/c[mg/ml]
       0.00000          0.130494E-01
      0.500000E-02      0.128687E-01
      0.100000E-01      0.123461E-01
      0.150000E-01      0.115378E-01
      0.200000E-01      0.105256E-01
      0.250000E-01      0.940347E-02
      0.300000E-01      0.826267E-02
      0.350000E-01      0.717888E-02
      0.400000E-01      0.620441E-02
      0.450000E-01      0.536592E-02
      0.500000E-01      0.466738E-02
      0.550000E-01      0.409662E-02
      0.600000E-01      0.363317E-02
      0.650000E-01      0.325532E-02
      0.700000E-01      0.294475E-02
      0.750000E-01      0.268830E-02
      0.800000E-01      0.247724E-02
      0.850000E-01      0.230516E-02
      0.900000E-01      0.216565E-02
      0.950000E-01      0.205094E-02
      0.100000          0.195173E-02
      0.105000          0.185844E-02
      0.110000          0.176294E-02
      0.115000          0.166017E-02
      0.120000          0.154906E-02
      0.125000          0.143228E-02
      0.130000          0.131507E-02
      0.135000          0.120348E-02
      0.140000          0.110264E-02
      0.145000          0.101561E-02
      0.150000          0.942886E-03
      0.155000          0.882821E-03
      0.160000          0.832443E-03
      0.165000          0.788498E-03
      0.170000          0.748287E-03
      0.175000          0.710102E-03
      0.180000          0.673254E-03
      0.185000          0.637780E-03
      0.190000          0.604040E-03
      0.195000          0.572369E-03
      0.200000          0.542907E-03
      0.205000          0.515588E-03
      0.210000          0.490262E-03
      0.215000          0.466816E-03
      0.220000          0.445245E-03
      0.225000          0.425627E-03
      0.230000          0.408037E-03
      0.235000          0.392444E-03
      0.240000          0.378649E-03
      0.245000          0.366298E-03
      0.250000          0.354954E-03
      0.255000          0.344200E-03
      0.260000          0.333729E-03
      0.265000          0.323386E-03
      0.270000          0.313155E-03
      0.275000          0.303109E-03
      0.280000          0.293358E-03
      0.285000          0.284010E-03
      0.290000          0.275163E-03
      0.295000          0.266924E-03
      0.300000          0.259412E-03
      0.305000          0.252756E-03
      0.310000          0.247045E-03
      0.315000          0.242279E-03
      0.320000          0.238307E-03
      0.325000          0.234821E-03
      0.330000          0.231388E-03
      0.335000          0.227545E-03
      0.340000          0.222905E-03
      0.345000          0.217264E-03
      0.350000          0.210648E-03
      0.355000          0.203300E-03
      0.360000          0.195592E-03
      0.365000          0.187915E-03
      0.370000          0.180565E-03
      0.375000          0.173666E-03
      0.380000          0.167168E-03
      0.385000          0.160893E-03
      0.390000          0.154620E-03
      0.395000          0.148181E-03
      0.400000          0.141517E-03
      0.405000          0.134696E-03
      0.410000          0.127887E-03
      0.415000          0.121303E-03
      0.420000          0.115145E-03
      0.425000          0.109560E-03
      0.430000          0.104634E-03
      0.435000          0.100400E-03
      0.440000          0.968630E-04
      0.445000          0.940209E-04
      0.450000          0.918614E-04
      0.455000          0.903480E-04
      0.460000          0.893946E-04
      0.465000          0.888479E-04
      0.470000          0.884874E-04
      0.475000          0.880514E-04
      0.480000          0.872821E-04
      0.485000          0.859781E-04
      0.490000          0.840371E-04
      0.495000          0.814758E-04
      0.500000          0.784214E-04
