 I_abs(s)[cm^-1]/c[mg/ml]
       0.00000          0.120117E-01
      0.500000E-02      0.117957E-01
      0.100000E-01      0.111784E-01
      0.150000E-01      0.102453E-01
      0.200000E-01      0.911844E-02
      0.250000E-01      0.793159E-02
      0.300000E-01      0.680493E-02
      0.350000E-01      0.582530E-02
      0.400000E-01      0.503630E-02
      0.450000E-01      0.443941E-02
      0.500000E-01      0.400427E-02
      0.550000E-01      0.368418E-02
      0.600000E-01      0.343176E-02
      0.650000E-01      0.321080E-02
      0.700000E-01      0.300168E-02
      0.750000E-01      0.280044E-02
      0.800000E-01      0.261318E-02
      0.850000E-01      0.244862E-02
      0.900000E-01      0.231185E-02
      0.950000E-01      0.220107E-02
      0.100000          0.210787E-02
      0.105000          0.202029E-02
      0.110000          0.192698E-02
      0.115000          0.182086E-02
      0.120000          0.170081E-02
      0.125000          0.157128E-02
      0.130000          0.144015E-02
      0.135000          0.131584E-02
      0.140000          0.120481E-02
      0.145000          0.111022E-02
      0.150000          0.103184E-02
      0.155000          0.967102E-03
      0.160000          0.912560E-03
      0.165000          0.865143E-03
      0.170000          0.822840E-03
      0.175000          0.784670E-03
      0.180000          0.750200E-03
      0.185000          0.718932E-03
      0.190000          0.689919E-03
      0.195000          0.661764E-03
      0.200000          0.632967E-03
      0.205000          0.602421E-03
      0.210000          0.569811E-03
      0.215000          0.535741E-03
      0.220000          0.501520E-03
      0.225000          0.468731E-03
      0.230000          0.438733E-03
      0.235000          0.412288E-03
      0.240000          0.389437E-03
      0.245000          0.369620E-03
      0.250000          0.351961E-03
      0.255000          0.335602E-03
      0.260000          0.319946E-03
      0.265000          0.304753E-03
      0.270000          0.290081E-03
      0.275000          0.276145E-03
      0.280000          0.263150E-03
      0.285000          0.251187E-03
      0.290000          0.240195E-03
      0.295000          0.230015E-03
      0.300000          0.220456E-03
      0.305000          0.211371E-03
      0.310000          0.202688E-03
      0.315000          0.194399E-03
      0.320000          0.186528E-03
      0.325000          0.179092E-03
      0.330000          0.172071E-03
      0.335000          0.165416E-03
      0.340000          0.159058E-03
      0.345000          0.152930E-03
      0.350000          0.146984E-03
      0.355000          0.141194E-03
      0.360000          0.135551E-03
      0.365000          0.130061E-03
      0.370000          0.124745E-03
      0.375000          0.119634E-03
      0.380000          0.114777E-03
      0.385000          0.110230E-03
      0.390000          0.106044E-03
      0.395000          0.102252E-03
      0.400000          0.988596E-04
      0.405000          0.958429E-04
      0.410000          0.931618E-04
      0.415000          0.907744E-04
      0.420000          0.886476E-04
      0.425000          0.867579E-04
      0.430000          0.850821E-04
      0.435000          0.835854E-04
      0.440000          0.822161E-04
      0.445000          0.809136E-04
      0.450000          0.796263E-04
      0.455000          0.783313E-04
      0.460000          0.770447E-04
      0.465000          0.758131E-04
      0.470000          0.746909E-04
      0.475000          0.737105E-04
      0.480000          0.728601E-04
      0.485000          0.720806E-04
      0.490000          0.712822E-04
      0.495000          0.703752E-04
      0.500000          0.693009E-04
