 I_abs(s)[cm^-1]/c[mg/ml]
       0.00000          0.119038E-01
      0.500000E-02      0.116293E-01
      0.100000E-01      0.108546E-01
      0.150000E-01      0.971273E-02
      0.200000E-01      0.838818E-02
      0.250000E-01      0.707177E-02
      0.300000E-01      0.591856E-02
      0.350000E-01      0.501937E-02
      0.400000E-01      0.439268E-02
      0.450000E-01      0.399646E-02
      0.500000E-01      0.375368E-02
      0.550000E-01      0.358164E-02
      0.600000E-01      0.341589E-02
      0.650000E-01      0.322257E-02
      0.700000E-01      0.299806E-02
      0.750000E-01      0.275908E-02
      0.800000E-01      0.252894E-02
      0.850000E-01      0.232572E-02
      0.900000E-01      0.215604E-02
      0.950000E-01      0.201525E-02
      0.100000          0.189215E-02
      0.105000          0.177518E-02
      0.110000          0.165719E-02
      0.115000          0.153716E-02
      0.120000          0.141898E-02
      0.125000          0.130844E-02
      0.130000          0.121023E-02
      0.135000          0.112624E-02
      0.140000          0.105538E-02
      0.145000          0.994805E-03
      0.150000          0.941357E-03
      0.155000          0.892744E-03
      0.160000          0.847839E-03
      0.165000          0.806326E-03
      0.170000          0.768055E-03
      0.175000          0.732572E-03
      0.180000          0.699043E-03
      0.185000          0.666552E-03
      0.190000          0.634503E-03
      0.195000          0.602875E-03
      0.200000          0.572169E-03
      0.205000          0.543104E-03
      0.210000          0.516230E-03
      0.215000          0.491664E-03
      0.220000          0.469059E-03
      0.225000          0.447804E-03
      0.230000          0.427310E-03
      0.235000          0.407262E-03
      0.240000          0.387700E-03
      0.245000          0.368948E-03
      0.250000          0.351421E-03
      0.255000          0.335438E-03
      0.260000          0.321089E-03
      0.265000          0.308201E-03
      0.270000          0.296398E-03
      0.275000          0.285193E-03
      0.280000          0.274104E-03
      0.285000          0.262759E-03
      0.290000          0.250979E-03
      0.295000          0.238827E-03
      0.300000          0.226615E-03
      0.305000          0.214838E-03
      0.310000          0.204044E-03
      0.315000          0.194667E-03
      0.320000          0.186865E-03
      0.325000          0.180444E-03
      0.330000          0.174888E-03
      0.335000          0.169521E-03
      0.340000          0.163724E-03
      0.345000          0.157150E-03
      0.350000          0.149835E-03
      0.355000          0.142171E-03
      0.360000          0.134751E-03
      0.365000          0.128144E-03
      0.370000          0.122699E-03
      0.375000          0.118442E-03
      0.380000          0.115102E-03
      0.385000          0.112233E-03
      0.390000          0.109386E-03
      0.395000          0.106236E-03
      0.400000          0.102642E-03
      0.405000          0.986342E-04
      0.410000          0.943426E-04
      0.415000          0.899347E-04
      0.420000          0.855755E-04
      0.425000          0.814201E-04
      0.430000          0.776193E-04
      0.435000          0.743155E-04
      0.440000          0.716153E-04
      0.445000          0.695502E-04
      0.450000          0.680479E-04
      0.455000          0.669358E-04
      0.460000          0.659850E-04
      0.465000          0.649800E-04
      0.470000          0.637862E-04
      0.475000          0.623885E-04
      0.480000          0.608842E-04
      0.485000          0.594349E-04
      0.490000          0.581968E-04
      0.495000          0.572562E-04
      0.500000          0.565938E-04
