 I_abs(s)[cm^-1]/c[mg/ml]
       0.00000          0.124334E-01
      0.500000E-02      0.122117E-01
      0.100000E-01      0.115794E-01
      0.150000E-01      0.106264E-01
      0.200000E-01      0.948064E-02
      0.250000E-01      0.828038E-02
      0.300000E-01      0.714739E-02
      0.350000E-01      0.616624E-02
      0.400000E-01      0.537502E-02
      0.450000E-01      0.476811E-02
      0.500000E-01      0.430859E-02
      0.550000E-01      0.394561E-02
      0.600000E-01      0.363125E-02
      0.650000E-01      0.333229E-02
      0.700000E-01      0.303487E-02
      0.750000E-01      0.274213E-02
      0.800000E-01      0.246726E-02
      0.850000E-01      0.222507E-02
      0.900000E-01      0.202526E-02
      0.950000E-01      0.186904E-02
      0.100000          0.174947E-02
      0.105000          0.165458E-02
      0.110000          0.157157E-02
      0.115000          0.149032E-02
      0.120000          0.140533E-02
      0.125000          0.131573E-02
      0.130000          0.122389E-02
      0.135000          0.113345E-02
      0.140000          0.104768E-02
      0.145000          0.968465E-03
      0.150000          0.896276E-03
      0.155000          0.830615E-03
      0.160000          0.770698E-03
      0.165000          0.715952E-03
      0.170000          0.666204E-03
      0.175000          0.621554E-03
      0.180000          0.582115E-03
      0.185000          0.547785E-03
      0.190000          0.518162E-03
      0.195000          0.492613E-03
      0.200000          0.470428E-03
      0.205000          0.450983E-03
      0.210000          0.433805E-03
      0.215000          0.418559E-03
      0.220000          0.404960E-03
      0.225000          0.392683E-03
      0.230000          0.381301E-03
      0.235000          0.370301E-03
      0.240000          0.359139E-03
      0.245000          0.347341E-03
      0.250000          0.334580E-03
      0.255000          0.320743E-03
      0.260000          0.305950E-03
      0.265000          0.290530E-03
      0.270000          0.274966E-03
      0.275000          0.259810E-03
      0.280000          0.245587E-03
      0.285000          0.232694E-03
      0.290000          0.221334E-03
      0.295000          0.211482E-03
      0.300000          0.202920E-03
      0.305000          0.195306E-03
      0.310000          0.188292E-03
      0.315000          0.181627E-03
      0.320000          0.175218E-03
      0.325000          0.169140E-03
      0.330000          0.163576E-03
      0.335000          0.158719E-03
      0.340000          0.154675E-03
      0.345000          0.151396E-03
      0.350000          0.148682E-03
      0.355000          0.146231E-03
      0.360000          0.143731E-03
      0.365000          0.140943E-03
      0.370000          0.137759E-03
      0.375000          0.134203E-03
      0.380000          0.130394E-03
      0.385000          0.126482E-03
      0.390000          0.122590E-03
      0.395000          0.118792E-03
      0.400000          0.115108E-03
      0.405000          0.111536E-03
      0.410000          0.108077E-03
      0.415000          0.104760E-03
      0.420000          0.101646E-03
      0.425000          0.988127E-04
      0.430000          0.963361E-04
      0.435000          0.942741E-04
      0.440000          0.926513E-04
      0.445000          0.914534E-04
      0.450000          0.906243E-04
      0.455000          0.900679E-04
      0.460000          0.896562E-04
      0.465000          0.892436E-04
      0.470000          0.886905E-04
      0.475000          0.878896E-04
      0.480000          0.867871E-04
      0.485000          0.853918E-04
      0.490000          0.837666E-04
      0.495000          0.820036E-04
      0.500000          0.801928E-04
