 I_abs(s)[cm^-1]/c[mg/ml]
       0.00000          0.116469E-01
      0.500000E-02      0.113901E-01
      0.100000E-01      0.106673E-01
      0.150000E-01      0.960805E-02
      0.200000E-01      0.838856E-02
      0.250000E-01      0.718632E-02
      0.300000E-01      0.613882E-02
      0.350000E-01      0.531864E-02
      0.400000E-01      0.473049E-02
      0.450000E-01      0.432779E-02
      0.500000E-01      0.404026E-02
      0.550000E-01      0.380166E-02
      0.600000E-01      0.356854E-02
      0.650000E-01      0.332602E-02
      0.700000E-01      0.308168E-02
      0.750000E-01      0.285313E-02
      0.800000E-01      0.265555E-02
      0.850000E-01      0.249407E-02
      0.900000E-01      0.236283E-02
      0.950000E-01      0.224916E-02
      0.100000          0.213980E-02
      0.105000          0.202596E-02
      0.110000          0.190535E-02
      0.115000          0.178102E-02
      0.120000          0.165855E-02
      0.125000          0.154306E-02
      0.130000          0.143748E-02
      0.135000          0.134228E-02
      0.140000          0.125633E-02
      0.145000          0.117807E-02
      0.150000          0.110621E-02
      0.155000          0.104001E-02
      0.160000          0.978997E-03
      0.165000          0.922730E-03
      0.170000          0.870657E-03
      0.175000          0.822224E-03
      0.180000          0.777022E-03
      0.185000          0.734848E-03
      0.190000          0.695581E-03
      0.195000          0.658987E-03
      0.200000          0.624581E-03
      0.205000          0.591678E-03
      0.210000          0.559616E-03
      0.215000          0.528021E-03
      0.220000          0.496963E-03
      0.225000          0.466898E-03
      0.230000          0.438420E-03
      0.235000          0.411950E-03
      0.240000          0.387537E-03
      0.245000          0.364856E-03
      0.250000          0.343403E-03
      0.255000          0.322767E-03
      0.260000          0.302841E-03
      0.265000          0.283868E-03
      0.270000          0.266304E-03
      0.275000          0.250585E-03
      0.280000          0.236901E-03
      0.285000          0.225093E-03
      0.290000          0.214693E-03
      0.295000          0.205090E-03
      0.300000          0.195722E-03
      0.305000          0.186239E-03
      0.310000          0.176567E-03
      0.315000          0.166862E-03
      0.320000          0.157412E-03
      0.325000          0.148512E-03
      0.330000          0.140372E-03
      0.335000          0.133083E-03
      0.340000          0.126624E-03
      0.345000          0.120903E-03
      0.350000          0.115798E-03
      0.355000          0.111186E-03
      0.360000          0.106948E-03
      0.365000          0.102981E-03
      0.370000          0.991939E-04
      0.375000          0.955212E-04
      0.380000          0.919344E-04
      0.385000          0.884434E-04
      0.390000          0.850887E-04
      0.395000          0.819251E-04
      0.400000          0.790053E-04
      0.405000          0.763706E-04
      0.410000          0.740466E-04
      0.415000          0.720394E-04
      0.420000          0.703281E-04
      0.425000          0.688567E-04
      0.430000          0.675367E-04
      0.435000          0.662677E-04
      0.440000          0.649721E-04
      0.445000          0.636290E-04
      0.450000          0.622833E-04
      0.455000          0.610215E-04
      0.460000          0.599212E-04
      0.465000          0.590022E-04
      0.470000          0.582049E-04
      0.475000          0.574101E-04
      0.480000          0.564884E-04
      0.485000          0.553523E-04
      0.490000          0.539864E-04
      0.495000          0.524434E-04
      0.500000          0.508147E-04
