 I_abs(s)[cm^-1]/c[mg/ml]
       0.00000          0.119973E-01
      0.500000E-02      0.117382E-01
      0.100000E-01      0.110089E-01
      0.150000E-01      0.993973E-02
      0.200000E-01      0.870875E-02
      0.250000E-01      0.749579E-02
      0.300000E-01      0.644105E-02
      0.350000E-01      0.561951E-02
      0.400000E-01      0.503696E-02
      0.450000E-01      0.464577E-02
      0.500000E-01      0.437213E-02
      0.550000E-01      0.414412E-02
      0.600000E-01      0.391179E-02
      0.650000E-01      0.365456E-02
      0.700000E-01      0.337701E-02
      0.750000E-01      0.309752E-02
      0.800000E-01      0.283589E-02
      0.850000E-01      0.260463E-02
      0.900000E-01      0.240605E-02
      0.950000E-01      0.223436E-02
      0.100000          0.208026E-02
      0.105000          0.193545E-02
      0.110000          0.179520E-02
      0.115000          0.165867E-02
      0.120000          0.152758E-02
      0.125000          0.140455E-02
      0.130000          0.129171E-02
      0.135000          0.119020E-02
      0.140000          0.110019E-02
      0.145000          0.102116E-02
      0.150000          0.952074E-03
      0.155000          0.891536E-03
      0.160000          0.837850E-03
      0.165000          0.789229E-03
      0.170000          0.744118E-03
      0.175000          0.701512E-03
      0.180000          0.661112E-03
      0.185000          0.623221E-03
      0.190000          0.588416E-03
      0.195000          0.557148E-03
      0.200000          0.529454E-03
      0.205000          0.504886E-03
      0.210000          0.482654E-03
      0.215000          0.461886E-03
      0.220000          0.441862E-03
      0.225000          0.422133E-03
      0.230000          0.402516E-03
      0.235000          0.383006E-03
      0.240000          0.363687E-03
      0.245000          0.344689E-03
      0.250000          0.326183E-03
      0.255000          0.308399E-03
      0.260000          0.291601E-03
      0.265000          0.276033E-03
      0.270000          0.261826E-03
      0.275000          0.248937E-03
      0.280000          0.237142E-03
      0.285000          0.226100E-03
      0.290000          0.215468E-03
      0.295000          0.205018E-03
      0.300000          0.194704E-03
      0.305000          0.184647E-03
      0.310000          0.175058E-03
      0.315000          0.166113E-03
      0.320000          0.157863E-03
      0.325000          0.150191E-03
      0.330000          0.142867E-03
      0.335000          0.135651E-03
      0.340000          0.128419E-03
      0.345000          0.121243E-03
      0.350000          0.114389E-03
      0.355000          0.108226E-03
      0.360000          0.103087E-03
      0.365000          0.991355E-04
      0.370000          0.962888E-04
      0.375000          0.942420E-04
      0.380000          0.925672E-04
      0.385000          0.908534E-04
      0.390000          0.888246E-04
      0.395000          0.863975E-04
      0.400000          0.836641E-04
      0.405000          0.808209E-04
      0.410000          0.780821E-04
      0.415000          0.756111E-04
      0.420000          0.734896E-04
      0.425000          0.717198E-04
      0.430000          0.702467E-04
      0.435000          0.689854E-04
      0.440000          0.678437E-04
      0.445000          0.667425E-04
      0.450000          0.656305E-04
      0.455000          0.644958E-04
      0.460000          0.633651E-04
      0.465000          0.622892E-04
      0.470000          0.613165E-04
      0.475000          0.604650E-04
      0.480000          0.597066E-04
      0.485000          0.589739E-04
      0.490000          0.581870E-04
      0.495000          0.572893E-04
      0.500000          0.562756E-04
