 I_abs(s)[cm^-1]/c[mg/ml]
       0.00000          0.124407E-01
      0.500000E-02      0.122144E-01
      0.100000E-01      0.115689E-01
      0.150000E-01      0.105969E-01
      0.200000E-01      0.942988E-02
      0.250000E-01      0.821002E-02
      0.300000E-01      0.706270E-02
      0.350000E-01      0.607555E-02
      0.400000E-01      0.528919E-02
      0.450000E-01      0.469996E-02
      0.500000E-01      0.427234E-02
      0.550000E-01      0.395584E-02
      0.600000E-01      0.370120E-02
      0.650000E-01      0.347165E-02
      0.700000E-01      0.324735E-02
      0.750000E-01      0.302365E-02
      0.800000E-01      0.280538E-02
      0.850000E-01      0.260026E-02
      0.900000E-01      0.241382E-02
      0.950000E-01      0.224704E-02
      0.100000          0.209687E-02
      0.105000          0.195828E-02
      0.110000          0.182668E-02
      0.115000          0.169956E-02
      0.120000          0.157685E-02
      0.125000          0.146018E-02
      0.130000          0.135166E-02
      0.135000          0.125276E-02
      0.140000          0.116378E-02
      0.145000          0.108391E-02
      0.150000          0.101169E-02
      0.155000          0.945637E-03
      0.160000          0.884605E-03
      0.165000          0.827945E-03
      0.170000          0.775373E-03
      0.175000          0.726758E-03
      0.180000          0.681927E-03
      0.185000          0.640580E-03
      0.190000          0.602303E-03
      0.195000          0.566640E-03
      0.200000          0.533171E-03
      0.205000          0.501579E-03
      0.210000          0.471685E-03
      0.215000          0.443477E-03
      0.220000          0.417110E-03
      0.225000          0.392879E-03
      0.230000          0.371124E-03
      0.235000          0.352104E-03
      0.240000          0.335844E-03
      0.245000          0.322041E-03
      0.250000          0.310066E-03
      0.255000          0.299079E-03
      0.260000          0.288239E-03
      0.265000          0.276918E-03
      0.270000          0.264856E-03
      0.275000          0.252173E-03
      0.280000          0.239266E-03
      0.285000          0.226621E-03
      0.290000          0.214628E-03
      0.295000          0.203479E-03
      0.300000          0.193162E-03
      0.305000          0.183555E-03
      0.310000          0.174529E-03
      0.315000          0.166030E-03
      0.320000          0.158086E-03
      0.325000          0.150756E-03
      0.330000          0.144059E-03
      0.335000          0.137936E-03
      0.340000          0.132272E-03
      0.345000          0.126968E-03
      0.350000          0.122021E-03
      0.355000          0.117559E-03
      0.360000          0.113805E-03
      0.365000          0.110971E-03
      0.370000          0.109137E-03
      0.375000          0.108169E-03
      0.380000          0.107718E-03
      0.385000          0.107321E-03
      0.390000          0.106549E-03
      0.395000          0.105155E-03
      0.400000          0.103147E-03
      0.405000          0.100754E-03
      0.410000          0.983175E-04
      0.415000          0.961326E-04
      0.420000          0.943326E-04
      0.425000          0.928481E-04
      0.430000          0.914619E-04
      0.435000          0.899232E-04
      0.440000          0.880687E-04
      0.445000          0.858934E-04
      0.450000          0.835428E-04
      0.455000          0.812366E-04
      0.460000          0.791644E-04
      0.465000          0.774024E-04
      0.470000          0.758888E-04
      0.475000          0.744644E-04
      0.480000          0.729521E-04
      0.485000          0.712377E-04
      0.490000          0.693121E-04
      0.495000          0.672628E-04
      0.500000          0.652236E-04
