 I_abs(s)[cm^-1]/c[mg/ml]
       0.00000          0.122580E-01
      0.500000E-02      0.120068E-01
      0.100000E-01      0.112989E-01
      0.150000E-01      0.102576E-01
      0.200000E-01      0.905115E-02
      0.250000E-01      0.784831E-02
      0.300000E-01      0.678002E-02
      0.350000E-01      0.591609E-02
      0.400000E-01      0.526293E-02
      0.450000E-01      0.477957E-02
      0.500000E-01      0.440344E-02
      0.550000E-01      0.407566E-02
      0.600000E-01      0.375793E-02
      0.650000E-01      0.343739E-02
      0.700000E-01      0.312118E-02
      0.750000E-01      0.282558E-02
      0.800000E-01      0.256531E-02
      0.850000E-01      0.234689E-02
      0.900000E-01      0.216744E-02
      0.950000E-01      0.201749E-02
      0.100000          0.188562E-02
      0.105000          0.176247E-02
      0.110000          0.164287E-02
      0.115000          0.152597E-02
      0.120000          0.141400E-02
      0.125000          0.131057E-02
      0.130000          0.121902E-02
      0.135000          0.114130E-02
      0.140000          0.107733E-02
      0.145000          0.102495E-02
      0.150000          0.980404E-03
      0.155000          0.939272E-03
      0.160000          0.897663E-03
      0.165000          0.853253E-03
      0.170000          0.805808E-03
      0.175000          0.756976E-03
      0.180000          0.709414E-03
      0.185000          0.665641E-03
      0.190000          0.627067E-03
      0.195000          0.593595E-03
      0.200000          0.563882E-03
      0.205000          0.536056E-03
      0.210000          0.508539E-03
      0.215000          0.480579E-03
      0.220000          0.452360E-03
      0.225000          0.424697E-03
      0.230000          0.398557E-03
      0.235000          0.374641E-03
      0.240000          0.353178E-03
      0.245000          0.333974E-03
      0.250000          0.316596E-03
      0.255000          0.300598E-03
      0.260000          0.285661E-03
      0.265000          0.271636E-03
      0.270000          0.258503E-03
      0.275000          0.246299E-03
      0.280000          0.235043E-03
      0.285000          0.224703E-03
      0.290000          0.215179E-03
      0.295000          0.206315E-03
      0.300000          0.197936E-03
      0.305000          0.189881E-03
      0.310000          0.182041E-03
      0.315000          0.174377E-03
      0.320000          0.166900E-03
      0.325000          0.159644E-03
      0.330000          0.152622E-03
      0.335000          0.145804E-03
      0.340000          0.139127E-03
      0.345000          0.132530E-03
      0.350000          0.125992E-03
      0.355000          0.119553E-03
      0.360000          0.113301E-03
      0.365000          0.107343E-03
      0.370000          0.101770E-03
      0.375000          0.966316E-04
      0.380000          0.919418E-04
      0.385000          0.876898E-04
      0.390000          0.838531E-04
      0.395000          0.804035E-04
      0.400000          0.773076E-04
      0.405000          0.745302E-04
      0.410000          0.720457E-04
      0.415000          0.698486E-04
      0.420000          0.679538E-04
      0.425000          0.663779E-04
      0.430000          0.651109E-04
      0.435000          0.640961E-04
      0.440000          0.632371E-04
      0.445000          0.624357E-04
      0.450000          0.616392E-04
      0.455000          0.608705E-04
      0.460000          0.602158E-04
      0.465000          0.597753E-04
      0.470000          0.596013E-04
      0.475000          0.596590E-04
      0.480000          0.598326E-04
      0.485000          0.599706E-04
      0.490000          0.599443E-04
      0.495000          0.596895E-04
      0.500000          0.592148E-04
