 I_abs(s)[cm^-1]/c[mg/ml]
       0.00000          0.122361E-01
      0.500000E-02      0.120121E-01
      0.100000E-01      0.113724E-01
      0.150000E-01      0.104068E-01
      0.200000E-01      0.924315E-02
      0.250000E-01      0.802071E-02
      0.300000E-01      0.686352E-02
      0.350000E-01      0.586001E-02
      0.400000E-01      0.505336E-02
      0.450000E-01      0.444352E-02
      0.500000E-01      0.399864E-02
      0.550000E-01      0.367133E-02
      0.600000E-01      0.341450E-02
      0.650000E-01      0.319269E-02
      0.700000E-01      0.298666E-02
      0.750000E-01      0.279165E-02
      0.800000E-01      0.261148E-02
      0.850000E-01      0.245157E-02
      0.900000E-01      0.231358E-02
      0.950000E-01      0.219332E-02
      0.100000          0.208191E-02
      0.105000          0.196920E-02
      0.110000          0.184744E-02
      0.115000          0.171400E-02
      0.120000          0.157190E-02
      0.125000          0.142839E-02
      0.130000          0.129229E-02
      0.135000          0.117118E-02
      0.140000          0.106938E-02
      0.145000          0.987273E-03
      0.150000          0.921975E-03
      0.155000          0.868802E-03
      0.160000          0.822928E-03
      0.165000          0.780658E-03
      0.170000          0.739988E-03
      0.175000          0.700480E-03
      0.180000          0.662668E-03
      0.185000          0.627339E-03
      0.190000          0.594970E-03
      0.195000          0.565476E-03
      0.200000          0.538261E-03
      0.205000          0.512469E-03
      0.210000          0.487293E-03
      0.215000          0.462204E-03
      0.220000          0.437055E-03
      0.225000          0.412058E-03
      0.230000          0.387665E-03
      0.235000          0.364417E-03
      0.240000          0.342811E-03
      0.245000          0.323203E-03
      0.250000          0.305761E-03
      0.255000          0.290467E-03
      0.260000          0.277149E-03
      0.265000          0.265526E-03
      0.270000          0.255270E-03
      0.275000          0.246049E-03
      0.280000          0.237561E-03
      0.285000          0.229558E-03
      0.290000          0.221847E-03
      0.295000          0.214288E-03
      0.300000          0.206795E-03
      0.305000          0.199338E-03
      0.310000          0.191941E-03
      0.315000          0.184690E-03
      0.320000          0.177718E-03
      0.325000          0.171187E-03
      0.330000          0.165254E-03
      0.335000          0.160035E-03
      0.340000          0.155565E-03
      0.345000          0.151778E-03
      0.350000          0.148508E-03
      0.355000          0.145514E-03
      0.360000          0.142520E-03
      0.365000          0.139281E-03
      0.370000          0.135635E-03
      0.375000          0.131543E-03
      0.380000          0.127107E-03
      0.385000          0.122541E-03
      0.390000          0.118118E-03
      0.395000          0.114102E-03
      0.400000          0.110669E-03
      0.405000          0.107867E-03
      0.410000          0.105598E-03
      0.415000          0.103654E-03
      0.420000          0.101784E-03
      0.425000          0.997709E-04
      0.430000          0.975063E-04
      0.435000          0.950227E-04
      0.440000          0.924812E-04
      0.445000          0.901128E-04
      0.450000          0.881296E-04
      0.455000          0.866388E-04
      0.460000          0.855887E-04
      0.465000          0.847712E-04
      0.470000          0.838822E-04
      0.475000          0.826243E-04
      0.480000          0.808128E-04
      0.485000          0.784478E-04
      0.490000          0.757224E-04
      0.495000          0.729614E-04
      0.500000          0.705119E-04
