 I_abs(s)[cm^-1]/c[mg/ml]
       0.00000          0.119541E-01
      0.500000E-02      0.117284E-01
      0.100000E-01      0.110895E-01
      0.150000E-01      0.101414E-01
      0.200000E-01      0.902780E-02
      0.250000E-01      0.789649E-02
      0.300000E-01      0.686726E-02
      0.350000E-01      0.601108E-02
      0.400000E-01      0.534550E-02
      0.450000E-01      0.484501E-02
      0.500000E-01      0.446064E-02
      0.550000E-01      0.414085E-02
      0.600000E-01      0.384708E-02
      0.650000E-01      0.356042E-02
      0.700000E-01      0.327954E-02
      0.750000E-01      0.301334E-02
      0.800000E-01      0.277238E-02
      0.850000E-01      0.256275E-02
      0.900000E-01      0.238389E-02
      0.950000E-01      0.223002E-02
      0.100000          0.209330E-02
      0.105000          0.196694E-02
      0.110000          0.184690E-02
      0.115000          0.173187E-02
      0.120000          0.162227E-02
      0.125000          0.151894E-02
      0.130000          0.142231E-02
      0.135000          0.133225E-02
      0.140000          0.124830E-02
      0.145000          0.117006E-02
      0.150000          0.109736E-02
      0.155000          0.103017E-02
      0.160000          0.968345E-03
      0.165000          0.911490E-03
      0.170000          0.858919E-03
      0.175000          0.809839E-03
      0.180000          0.763552E-03
      0.185000          0.719613E-03
      0.190000          0.677847E-03
      0.195000          0.638255E-03
      0.200000          0.600886E-03
      0.205000          0.565731E-03
      0.210000          0.532685E-03
      0.215000          0.501577E-03
      0.220000          0.472212E-03
      0.225000          0.444417E-03
      0.230000          0.418072E-03
      0.235000          0.393120E-03
      0.240000          0.369573E-03
      0.245000          0.347504E-03
      0.250000          0.327014E-03
      0.255000          0.308179E-03
      0.260000          0.290983E-03
      0.265000          0.275270E-03
      0.270000          0.260747E-03
      0.275000          0.247042E-03
      0.280000          0.233808E-03
      0.285000          0.220824E-03
      0.290000          0.208054E-03
      0.295000          0.195630E-03
      0.300000          0.183789E-03
      0.305000          0.172768E-03
      0.310000          0.162728E-03
      0.315000          0.153718E-03
      0.320000          0.145695E-03
      0.325000          0.138580E-03
      0.330000          0.132308E-03
      0.335000          0.126847E-03
      0.340000          0.122186E-03
      0.345000          0.118288E-03
      0.350000          0.115048E-03
      0.355000          0.112268E-03
      0.360000          0.109685E-03
      0.365000          0.107028E-03
      0.370000          0.104103E-03
      0.375000          0.100858E-03
      0.380000          0.974147E-04
      0.385000          0.940356E-04
      0.390000          0.910439E-04
      0.395000          0.887182E-04
      0.400000          0.872009E-04
      0.405000          0.864544E-04
      0.410000          0.862782E-04
      0.415000          0.863802E-04
      0.420000          0.864705E-04
      0.425000          0.863436E-04
      0.430000          0.859198E-04
      0.435000          0.852361E-04
      0.440000          0.843967E-04
      0.445000          0.835090E-04
      0.450000          0.826310E-04
      0.455000          0.817487E-04
      0.460000          0.807891E-04
      0.465000          0.796569E-04
      0.470000          0.782770E-04
      0.475000          0.766263E-04
      0.480000          0.747428E-04
      0.485000          0.727146E-04
      0.490000          0.706540E-04
      0.495000          0.686712E-04
      0.500000          0.668536E-04
