 I_abs(s)[cm^-1]/c[mg/ml]
       0.00000          0.113087E-01
      0.500000E-02      0.110120E-01
      0.100000E-01      0.101822E-01
      0.150000E-01      0.898273E-02
      0.200000E-01      0.763403E-02
      0.250000E-01      0.635375E-02
      0.300000E-01      0.530366E-02
      0.350000E-01      0.455850E-02
      0.400000E-01      0.410432E-02
      0.450000E-01      0.386264E-02
      0.500000E-01      0.372867E-02
      0.550000E-01      0.360895E-02
      0.600000E-01      0.344629E-02
      0.650000E-01      0.322652E-02
      0.700000E-01      0.296917E-02
      0.750000E-01      0.270909E-02
      0.800000E-01      0.247800E-02
      0.850000E-01      0.229255E-02
      0.900000E-01      0.215154E-02
      0.950000E-01      0.204078E-02
      0.100000          0.194156E-02
      0.105000          0.183862E-02
      0.110000          0.172457E-02
      0.115000          0.160029E-02
      0.120000          0.147233E-02
      0.125000          0.134905E-02
      0.130000          0.123741E-02
      0.135000          0.114106E-02
      0.140000          0.106012E-02
      0.145000          0.991915E-03
      0.150000          0.932409E-03
      0.155000          0.877541E-03
      0.160000          0.824317E-03
      0.165000          0.771398E-03
      0.170000          0.719127E-03
      0.175000          0.669048E-03
      0.180000          0.623080E-03
      0.185000          0.582650E-03
      0.190000          0.548102E-03
      0.195000          0.518583E-03
      0.200000          0.492426E-03
      0.205000          0.467836E-03
      0.210000          0.443536E-03
      0.215000          0.419118E-03
      0.220000          0.394971E-03
      0.225000          0.371879E-03
      0.230000          0.350528E-03
      0.235000          0.331171E-03
      0.240000          0.313566E-03
      0.245000          0.297188E-03
      0.250000          0.281530E-03
      0.255000          0.266352E-03
      0.260000          0.251737E-03
      0.265000          0.237979E-03
      0.270000          0.225385E-03
      0.275000          0.214110E-03
      0.280000          0.204105E-03
      0.285000          0.195181E-03
      0.290000          0.187130E-03
      0.295000          0.179823E-03
      0.300000          0.173247E-03
      0.305000          0.167450E-03
      0.310000          0.162456E-03
      0.315000          0.158194E-03
      0.320000          0.154463E-03
      0.325000          0.150981E-03
      0.330000          0.147451E-03
      0.335000          0.143658E-03
      0.340000          0.139517E-03
      0.345000          0.135090E-03
      0.350000          0.130541E-03
      0.355000          0.126066E-03
      0.360000          0.121813E-03
      0.365000          0.117826E-03
      0.370000          0.114040E-03
      0.375000          0.110314E-03
      0.380000          0.106513E-03
      0.385000          0.102576E-03
      0.390000          0.985687E-04
      0.395000          0.946655E-04
      0.400000          0.910903E-04
      0.405000          0.880247E-04
      0.410000          0.855310E-04
      0.415000          0.835239E-04
      0.420000          0.818024E-04
      0.425000          0.801276E-04
      0.430000          0.783078E-04
      0.435000          0.762546E-04
      0.440000          0.739876E-04
      0.445000          0.715941E-04
      0.450000          0.691721E-04
      0.455000          0.667867E-04
      0.460000          0.644615E-04
      0.465000          0.621991E-04
      0.470000          0.600130E-04
      0.475000          0.579442E-04
      0.480000          0.560511E-04
      0.485000          0.543785E-04
      0.490000          0.529258E-04
      0.495000          0.516350E-04
      0.500000          0.504072E-04
