 I_abs(s)[cm^-1]/c[mg/ml]
       0.00000          0.122289E-01
      0.500000E-02      0.120130E-01
      0.100000E-01      0.113972E-01
      0.150000E-01      0.104692E-01
      0.200000E-01      0.935348E-02
      0.250000E-01      0.818497E-02
      0.300000E-01      0.708238E-02
      0.350000E-01      0.612855E-02
      0.400000E-01      0.536148E-02
      0.450000E-01      0.477704E-02
      0.500000E-01      0.434094E-02
      0.550000E-01      0.400514E-02
      0.600000E-01      0.372364E-02
      0.650000E-01      0.346347E-02
      0.700000E-01      0.320880E-02
      0.750000E-01      0.295885E-02
      0.800000E-01      0.272171E-02
      0.850000E-01      0.250717E-02
      0.900000E-01      0.232120E-02
      0.950000E-01      0.216356E-02
      0.100000          0.202851E-02
      0.105000          0.190763E-02
      0.110000          0.179310E-02
      0.115000          0.168009E-02
      0.120000          0.156755E-02
      0.125000          0.145747E-02
      0.130000          0.135316E-02
      0.135000          0.125757E-02
      0.140000          0.117212E-02
      0.145000          0.109648E-02
      0.150000          0.102903E-02
      0.155000          0.967807E-03
      0.160000          0.911236E-03
      0.165000          0.858566E-03
      0.170000          0.809821E-03
      0.175000          0.765445E-03
      0.180000          0.725848E-03
      0.185000          0.691060E-03
      0.190000          0.660616E-03
      0.195000          0.633641E-03
      0.200000          0.609065E-03
      0.205000          0.585844E-03
      0.210000          0.563115E-03
      0.215000          0.540269E-03
      0.220000          0.516948E-03
      0.225000          0.493020E-03
      0.230000          0.468545E-03
      0.235000          0.443743E-03
      0.240000          0.418958E-03
      0.245000          0.394598E-03
      0.250000          0.371065E-03
      0.255000          0.348672E-03
      0.260000          0.327603E-03
      0.265000          0.307902E-03
      0.270000          0.289517E-03
      0.275000          0.272371E-03
      0.280000          0.256429E-03
      0.285000          0.241727E-03
      0.290000          0.228364E-03
      0.295000          0.216438E-03
      0.300000          0.205977E-03
      0.305000          0.196881E-03
      0.310000          0.188905E-03
      0.315000          0.181691E-03
      0.320000          0.174844E-03
      0.325000          0.168025E-03
      0.330000          0.161026E-03
      0.335000          0.153808E-03
      0.340000          0.146496E-03
      0.345000          0.139330E-03
      0.350000          0.132586E-03
      0.355000          0.126508E-03
      0.360000          0.121247E-03
      0.365000          0.116835E-03
      0.370000          0.113190E-03
      0.375000          0.110142E-03
      0.380000          0.107475E-03
      0.385000          0.104971E-03
      0.390000          0.102450E-03
      0.395000          0.997989E-04
      0.400000          0.969876E-04
      0.405000          0.940679E-04
      0.410000          0.911560E-04
      0.415000          0.883997E-04
      0.420000          0.859407E-04
      0.425000          0.838796E-04
      0.430000          0.822545E-04
      0.435000          0.810384E-04
      0.440000          0.801540E-04
      0.445000          0.794968E-04
      0.450000          0.789588E-04
      0.455000          0.784441E-04
      0.460000          0.778751E-04
      0.465000          0.771926E-04
      0.470000          0.763564E-04
      0.475000          0.753480E-04
      0.480000          0.741754E-04
      0.485000          0.728750E-04
      0.490000          0.715069E-04
      0.495000          0.701402E-04
      0.500000          0.688359E-04
