 I_abs(s)[cm^-1]/c[mg/ml]
       0.00000          0.124260E-01
      0.500000E-02      0.121880E-01
      0.100000E-01      0.115153E-01
      0.150000E-01      0.105212E-01
      0.200000E-01      0.935928E-02
      0.250000E-01      0.818403E-02
      0.300000E-01      0.711609E-02
      0.350000E-01      0.622190E-02
      0.400000E-01      0.551256E-02
      0.450000E-01      0.495864E-02
      0.500000E-01      0.451281E-02
      0.550000E-01      0.413099E-02
      0.600000E-01      0.378522E-02
      0.650000E-01      0.346596E-02
      0.700000E-01      0.317629E-02
      0.750000E-01      0.292285E-02
      0.800000E-01      0.270848E-02
      0.850000E-01      0.252926E-02
      0.900000E-01      0.237609E-02
      0.950000E-01      0.223852E-02
      0.100000          0.210857E-02
      0.105000          0.198251E-02
      0.110000          0.186036E-02
      0.115000          0.174392E-02
      0.120000          0.163477E-02
      0.125000          0.153318E-02
      0.130000          0.143811E-02
      0.135000          0.134801E-02
      0.140000          0.126173E-02
      0.145000          0.117887E-02
      0.150000          0.109971E-02
      0.155000          0.102477E-02
      0.160000          0.954475E-03
      0.165000          0.888934E-03
      0.170000          0.828062E-03
      0.175000          0.771721E-03
      0.180000          0.719797E-03
      0.185000          0.672141E-03
      0.190000          0.628457E-03
      0.195000          0.588249E-03
      0.200000          0.550897E-03
      0.205000          0.515852E-03
      0.210000          0.482821E-03
      0.215000          0.451858E-03
      0.220000          0.423281E-03
      0.225000          0.397478E-03
      0.230000          0.374680E-03
      0.235000          0.354819E-03
      0.240000          0.337519E-03
      0.245000          0.322209E-03
      0.250000          0.308285E-03
      0.255000          0.295247E-03
      0.260000          0.282773E-03
      0.265000          0.270704E-03
      0.270000          0.258986E-03
      0.275000          0.247606E-03
      0.280000          0.236548E-03
      0.285000          0.225783E-03
      0.290000          0.215285E-03
      0.295000          0.205041E-03
      0.300000          0.195069E-03
      0.305000          0.185402E-03
      0.310000          0.176093E-03
      0.315000          0.167198E-03
      0.320000          0.158786E-03
      0.325000          0.150932E-03
      0.330000          0.143716E-03
      0.335000          0.137207E-03
      0.340000          0.131449E-03
      0.345000          0.126441E-03
      0.350000          0.122143E-03
      0.355000          0.118478E-03
      0.360000          0.115352E-03
      0.365000          0.112664E-03
      0.370000          0.110322E-03
      0.375000          0.108243E-03
      0.380000          0.106356E-03
      0.385000          0.104598E-03
      0.390000          0.102911E-03
      0.395000          0.101242E-03
      0.400000          0.995392E-04
      0.405000          0.977674E-04
      0.410000          0.959157E-04
      0.415000          0.940106E-04
      0.420000          0.921111E-04
      0.425000          0.902865E-04
      0.430000          0.885806E-04
      0.435000          0.869806E-04
      0.440000          0.854110E-04
      0.445000          0.837629E-04
      0.450000          0.819505E-04
      0.455000          0.799678E-04
      0.460000          0.779132E-04
      0.465000          0.759600E-04
      0.470000          0.742800E-04
      0.475000          0.729557E-04
      0.480000          0.719286E-04
      0.485000          0.710170E-04
      0.490000          0.700005E-04
      0.495000          0.687297E-04
      0.500000          0.671997E-04
