 I_abs(s)[cm^-1]/c[mg/ml]
       0.00000          0.123455E-01
      0.500000E-02      0.121355E-01
      0.100000E-01      0.115353E-01
      0.150000E-01      0.106276E-01
      0.200000E-01      0.952962E-02
      0.250000E-01      0.836819E-02
      0.300000E-01      0.725547E-02
      0.350000E-01      0.627098E-02
      0.400000E-01      0.545397E-02
      0.450000E-01      0.480638E-02
      0.500000E-01      0.430363E-02
      0.550000E-01      0.390883E-02
      0.600000E-01      0.358570E-02
      0.650000E-01      0.330698E-02
      0.700000E-01      0.305716E-02
      0.750000E-01      0.283050E-02
      0.800000E-01      0.262658E-02
      0.850000E-01      0.244583E-02
      0.900000E-01      0.228666E-02
      0.950000E-01      0.214490E-02
      0.100000          0.201499E-02
      0.105000          0.189183E-02
      0.110000          0.177223E-02
      0.115000          0.165540E-02
      0.120000          0.154239E-02
      0.125000          0.143503E-02
      0.130000          0.133487E-02
      0.135000          0.124256E-02
      0.140000          0.115785E-02
      0.145000          0.107993E-02
      0.150000          0.100796E-02
      0.155000          0.941417E-03
      0.160000          0.880107E-03
      0.165000          0.824052E-03
      0.170000          0.773222E-03
      0.175000          0.727373E-03
      0.180000          0.686001E-03
      0.185000          0.648438E-03
      0.190000          0.613988E-03
      0.195000          0.582047E-03
      0.200000          0.552170E-03
      0.205000          0.524076E-03
      0.210000          0.497627E-03
      0.215000          0.472810E-03
      0.220000          0.449708E-03
      0.225000          0.428464E-03
      0.230000          0.409206E-03
      0.235000          0.391960E-03
      0.240000          0.376568E-03
      0.245000          0.362646E-03
      0.250000          0.349637E-03
      0.255000          0.336915E-03
      0.260000          0.323941E-03
      0.265000          0.310386E-03
      0.270000          0.296197E-03
      0.275000          0.281567E-03
      0.280000          0.266845E-03
      0.285000          0.252414E-03
      0.290000          0.238606E-03
      0.295000          0.225653E-03
      0.300000          0.213702E-03
      0.305000          0.202846E-03
      0.310000          0.193149E-03
      0.315000          0.184644E-03
      0.320000          0.177308E-03
      0.325000          0.171023E-03
      0.330000          0.165567E-03
      0.335000          0.160637E-03
      0.340000          0.155913E-03
      0.345000          0.151134E-03
      0.350000          0.146166E-03
      0.355000          0.141026E-03
      0.360000          0.135857E-03
      0.365000          0.130868E-03
      0.370000          0.126260E-03
      0.375000          0.122159E-03
      0.380000          0.118588E-03
      0.385000          0.115471E-03
      0.390000          0.112674E-03
      0.395000          0.110059E-03
      0.400000          0.107526E-03
      0.405000          0.105041E-03
      0.410000          0.102625E-03
      0.415000          0.100326E-03
      0.420000          0.981830E-04
      0.425000          0.961875E-04
      0.430000          0.942823E-04
      0.435000          0.923808E-04
      0.440000          0.904101E-04
      0.445000          0.883549E-04
      0.450000          0.862813E-04
      0.455000          0.843263E-04
      0.460000          0.826533E-04
      0.465000          0.813901E-04
      0.470000          0.805763E-04
      0.475000          0.801419E-04
      0.480000          0.799299E-04
      0.485000          0.797504E-04
      0.490000          0.794460E-04
      0.495000          0.789389E-04
      0.500000          0.782423E-04
