 I_abs(s)[cm^-1]/c[mg/ml]
       0.00000          0.120261E-01
      0.500000E-02      0.118144E-01
      0.100000E-01      0.112113E-01
      0.150000E-01      0.103055E-01
      0.200000E-01      0.922144E-02
      0.250000E-01      0.809128E-02
      0.300000E-01      0.702848E-02
      0.350000E-01      0.610897E-02
      0.400000E-01      0.536455E-02
      0.450000E-01      0.478806E-02
      0.500000E-01      0.434701E-02
      0.550000E-01      0.399981E-02
      0.600000E-01      0.370957E-02
      0.650000E-01      0.345183E-02
      0.700000E-01      0.321577E-02
      0.750000E-01      0.300026E-02
      0.800000E-01      0.280798E-02
      0.850000E-01      0.264023E-02
      0.900000E-01      0.249435E-02
      0.950000E-01      0.236396E-02
      0.100000          0.224116E-02
      0.105000          0.211919E-02
      0.110000          0.199430E-02
      0.115000          0.186623E-02
      0.120000          0.173740E-02
      0.125000          0.161146E-02
      0.130000          0.149182E-02
      0.135000          0.138075E-02
      0.140000          0.127914E-02
      0.145000          0.118677E-02
      0.150000          0.110280E-02
      0.155000          0.102621E-02
      0.160000          0.956093E-03
      0.165000          0.891766E-03
      0.170000          0.832781E-03
      0.175000          0.778880E-03
      0.180000          0.729931E-03
      0.185000          0.685852E-03
      0.190000          0.646495E-03
      0.195000          0.611537E-03
      0.200000          0.580398E-03
      0.205000          0.552245E-03
      0.210000          0.526097E-03
      0.215000          0.500983E-03
      0.220000          0.476134E-03
      0.225000          0.451105E-03
      0.230000          0.425811E-03
      0.235000          0.400461E-03
      0.240000          0.375425E-03
      0.245000          0.351091E-03
      0.250000          0.327759E-03
      0.255000          0.305599E-03
      0.260000          0.284668E-03
      0.265000          0.264988E-03
      0.270000          0.246615E-03
      0.275000          0.229697E-03
      0.280000          0.214475E-03
      0.285000          0.201229E-03
      0.290000          0.190180E-03
      0.295000          0.181391E-03
      0.300000          0.174686E-03
      0.305000          0.169650E-03
      0.310000          0.165693E-03
      0.315000          0.162183E-03
      0.320000          0.158586E-03
      0.325000          0.154567E-03
      0.330000          0.150023E-03
      0.335000          0.145030E-03
      0.340000          0.139748E-03
      0.345000          0.134328E-03
      0.350000          0.128861E-03
      0.355000          0.123397E-03
      0.360000          0.117994E-03
      0.365000          0.112779E-03
      0.370000          0.107961E-03
      0.375000          0.103786E-03
      0.380000          0.100454E-03
      0.385000          0.980365E-04
      0.390000          0.964314E-04
      0.395000          0.953889E-04
      0.400000          0.945903E-04
      0.405000          0.937500E-04
      0.410000          0.926951E-04
      0.415000          0.913931E-04
      0.420000          0.899225E-04
      0.425000          0.884066E-04
      0.430000          0.869455E-04
      0.435000          0.855753E-04
      0.440000          0.842693E-04
      0.445000          0.829722E-04
      0.450000          0.816452E-04
      0.455000          0.802948E-04
      0.460000          0.789730E-04
      0.465000          0.777476E-04
      0.470000          0.766614E-04
      0.475000          0.757028E-04
      0.480000          0.748029E-04
      0.485000          0.738618E-04
      0.490000          0.727902E-04
      0.495000          0.715455E-04
      0.500000          0.701458E-04
