 I_abs(s)[cm^-1]/c[mg/ml]
       0.00000          0.120766E-01
      0.500000E-02      0.118399E-01
      0.100000E-01      0.111688E-01
      0.150000E-01      0.101707E-01
      0.200000E-01      0.899511E-02
      0.250000E-01      0.779889E-02
      0.300000E-01      0.671256E-02
      0.350000E-01      0.581731E-02
      0.400000E-01      0.513737E-02
      0.450000E-01      0.464790E-02
      0.500000E-01      0.429382E-02
      0.550000E-01      0.401227E-02
      0.600000E-01      0.375157E-02
      0.650000E-01      0.348199E-02
      0.700000E-01      0.319696E-02
      0.750000E-01      0.290679E-02
      0.800000E-01      0.262896E-02
      0.850000E-01      0.237899E-02
      0.900000E-01      0.216498E-02
      0.950000E-01      0.198648E-02
      0.100000          0.183684E-02
      0.105000          0.170716E-02
      0.110000          0.158970E-02
      0.115000          0.147974E-02
      0.120000          0.137566E-02
      0.125000          0.127780E-02
      0.130000          0.118701E-02
      0.135000          0.110374E-02
      0.140000          0.102768E-02
      0.145000          0.958131E-03
      0.150000          0.894361E-03
      0.155000          0.835945E-03
      0.160000          0.782732E-03
      0.165000          0.734625E-03
      0.170000          0.691344E-03
      0.175000          0.652331E-03
      0.180000          0.616846E-03
      0.185000          0.584170E-03
      0.190000          0.553776E-03
      0.195000          0.525387E-03
      0.200000          0.498908E-03
      0.205000          0.474299E-03
      0.210000          0.451494E-03
      0.215000          0.430399E-03
      0.220000          0.410950E-03
      0.225000          0.393164E-03
      0.230000          0.377112E-03
      0.235000          0.362807E-03
      0.240000          0.350054E-03
      0.245000          0.338371E-03
      0.250000          0.327048E-03
      0.255000          0.315367E-03
      0.260000          0.302887E-03
      0.265000          0.289688E-03
      0.270000          0.276421E-03
      0.275000          0.264132E-03
      0.280000          0.253907E-03
      0.285000          0.246458E-03
      0.290000          0.241830E-03
      0.295000          0.239336E-03
      0.300000          0.237755E-03
      0.305000          0.235709E-03
      0.310000          0.232085E-03
      0.315000          0.226333E-03
      0.320000          0.218562E-03
      0.325000          0.209413E-03
      0.330000          0.199783E-03
      0.335000          0.190524E-03
      0.340000          0.182218E-03
      0.345000          0.175100E-03
      0.350000          0.169108E-03
      0.355000          0.164003E-03
      0.360000          0.159503E-03
      0.365000          0.155355E-03
      0.370000          0.151349E-03
      0.375000          0.147299E-03
      0.380000          0.143031E-03
      0.385000          0.138411E-03
      0.390000          0.133393E-03
      0.395000          0.128083E-03
      0.400000          0.122750E-03
      0.405000          0.117771E-03
      0.410000          0.113527E-03
      0.415000          0.110264E-03
      0.420000          0.108001E-03
      0.425000          0.106509E-03
      0.430000          0.105369E-03
      0.435000          0.104110E-03
      0.440000          0.102347E-03
      0.445000          0.999016E-04
      0.450000          0.968380E-04
      0.455000          0.934269E-04
      0.460000          0.900406E-04
      0.465000          0.870228E-04
      0.470000          0.845762E-04
      0.475000          0.827054E-04
      0.480000          0.812316E-04
      0.485000          0.798713E-04
      0.490000          0.783468E-04
      0.495000          0.764869E-04
      0.500000          0.742803E-04
