 I_abs(s)[cm^-1]/c[mg/ml]
       0.00000          0.120261E-01
      0.500000E-02      0.117922E-01
      0.100000E-01      0.111279E-01
      0.150000E-01      0.101355E-01
      0.200000E-01      0.895814E-02
      0.250000E-01      0.774657E-02
      0.300000E-01      0.662751E-02
      0.350000E-01      0.568187E-02
      0.400000E-01      0.493737E-02
      0.450000E-01      0.437591E-02
      0.500000E-01      0.395106E-02
      0.550000E-01      0.360904E-02
      0.600000E-01      0.330619E-02
      0.650000E-01      0.301850E-02
      0.700000E-01      0.274210E-02
      0.750000E-01      0.248661E-02
      0.800000E-01      0.226557E-02
      0.850000E-01      0.208791E-02
      0.900000E-01      0.195347E-02
      0.950000E-01      0.185320E-02
      0.100000          0.177296E-02
      0.105000          0.169871E-02
      0.110000          0.162066E-02
      0.115000          0.153517E-02
      0.120000          0.144403E-02
      0.125000          0.135210E-02
      0.130000          0.126448E-02
      0.135000          0.118442E-02
      0.140000          0.111255E-02
      0.145000          0.104744E-02
      0.150000          0.986744E-03
      0.155000          0.928532E-03
      0.160000          0.871973E-03
      0.165000          0.817430E-03
      0.170000          0.765996E-03
      0.175000          0.718821E-03
      0.180000          0.676561E-03
      0.185000          0.639136E-03
      0.190000          0.605820E-03
      0.195000          0.575543E-03
      0.200000          0.547236E-03
      0.205000          0.520089E-03
      0.210000          0.493658E-03
      0.215000          0.467833E-03
      0.220000          0.442721E-03
      0.225000          0.418521E-03
      0.230000          0.395426E-03
      0.235000          0.373572E-03
      0.240000          0.353037E-03
      0.245000          0.333857E-03
      0.250000          0.316049E-03
      0.255000          0.299624E-03
      0.260000          0.284592E-03
      0.265000          0.270945E-03
      0.270000          0.258644E-03
      0.275000          0.247603E-03
      0.280000          0.237688E-03
      0.285000          0.228729E-03
      0.290000          0.220544E-03
      0.295000          0.212977E-03
      0.300000          0.205929E-03
      0.305000          0.199373E-03
      0.310000          0.193345E-03
      0.315000          0.187915E-03
      0.320000          0.183128E-03
      0.325000          0.178958E-03
      0.330000          0.175263E-03
      0.335000          0.171791E-03
      0.340000          0.168214E-03
      0.345000          0.164211E-03
      0.350000          0.159555E-03
      0.355000          0.154185E-03
      0.360000          0.148234E-03
      0.365000          0.141997E-03
      0.370000          0.135843E-03
      0.375000          0.130104E-03
      0.380000          0.124968E-03
      0.385000          0.120433E-03
      0.390000          0.116315E-03
      0.395000          0.112335E-03
      0.400000          0.108232E-03
      0.405000          0.103877E-03
      0.410000          0.993335E-04
      0.415000          0.948488E-04
      0.420000          0.907663E-04
      0.425000          0.874050E-04
      0.430000          0.849438E-04
      0.435000          0.833623E-04
      0.440000          0.824579E-04
      0.445000          0.819302E-04
      0.450000          0.814963E-04
      0.455000          0.809849E-04
      0.460000          0.803727E-04
      0.465000          0.797505E-04
      0.470000          0.792387E-04
      0.475000          0.788951E-04
      0.480000          0.786559E-04
      0.485000          0.783384E-04
      0.490000          0.777018E-04
      0.495000          0.765389E-04
      0.500000          0.747591E-04
