 I_abs(s)[cm^-1]/c[mg/ml]
       0.00000          0.115973E-01
      0.500000E-02      0.113426E-01
      0.100000E-01      0.106226E-01
      0.150000E-01      0.955826E-02
      0.200000E-01      0.831804E-02
      0.250000E-01      0.707815E-02
      0.300000E-01      0.598428E-02
      0.350000E-01      0.512473E-02
      0.400000E-01      0.452126E-02
      0.450000E-01      0.413804E-02
      0.500000E-01      0.390372E-02
      0.550000E-01      0.373854E-02
      0.600000E-01      0.357773E-02
      0.650000E-01      0.338509E-02
      0.700000E-01      0.315477E-02
      0.750000E-01      0.290303E-02
      0.800000E-01      0.265513E-02
      0.850000E-01      0.243258E-02
      0.900000E-01      0.224534E-02
      0.950000E-01      0.209046E-02
      0.100000          0.195622E-02
      0.105000          0.182899E-02
      0.110000          0.169951E-02
      0.115000          0.156619E-02
      0.120000          0.143452E-02
      0.125000          0.131366E-02
      0.130000          0.121187E-02
      0.135000          0.113293E-02
      0.140000          0.107476E-02
      0.145000          0.103054E-02
      0.150000          0.991444E-03
      0.155000          0.949853E-03
      0.160000          0.901628E-03
      0.165000          0.846828E-03
      0.170000          0.788843E-03
      0.175000          0.732522E-03
      0.180000          0.682168E-03
      0.185000          0.640116E-03
      0.190000          0.606304E-03
      0.195000          0.578759E-03
      0.200000          0.554652E-03
      0.205000          0.531392E-03
      0.210000          0.507397E-03
      0.215000          0.482316E-03
      0.220000          0.456782E-03
      0.225000          0.431884E-03
      0.230000          0.408629E-03
      0.235000          0.387578E-03
      0.240000          0.368745E-03
      0.245000          0.351717E-03
      0.250000          0.335901E-03
      0.255000          0.320768E-03
      0.260000          0.306009E-03
      0.265000          0.291569E-03
      0.270000          0.277588E-03
      0.275000          0.264280E-03
      0.280000          0.251826E-03
      0.285000          0.240310E-03
      0.290000          0.229706E-03
      0.295000          0.219917E-03
      0.300000          0.210831E-03
      0.305000          0.202363E-03
      0.310000          0.194477E-03
      0.315000          0.187167E-03
      0.320000          0.180420E-03
      0.325000          0.174185E-03
      0.330000          0.168355E-03
      0.335000          0.162773E-03
      0.340000          0.157264E-03
      0.345000          0.151675E-03
      0.350000          0.145909E-03
      0.355000          0.139944E-03
      0.360000          0.133824E-03
      0.365000          0.127650E-03
      0.370000          0.121553E-03
      0.375000          0.115680E-03
      0.380000          0.110171E-03
      0.385000          0.105144E-03
      0.390000          0.100675E-03
      0.395000          0.967735E-04
      0.400000          0.933730E-04
      0.405000          0.903417E-04
      0.410000          0.875139E-04
      0.415000          0.847388E-04
      0.420000          0.819278E-04
      0.425000          0.790781E-04
      0.430000          0.762608E-04
      0.435000          0.735766E-04
      0.440000          0.711005E-04
      0.445000          0.688439E-04
      0.450000          0.667549E-04
      0.455000          0.647603E-04
      0.460000          0.628255E-04
      0.465000          0.610013E-04
      0.470000          0.594247E-04
      0.475000          0.582665E-04
      0.480000          0.576457E-04
      0.485000          0.575499E-04
      0.490000          0.578067E-04
      0.495000          0.581252E-04
      0.500000          0.581981E-04
