 I_abs(s)[cm^-1]/c[mg/ml]
       0.00000          0.125215E-01
      0.500000E-02      0.123327E-01
      0.100000E-01      0.117916E-01
      0.150000E-01      0.109691E-01
      0.200000E-01      0.996595E-02
      0.250000E-01      0.889182E-02
      0.300000E-01      0.784479E-02
      0.350000E-01      0.689554E-02
      0.400000E-01      0.608033E-02
      0.450000E-01      0.540312E-02
      0.500000E-01      0.484470E-02
      0.550000E-01      0.437533E-02
      0.600000E-01      0.396648E-02
      0.650000E-01      0.359872E-02
      0.700000E-01      0.326425E-02
      0.750000E-01      0.296451E-02
      0.800000E-01      0.270503E-02
      0.850000E-01      0.248991E-02
      0.900000E-01      0.231806E-02
      0.950000E-01      0.218224E-02
      0.100000          0.207085E-02
      0.105000          0.197113E-02
      0.110000          0.187263E-02
      0.115000          0.176934E-02
      0.120000          0.166026E-02
      0.125000          0.154821E-02
      0.130000          0.143783E-02
      0.135000          0.133349E-02
      0.140000          0.123788E-02
      0.145000          0.115161E-02
      0.150000          0.107367E-02
      0.155000          0.100234E-02
      0.160000          0.936142E-03
      0.165000          0.874407E-03
      0.170000          0.817305E-03
      0.175000          0.765512E-03
      0.180000          0.719673E-03
      0.185000          0.679949E-03
      0.190000          0.645807E-03
      0.195000          0.616100E-03
      0.200000          0.589348E-03
      0.205000          0.564116E-03
      0.210000          0.539326E-03
      0.215000          0.514431E-03
      0.220000          0.489426E-03
      0.225000          0.464715E-03
      0.230000          0.440903E-03
      0.235000          0.418571E-03
      0.240000          0.398102E-03
      0.245000          0.379586E-03
      0.250000          0.362815E-03
      0.255000          0.347359E-03
      0.260000          0.332700E-03
      0.265000          0.318379E-03
      0.270000          0.304112E-03
      0.275000          0.289854E-03
      0.280000          0.275774E-03
      0.285000          0.262178E-03
      0.290000          0.249377E-03
      0.295000          0.237573E-03
      0.300000          0.226775E-03
      0.305000          0.216797E-03
      0.310000          0.207320E-03
      0.315000          0.198003E-03
      0.320000          0.188610E-03
      0.325000          0.179098E-03
      0.330000          0.169642E-03
      0.335000          0.160586E-03
      0.340000          0.152334E-03
      0.345000          0.145220E-03
      0.350000          0.139398E-03
      0.355000          0.134793E-03
      0.360000          0.131121E-03
      0.365000          0.127975E-03
      0.370000          0.124942E-03
      0.375000          0.121710E-03
      0.380000          0.118136E-03
      0.385000          0.114252E-03
      0.390000          0.110218E-03
      0.395000          0.106246E-03
      0.400000          0.102525E-03
      0.405000          0.991632E-04
      0.410000          0.961696E-04
      0.415000          0.934720E-04
      0.420000          0.909586E-04
      0.425000          0.885282E-04
      0.430000          0.861312E-04
      0.435000          0.837872E-04
      0.440000          0.815734E-04
      0.445000          0.795867E-04
      0.450000          0.778960E-04
      0.455000          0.765041E-04
      0.460000          0.753391E-04
      0.465000          0.742828E-04
      0.470000          0.732251E-04
      0.475000          0.721187E-04
      0.480000          0.710065E-04
      0.485000          0.700018E-04
      0.490000          0.692296E-04
      0.495000          0.687535E-04
      0.500000          0.685263E-04
