 I_abs(s)[cm^-1]/c[mg/ml]
       0.00000          0.120117E-01
      0.500000E-02      0.118008E-01
      0.100000E-01      0.111973E-01
      0.150000E-01      0.102825E-01
      0.200000E-01      0.917312E-02
      0.250000E-01      0.799744E-02
      0.300000E-01      0.687186E-02
      0.350000E-01      0.588182E-02
      0.400000E-01      0.507209E-02
      0.450000E-01      0.444719E-02
      0.500000E-01      0.398049E-02
      0.550000E-01      0.362844E-02
      0.600000E-01      0.334530E-02
      0.650000E-01      0.309467E-02
      0.700000E-01      0.285536E-02
      0.750000E-01      0.262133E-02
      0.800000E-01      0.239723E-02
      0.850000E-01      0.219195E-02
      0.900000E-01      0.201273E-02
      0.950000E-01      0.186168E-02
      0.100000          0.173518E-02
      0.105000          0.162583E-02
      0.110000          0.152543E-02
      0.115000          0.142786E-02
      0.120000          0.133056E-02
      0.125000          0.123452E-02
      0.130000          0.114292E-02
      0.135000          0.105933E-02
      0.140000          0.986087E-03
      0.145000          0.923554E-03
      0.150000          0.870289E-03
      0.155000          0.823882E-03
      0.160000          0.781990E-03
      0.165000          0.743115E-03
      0.170000          0.706861E-03
      0.175000          0.673672E-03
      0.180000          0.644262E-03
      0.185000          0.619042E-03
      0.190000          0.597782E-03
      0.195000          0.579603E-03
      0.200000          0.563249E-03
      0.205000          0.547464E-03
      0.210000          0.531296E-03
      0.215000          0.514236E-03
      0.220000          0.496158E-03
      0.225000          0.477153E-03
      0.230000          0.457370E-03
      0.235000          0.436928E-03
      0.240000          0.415937E-03
      0.245000          0.394588E-03
      0.250000          0.373223E-03
      0.255000          0.352338E-03
      0.260000          0.332501E-03
      0.265000          0.314200E-03
      0.270000          0.297717E-03
      0.275000          0.283058E-03
      0.280000          0.269992E-03
      0.285000          0.258171E-03
      0.290000          0.247270E-03
      0.295000          0.237099E-03
      0.300000          0.227624E-03
      0.305000          0.218906E-03
      0.310000          0.211001E-03
      0.315000          0.203864E-03
      0.320000          0.197315E-03
      0.325000          0.191086E-03
      0.330000          0.184919E-03
      0.335000          0.178675E-03
      0.340000          0.172390E-03
      0.345000          0.166266E-03
      0.350000          0.160581E-03
      0.355000          0.155570E-03
      0.360000          0.151325E-03
      0.365000          0.147751E-03
      0.370000          0.144599E-03
      0.375000          0.141561E-03
      0.380000          0.138381E-03
      0.385000          0.134931E-03
      0.390000          0.131240E-03
      0.395000          0.127453E-03
      0.400000          0.123754E-03
      0.405000          0.120288E-03
      0.410000          0.117111E-03
      0.415000          0.114183E-03
      0.420000          0.111409E-03
      0.425000          0.108694E-03
      0.430000          0.105988E-03
      0.435000          0.103310E-03
      0.440000          0.100734E-03
      0.445000          0.983586E-04
      0.450000          0.962607E-04
      0.455000          0.944746E-04
      0.460000          0.929826E-04
      0.465000          0.917282E-04
      0.470000          0.906387E-04
      0.475000          0.896451E-04
      0.480000          0.886919E-04
      0.485000          0.877356E-04
      0.490000          0.867363E-04
      0.495000          0.856516E-04
      0.500000          0.844377E-04
