 I_abs(s)[cm^-1]/c[mg/ml]
       0.00000          0.119685E-01
      0.500000E-02      0.117163E-01
      0.100000E-01      0.110031E-01
      0.150000E-01      0.994712E-02
      0.200000E-01      0.871166E-02
      0.250000E-01      0.746546E-02
      0.300000E-01      0.634559E-02
      0.350000E-01      0.543310E-02
      0.400000E-01      0.474697E-02
      0.450000E-01      0.425531E-02
      0.500000E-01      0.389767E-02
      0.550000E-01      0.360985E-02
      0.600000E-01      0.334307E-02
      0.650000E-01      0.307297E-02
      0.700000E-01      0.279822E-02
      0.750000E-01      0.253177E-02
      0.800000E-01      0.229003E-02
      0.850000E-01      0.208425E-02
      0.900000E-01      0.191662E-02
      0.950000E-01      0.178115E-02
      0.100000          0.166762E-02
      0.105000          0.156599E-02
      0.110000          0.146952E-02
      0.115000          0.137573E-02
      0.120000          0.128550E-02
      0.125000          0.120124E-02
      0.130000          0.112519E-02
      0.135000          0.105844E-02
      0.140000          0.100068E-02
      0.145000          0.950475E-03
      0.150000          0.905803E-03
      0.155000          0.864477E-03
      0.160000          0.824552E-03
      0.165000          0.784671E-03
      0.170000          0.744338E-03
      0.175000          0.704060E-03
      0.180000          0.665205E-03
      0.185000          0.629551E-03
      0.190000          0.598623E-03
      0.195000          0.573063E-03
      0.200000          0.552297E-03
      0.205000          0.534690E-03
      0.210000          0.518113E-03
      0.215000          0.500710E-03
      0.220000          0.481522E-03
      0.225000          0.460699E-03
      0.230000          0.439252E-03
      0.235000          0.418459E-03
      0.240000          0.399244E-03
      0.245000          0.381785E-03
      0.250000          0.365510E-03
      0.255000          0.349439E-03
      0.260000          0.332685E-03
      0.265000          0.314857E-03
      0.270000          0.296226E-03
      0.275000          0.277581E-03
      0.280000          0.259910E-03
      0.285000          0.244039E-03
      0.290000          0.230398E-03
      0.295000          0.218973E-03
      0.300000          0.209417E-03
      0.305000          0.201250E-03
      0.310000          0.194040E-03
      0.315000          0.187512E-03
      0.320000          0.181565E-03
      0.325000          0.176237E-03
      0.330000          0.171635E-03
      0.335000          0.167866E-03
      0.340000          0.164979E-03
      0.345000          0.162924E-03
      0.350000          0.161520E-03
      0.355000          0.160450E-03
      0.360000          0.159295E-03
      0.365000          0.157599E-03
      0.370000          0.154966E-03
      0.375000          0.151150E-03
      0.380000          0.146127E-03
      0.385000          0.140110E-03
      0.390000          0.133507E-03
      0.395000          0.126829E-03
      0.400000          0.120573E-03
      0.405000          0.115104E-03
      0.410000          0.110584E-03
      0.415000          0.106956E-03
      0.420000          0.103993E-03
      0.425000          0.101407E-03
      0.430000          0.989618E-04
      0.435000          0.965586E-04
      0.440000          0.942482E-04
      0.445000          0.921762E-04
      0.450000          0.904802E-04
      0.455000          0.891950E-04
      0.460000          0.882095E-04
      0.465000          0.872974E-04
      0.470000          0.862035E-04
      0.475000          0.847432E-04
      0.480000          0.828672E-04
      0.485000          0.806656E-04
      0.490000          0.783176E-04
      0.495000          0.760151E-04
      0.500000          0.738968E-04
