 I_abs(s)[cm^-1]/c[mg/ml]
       0.00000          0.117750E-01
      0.500000E-02      0.115008E-01
      0.100000E-01      0.107294E-01
      0.150000E-01      0.959975E-02
      0.200000E-01      0.830159E-02
      0.250000E-01      0.702663E-02
      0.300000E-01      0.592390E-02
      0.350000E-01      0.507197E-02
      0.400000E-01      0.447475E-02
      0.450000E-01      0.407878E-02
      0.500000E-01      0.380351E-02
      0.550000E-01      0.357276E-02
      0.600000E-01      0.333688E-02
      0.650000E-01      0.308031E-02
      0.700000E-01      0.281507E-02
      0.750000E-01      0.256585E-02
      0.800000E-01      0.235420E-02
      0.850000E-01      0.218829E-02
      0.900000E-01      0.206101E-02
      0.950000E-01      0.195542E-02
      0.100000          0.185353E-02
      0.105000          0.174396E-02
      0.110000          0.162521E-02
      0.115000          0.150401E-02
      0.120000          0.139026E-02
      0.125000          0.129154E-02
      0.130000          0.120976E-02
      0.135000          0.114103E-02
      0.140000          0.107837E-02
      0.145000          0.101551E-02
      0.150000          0.949681E-03
      0.155000          0.882488E-03
      0.160000          0.818482E-03
      0.165000          0.762565E-03
      0.170000          0.717525E-03
      0.175000          0.682823E-03
      0.180000          0.655015E-03
      0.185000          0.629396E-03
      0.190000          0.601959E-03
      0.195000          0.570788E-03
      0.200000          0.536373E-03
      0.205000          0.500898E-03
      0.210000          0.467009E-03
      0.215000          0.436657E-03
      0.220000          0.410515E-03
      0.225000          0.388055E-03
      0.230000          0.368108E-03
      0.235000          0.349537E-03
      0.240000          0.331681E-03
      0.245000          0.314449E-03
      0.250000          0.298095E-03
      0.255000          0.282893E-03
      0.260000          0.268896E-03
      0.265000          0.255907E-03
      0.270000          0.243619E-03
      0.275000          0.231830E-03
      0.280000          0.220567E-03
      0.285000          0.210075E-03
      0.290000          0.200656E-03
      0.295000          0.192463E-03
      0.300000          0.185365E-03
      0.305000          0.178945E-03
      0.310000          0.172653E-03
      0.315000          0.166020E-03
      0.320000          0.158844E-03
      0.325000          0.151256E-03
      0.330000          0.143645E-03
      0.335000          0.136477E-03
      0.340000          0.130105E-03
      0.345000          0.124647E-03
      0.350000          0.119977E-03
      0.355000          0.115823E-03
      0.360000          0.111913E-03
      0.365000          0.108100E-03
      0.370000          0.104425E-03
      0.375000          0.101094E-03
      0.380000          0.983862E-04
      0.385000          0.965366E-04
      0.390000          0.956218E-04
      0.395000          0.954957E-04
      0.400000          0.957996E-04
      0.405000          0.960550E-04
      0.410000          0.958177E-04
      0.415000          0.948400E-04
      0.420000          0.931699E-04
      0.425000          0.911339E-04
      0.430000          0.891937E-04
      0.435000          0.877353E-04
      0.440000          0.868890E-04
      0.445000          0.864747E-04
      0.450000          0.861042E-04
      0.455000          0.853912E-04
      0.460000          0.841579E-04
      0.465000          0.825256E-04
      0.470000          0.808432E-04
      0.475000          0.794922E-04
      0.480000          0.786773E-04
      0.485000          0.783126E-04
      0.490000          0.780599E-04
      0.495000          0.774927E-04
      0.500000          0.762972E-04
