 I_abs(s)[cm^-1]/c[mg/ml]
       0.00000          0.120550E-01
      0.500000E-02      0.118334E-01
      0.100000E-01      0.112036E-01
      0.150000E-01      0.102607E-01
      0.200000E-01      0.913850E-02
      0.250000E-01      0.797815E-02
      0.300000E-01      0.689959E-02
      0.350000E-01      0.598115E-02
      0.400000E-01      0.525263E-02
      0.450000E-01      0.470162E-02
      0.500000E-01      0.428892E-02
      0.550000E-01      0.396695E-02
      0.600000E-01      0.369500E-02
      0.650000E-01      0.344755E-02
      0.700000E-01      0.321488E-02
      0.750000E-01      0.299793E-02
      0.800000E-01      0.280098E-02
      0.850000E-01      0.262576E-02
      0.900000E-01      0.246887E-02
      0.950000E-01      0.232293E-02
      0.100000          0.217989E-02
      0.105000          0.203457E-02
      0.110000          0.188657E-02
      0.115000          0.173995E-02
      0.120000          0.160100E-02
      0.125000          0.147539E-02
      0.130000          0.136593E-02
      0.135000          0.127189E-02
      0.140000          0.118981E-02
      0.145000          0.111530E-02
      0.150000          0.104485E-02
      0.155000          0.976916E-03
      0.160000          0.911984E-03
      0.165000          0.851707E-03
      0.170000          0.797744E-03
      0.175000          0.750812E-03
      0.180000          0.710341E-03
      0.185000          0.674749E-03
      0.190000          0.642112E-03
      0.195000          0.610841E-03
      0.200000          0.580086E-03
      0.205000          0.549754E-03
      0.210000          0.520222E-03
      0.215000          0.491947E-03
      0.220000          0.465183E-03
      0.225000          0.439895E-03
      0.230000          0.415873E-03
      0.235000          0.392913E-03
      0.240000          0.370963E-03
      0.245000          0.350144E-03
      0.250000          0.330651E-03
      0.255000          0.312612E-03
      0.260000          0.295966E-03
      0.265000          0.280457E-03
      0.270000          0.265710E-03
      0.275000          0.251381E-03
      0.280000          0.237280E-03
      0.285000          0.223433E-03
      0.290000          0.210055E-03
      0.295000          0.197458E-03
      0.300000          0.185937E-03
      0.305000          0.175685E-03
      0.310000          0.166758E-03
      0.315000          0.159089E-03
      0.320000          0.152529E-03
      0.325000          0.146893E-03
      0.330000          0.141989E-03
      0.335000          0.137632E-03
      0.340000          0.133649E-03
      0.345000          0.129881E-03
      0.350000          0.126200E-03
      0.355000          0.122520E-03
      0.360000          0.118808E-03
      0.365000          0.115087E-03
      0.370000          0.111428E-03
      0.375000          0.107936E-03
      0.380000          0.104727E-03
      0.385000          0.101900E-03
      0.390000          0.995225E-04
      0.395000          0.976083E-04
      0.400000          0.961156E-04
      0.405000          0.949550E-04
      0.410000          0.940088E-04
      0.415000          0.931526E-04
      0.420000          0.922733E-04
      0.425000          0.912787E-04
      0.430000          0.901047E-04
      0.435000          0.887231E-04
      0.440000          0.871556E-04
      0.445000          0.854869E-04
      0.450000          0.838641E-04
      0.455000          0.824717E-04
      0.460000          0.814813E-04
      0.465000          0.809886E-04
      0.470000          0.809651E-04
      0.475000          0.812464E-04
      0.480000          0.815678E-04
      0.485000          0.816380E-04
      0.490000          0.812247E-04
      0.495000          0.802214E-04
      0.500000          0.786709E-04
