 I_abs(s)[cm^-1]/c[mg/ml]
       0.00000          0.123090E-01
      0.500000E-02      0.120516E-01
      0.100000E-01      0.113235E-01
      0.150000E-01      0.102464E-01
      0.200000E-01      0.898850E-02
      0.250000E-01      0.772448E-02
      0.300000E-01      0.659713E-02
      0.350000E-01      0.569159E-02
      0.400000E-01      0.502793E-02
      0.450000E-01      0.457159E-02
      0.500000E-01      0.425596E-02
      0.550000E-01      0.400847E-02
      0.600000E-01      0.377186E-02
      0.650000E-01      0.351542E-02
      0.700000E-01      0.323517E-02
      0.750000E-01      0.294576E-02
      0.800000E-01      0.266874E-02
      0.850000E-01      0.242229E-02
      0.900000E-01      0.221523E-02
      0.950000E-01      0.204622E-02
      0.100000          0.190690E-02
      0.105000          0.178648E-02
      0.110000          0.167580E-02
      0.115000          0.156951E-02
      0.120000          0.146613E-02
      0.125000          0.136686E-02
      0.130000          0.127389E-02
      0.135000          0.118910E-02
      0.140000          0.111342E-02
      0.145000          0.104677E-02
      0.150000          0.988334E-03
      0.155000          0.936771E-03
      0.160000          0.890472E-03
      0.165000          0.847712E-03
      0.170000          0.806862E-03
      0.175000          0.766668E-03
      0.180000          0.726518E-03
      0.185000          0.686574E-03
      0.190000          0.647682E-03
      0.195000          0.611041E-03
      0.200000          0.577752E-03
      0.205000          0.548404E-03
      0.210000          0.522854E-03
      0.215000          0.500285E-03
      0.220000          0.479486E-03
      0.225000          0.459250E-03
      0.230000          0.438728E-03
      0.235000          0.417626E-03
      0.240000          0.396195E-03
      0.245000          0.375053E-03
      0.250000          0.354923E-03
      0.255000          0.336385E-03
      0.260000          0.319725E-03
      0.265000          0.304898E-03
      0.270000          0.291602E-03
      0.275000          0.279411E-03
      0.280000          0.267907E-03
      0.285000          0.256772E-03
      0.290000          0.245830E-03
      0.295000          0.235026E-03
      0.300000          0.224389E-03
      0.305000          0.213985E-03
      0.310000          0.203884E-03
      0.315000          0.194142E-03
      0.320000          0.184792E-03
      0.325000          0.175832E-03
      0.330000          0.167214E-03
      0.335000          0.158852E-03
      0.340000          0.150641E-03
      0.345000          0.142503E-03
      0.350000          0.134451E-03
      0.355000          0.126621E-03
      0.360000          0.119271E-03
      0.365000          0.112709E-03
      0.370000          0.107183E-03
      0.375000          0.102767E-03
      0.380000          0.993031E-04
      0.385000          0.964235E-04
      0.390000          0.936666E-04
      0.395000          0.906363E-04
      0.400000          0.871443E-04
      0.405000          0.832717E-04
      0.410000          0.793254E-04
      0.415000          0.757061E-04
      0.420000          0.727452E-04
      0.425000          0.705796E-04
      0.430000          0.691118E-04
      0.435000          0.680661E-04
      0.440000          0.671068E-04
      0.445000          0.659654E-04
      0.450000          0.645232E-04
      0.455000          0.628232E-04
      0.460000          0.610188E-04
      0.465000          0.592909E-04
      0.470000          0.577745E-04
      0.475000          0.565219E-04
      0.480000          0.555078E-04
      0.485000          0.546636E-04
      0.490000          0.539141E-04
      0.495000          0.532005E-04
      0.500000          0.524827E-04
