 I_abs(s)[cm^-1]/c[mg/ml]
       0.00000          0.115266E-01
      0.500000E-02      0.112560E-01
      0.100000E-01      0.104923E-01
      0.150000E-01      0.936676E-02
      0.200000E-01      0.806135E-02
      0.250000E-01      0.676480E-02
      0.300000E-01      0.563118E-02
      0.350000E-01      0.475185E-02
      0.400000E-01      0.414713E-02
      0.450000E-01      0.377747E-02
      0.500000E-01      0.356764E-02
      0.550000E-01      0.343503E-02
      0.600000E-01      0.331286E-02
      0.650000E-01      0.316280E-02
      0.700000E-01      0.297574E-02
      0.750000E-01      0.276352E-02
      0.800000E-01      0.254687E-02
      0.850000E-01      0.234451E-02
      0.900000E-01      0.216678E-02
      0.950000E-01      0.201456E-02
      0.100000          0.188226E-02
      0.105000          0.176223E-02
      0.110000          0.164860E-02
      0.115000          0.153898E-02
      0.120000          0.143420E-02
      0.125000          0.133663E-02
      0.130000          0.124838E-02
      0.135000          0.117011E-02
      0.140000          0.110080E-02
      0.145000          0.103826E-02
      0.150000          0.980021E-03
      0.155000          0.924076E-03
      0.160000          0.869342E-03
      0.165000          0.815694E-03
      0.170000          0.763758E-03
      0.175000          0.714596E-03
      0.180000          0.669365E-03
      0.185000          0.629021E-03
      0.190000          0.594083E-03
      0.195000          0.564466E-03
      0.200000          0.539444E-03
      0.205000          0.517751E-03
      0.210000          0.497840E-03
      0.215000          0.478219E-03
      0.220000          0.457791E-03
      0.225000          0.436073E-03
      0.230000          0.413242E-03
      0.235000          0.389992E-03
      0.240000          0.367261E-03
      0.245000          0.345940E-03
      0.250000          0.326634E-03
      0.255000          0.309558E-03
      0.260000          0.294567E-03
      0.265000          0.281278E-03
      0.270000          0.269232E-03
      0.275000          0.258025E-03
      0.280000          0.247389E-03
      0.285000          0.237192E-03
      0.290000          0.227404E-03
      0.295000          0.218045E-03
      0.300000          0.209144E-03
      0.305000          0.200723E-03
      0.310000          0.192797E-03
      0.315000          0.185377E-03
      0.320000          0.178447E-03
      0.325000          0.171945E-03
      0.330000          0.165737E-03
      0.335000          0.159621E-03
      0.340000          0.153373E-03
      0.345000          0.146827E-03
      0.350000          0.139960E-03
      0.355000          0.132943E-03
      0.360000          0.126110E-03
      0.365000          0.119865E-03
      0.370000          0.114536E-03
      0.375000          0.110242E-03
      0.380000          0.106834E-03
      0.385000          0.103940E-03
      0.390000          0.101099E-03
      0.395000          0.979358E-04
      0.400000          0.942941E-04
      0.405000          0.902849E-04
      0.410000          0.862241E-04
      0.415000          0.824935E-04
      0.420000          0.793891E-04
      0.425000          0.770194E-04
      0.430000          0.752905E-04
      0.435000          0.739742E-04
      0.440000          0.728179E-04
      0.445000          0.716431E-04
      0.450000          0.703917E-04
      0.455000          0.691080E-04
      0.460000          0.678750E-04
      0.465000          0.667439E-04
      0.470000          0.656896E-04
      0.475000          0.646124E-04
      0.480000          0.633804E-04
      0.485000          0.618897E-04
      0.490000          0.601133E-04
      0.495000          0.581184E-04
      0.500000          0.560455E-04
