 I_abs(s)[cm^-1]/c[mg/ml]
       0.00000          0.119110E-01
      0.500000E-02      0.116499E-01
      0.100000E-01      0.109157E-01
      0.150000E-01      0.984179E-02
      0.200000E-01      0.860913E-02
      0.250000E-01      0.739846E-02
      0.300000E-01      0.634780E-02
      0.350000E-01      0.552716E-02
      0.400000E-01      0.493651E-02
      0.450000E-01      0.452411E-02
      0.500000E-01      0.421604E-02
      0.550000E-01      0.394520E-02
      0.600000E-01      0.367041E-02
      0.650000E-01      0.338137E-02
      0.700000E-01      0.309118E-02
      0.750000E-01      0.282225E-02
      0.800000E-01      0.259264E-02
      0.850000E-01      0.240796E-02
      0.900000E-01      0.226063E-02
      0.950000E-01      0.213497E-02
      0.100000          0.201458E-02
      0.105000          0.188851E-02
      0.110000          0.175390E-02
      0.115000          0.161503E-02
      0.120000          0.147981E-02
      0.125000          0.135590E-02
      0.130000          0.124787E-02
      0.135000          0.115620E-02
      0.140000          0.107805E-02
      0.145000          0.100900E-02
      0.150000          0.944920E-03
      0.155000          0.883264E-03
      0.160000          0.823573E-03
      0.165000          0.767102E-03
      0.170000          0.715918E-03
      0.175000          0.671828E-03
      0.180000          0.635514E-03
      0.185000          0.606155E-03
      0.190000          0.581650E-03
      0.195000          0.559331E-03
      0.200000          0.536881E-03
      0.205000          0.513079E-03
      0.210000          0.488070E-03
      0.215000          0.463070E-03
      0.220000          0.439649E-03
      0.225000          0.418936E-03
      0.230000          0.401098E-03
      0.235000          0.385324E-03
      0.240000          0.370272E-03
      0.245000          0.354743E-03
      0.250000          0.338248E-03
      0.255000          0.321204E-03
      0.260000          0.304698E-03
      0.265000          0.289955E-03
      0.270000          0.277790E-03
      0.275000          0.268270E-03
      0.280000          0.260738E-03
      0.285000          0.254119E-03
      0.290000          0.247361E-03
      0.295000          0.239799E-03
      0.300000          0.231307E-03
      0.305000          0.222215E-03
      0.310000          0.213081E-03
      0.315000          0.204424E-03
      0.320000          0.196545E-03
      0.325000          0.189471E-03
      0.330000          0.183020E-03
      0.335000          0.176923E-03
      0.340000          0.170939E-03
      0.345000          0.164926E-03
      0.350000          0.158852E-03
      0.355000          0.152774E-03
      0.360000          0.146796E-03
      0.365000          0.141036E-03
      0.370000          0.135599E-03
      0.375000          0.130559E-03
      0.380000          0.125941E-03
      0.385000          0.121708E-03
      0.390000          0.117765E-03
      0.395000          0.113988E-03
      0.400000          0.110265E-03
      0.405000          0.106547E-03
      0.410000          0.102877E-03
      0.415000          0.993689E-04
      0.420000          0.961706E-04
      0.425000          0.933975E-04
      0.430000          0.910910E-04
      0.435000          0.892075E-04
      0.440000          0.876415E-04
      0.445000          0.862644E-04
      0.450000          0.849571E-04
      0.455000          0.836261E-04
      0.460000          0.822054E-04
      0.465000          0.806558E-04
      0.470000          0.789654E-04
      0.475000          0.771529E-04
      0.480000          0.752616E-04
      0.485000          0.733440E-04
      0.490000          0.714403E-04
      0.495000          0.695638E-04
      0.500000          0.677038E-04
