 I_abs(s)[cm^-1]/c[mg/ml]
       0.00000          0.122944E-01
      0.500000E-02      0.120794E-01
      0.100000E-01      0.114667E-01
      0.150000E-01      0.105453E-01
      0.200000E-01      0.944055E-02
      0.250000E-01      0.828636E-02
      0.300000E-01      0.719855E-02
      0.350000E-01      0.625578E-02
      0.400000E-01      0.549231E-02
      0.450000E-01      0.490269E-02
      0.500000E-01      0.445482E-02
      0.550000E-01      0.410621E-02
      0.600000E-01      0.381792E-02
      0.650000E-01      0.356287E-02
      0.700000E-01      0.332744E-02
      0.750000E-01      0.310805E-02
      0.800000E-01      0.290548E-02
      0.850000E-01      0.271994E-02
      0.900000E-01      0.254869E-02
      0.950000E-01      0.238647E-02
      0.100000          0.222774E-02
      0.105000          0.206918E-02
      0.110000          0.191111E-02
      0.115000          0.175712E-02
      0.120000          0.161243E-02
      0.125000          0.148168E-02
      0.130000          0.136723E-02
      0.135000          0.126860E-02
      0.140000          0.118305E-02
      0.145000          0.110692E-02
      0.150000          0.103697E-02
      0.155000          0.971314E-03
      0.160000          0.909526E-03
      0.165000          0.852204E-03
      0.170000          0.800223E-03
      0.175000          0.754100E-03
      0.180000          0.713681E-03
      0.185000          0.678194E-03
      0.190000          0.646533E-03
      0.195000          0.617578E-03
      0.200000          0.590397E-03
      0.205000          0.564302E-03
      0.210000          0.538787E-03
      0.215000          0.513459E-03
      0.220000          0.488009E-03
      0.225000          0.462262E-03
      0.230000          0.436244E-03
      0.235000          0.410234E-03
      0.240000          0.384726E-03
      0.245000          0.360319E-03
      0.250000          0.337576E-03
      0.255000          0.316880E-03
      0.260000          0.298360E-03
      0.265000          0.281901E-03
      0.270000          0.267202E-03
      0.275000          0.253886E-03
      0.280000          0.241586E-03
      0.285000          0.230014E-03
      0.290000          0.218983E-03
      0.295000          0.208400E-03
      0.300000          0.198242E-03
      0.305000          0.188533E-03
      0.310000          0.179321E-03
      0.315000          0.170663E-03
      0.320000          0.162614E-03
      0.325000          0.155219E-03
      0.330000          0.148501E-03
      0.335000          0.142460E-03
      0.340000          0.137062E-03
      0.345000          0.132247E-03
      0.350000          0.127921E-03
      0.355000          0.123968E-03
      0.360000          0.120258E-03
      0.365000          0.116657E-03
      0.370000          0.113054E-03
      0.375000          0.109385E-03
      0.380000          0.105649E-03
      0.385000          0.101919E-03
      0.390000          0.983280E-04
      0.395000          0.950366E-04
      0.400000          0.921935E-04
      0.405000          0.898986E-04
      0.410000          0.881827E-04
      0.415000          0.870068E-04
      0.420000          0.862768E-04
      0.425000          0.858643E-04
      0.430000          0.856247E-04
      0.435000          0.854108E-04
      0.440000          0.850858E-04
      0.445000          0.845405E-04
      0.450000          0.837155E-04
      0.455000          0.826203E-04
      0.460000          0.813380E-04
      0.465000          0.800063E-04
      0.470000          0.787757E-04
      0.475000          0.777585E-04
      0.480000          0.769864E-04
      0.485000          0.763970E-04
      0.490000          0.758536E-04
      0.495000          0.751919E-04
      0.500000          0.742748E-04
