 I_abs(s)[cm^-1]/c[mg/ml]
       0.00000          0.124554E-01
      0.500000E-02      0.122781E-01
      0.100000E-01      0.117683E-01
      0.150000E-01      0.109877E-01
      0.200000E-01      0.100253E-01
      0.250000E-01      0.897993E-02
      0.300000E-01      0.794333E-02
      0.350000E-01      0.698584E-02
      0.400000E-01      0.614926E-02
      0.450000E-01      0.544673E-02
      0.500000E-01      0.486875E-02
      0.550000E-01      0.439269E-02
      0.600000E-01      0.399258E-02
      0.650000E-01      0.364667E-02
      0.700000E-01      0.334118E-02
      0.750000E-01      0.307028E-02
      0.800000E-01      0.283330E-02
      0.850000E-01      0.263101E-02
      0.900000E-01      0.246242E-02
      0.950000E-01      0.232326E-02
      0.100000          0.220630E-02
      0.105000          0.210291E-02
      0.110000          0.200518E-02
      0.115000          0.190752E-02
      0.120000          0.180738E-02
      0.125000          0.170485E-02
      0.130000          0.160172E-02
      0.135000          0.150024E-02
      0.140000          0.140219E-02
      0.145000          0.130850E-02
      0.150000          0.121942E-02
      0.155000          0.113484E-02
      0.160000          0.105479E-02
      0.165000          0.979632E-03
      0.170000          0.910006E-03
      0.175000          0.846549E-03
      0.180000          0.789597E-03
      0.185000          0.738963E-03
      0.190000          0.693934E-03
      0.195000          0.653434E-03
      0.200000          0.616298E-03
      0.205000          0.581534E-03
      0.210000          0.548476E-03
      0.215000          0.516813E-03
      0.220000          0.486503E-03
      0.225000          0.457644E-03
      0.230000          0.430361E-03
      0.235000          0.404745E-03
      0.240000          0.380848E-03
      0.245000          0.358708E-03
      0.250000          0.338365E-03
      0.255000          0.319856E-03
      0.260000          0.303179E-03
      0.265000          0.288248E-03
      0.270000          0.274868E-03
      0.275000          0.262744E-03
      0.280000          0.251528E-03
      0.285000          0.240890E-03
      0.290000          0.230587E-03
      0.295000          0.220504E-03
      0.300000          0.210653E-03
      0.305000          0.201137E-03
      0.310000          0.192091E-03
      0.315000          0.183629E-03
      0.320000          0.175802E-03
      0.325000          0.168594E-03
      0.330000          0.161942E-03
      0.335000          0.155763E-03
      0.340000          0.149987E-03
      0.345000          0.144569E-03
      0.350000          0.139488E-03
      0.355000          0.134737E-03
      0.360000          0.130303E-03
      0.365000          0.126164E-03
      0.370000          0.122280E-03
      0.375000          0.118607E-03
      0.380000          0.115104E-03
      0.385000          0.111742E-03
      0.390000          0.108512E-03
      0.395000          0.105416E-03
      0.400000          0.102470E-03
      0.405000          0.996954E-04
      0.410000          0.971110E-04
      0.415000          0.947300E-04
      0.420000          0.925527E-04
      0.425000          0.905636E-04
      0.430000          0.887311E-04
      0.435000          0.870127E-04
      0.440000          0.853661E-04
      0.445000          0.837609E-04
      0.450000          0.821889E-04
      0.455000          0.806661E-04
      0.460000          0.792261E-04
      0.465000          0.779053E-04
      0.470000          0.767268E-04
      0.475000          0.756889E-04
      0.480000          0.747624E-04
      0.485000          0.739000E-04
      0.490000          0.730517E-04
      0.495000          0.721825E-04
      0.500000          0.712844E-04
