 I_abs(s)[cm^-1]/c[mg/ml]
       0.00000          0.119541E-01
      0.500000E-02      0.117403E-01
      0.100000E-01      0.111295E-01
      0.150000E-01      0.102063E-01
      0.200000E-01      0.909130E-02
      0.250000E-01      0.791608E-02
      0.300000E-01      0.679789E-02
      0.350000E-01      0.582078E-02
      0.400000E-01      0.502648E-02
      0.450000E-01      0.441634E-02
      0.500000E-01      0.396203E-02
      0.550000E-01      0.362054E-02
      0.600000E-01      0.334890E-02
      0.650000E-01      0.311450E-02
      0.700000E-01      0.289922E-02
      0.750000E-01      0.269784E-02
      0.800000E-01      0.251270E-02
      0.850000E-01      0.234764E-02
      0.900000E-01      0.220347E-02
      0.950000E-01      0.207640E-02
      0.100000          0.195932E-02
      0.105000          0.184468E-02
      0.110000          0.172747E-02
      0.115000          0.160693E-02
      0.120000          0.148637E-02
      0.125000          0.137153E-02
      0.130000          0.126808E-02
      0.135000          0.117956E-02
      0.140000          0.110635E-02
      0.145000          0.104590E-02
      0.150000          0.994018E-03
      0.155000          0.946396E-03
      0.160000          0.899894E-03
      0.165000          0.853092E-03
      0.170000          0.806087E-03
      0.175000          0.759828E-03
      0.180000          0.715363E-03
      0.185000          0.673347E-03
      0.190000          0.633960E-03
      0.195000          0.597127E-03
      0.200000          0.562841E-03
      0.205000          0.531353E-03
      0.210000          0.503111E-03
      0.215000          0.478482E-03
      0.220000          0.457430E-03
      0.225000          0.439320E-03
      0.230000          0.422980E-03
      0.235000          0.407017E-03
      0.240000          0.390251E-03
      0.245000          0.372099E-03
      0.250000          0.352729E-03
      0.255000          0.332951E-03
      0.260000          0.313872E-03
      0.265000          0.296473E-03
      0.270000          0.281279E-03
      0.275000          0.268219E-03
      0.280000          0.256733E-03
      0.285000          0.246040E-03
      0.290000          0.235454E-03
      0.295000          0.224621E-03
      0.300000          0.213599E-03
      0.305000          0.202776E-03
      0.310000          0.192674E-03
      0.315000          0.183739E-03
      0.320000          0.176197E-03
      0.325000          0.170009E-03
      0.330000          0.164931E-03
      0.335000          0.160633E-03
      0.340000          0.156814E-03
      0.345000          0.153273E-03
      0.350000          0.149923E-03
      0.355000          0.146745E-03
      0.360000          0.143725E-03
      0.365000          0.140808E-03
      0.370000          0.137879E-03
      0.375000          0.134793E-03
      0.380000          0.131418E-03
      0.385000          0.127696E-03
      0.390000          0.123675E-03
      0.395000          0.119507E-03
      0.400000          0.115423E-03
      0.405000          0.111667E-03
      0.410000          0.108430E-03
      0.415000          0.105799E-03
      0.420000          0.103722E-03
      0.425000          0.102020E-03
      0.430000          0.100439E-03
      0.435000          0.987187E-04
      0.440000          0.966765E-04
      0.445000          0.942637E-04
      0.450000          0.915843E-04
      0.455000          0.888617E-04
      0.460000          0.863622E-04
      0.465000          0.843013E-04
      0.470000          0.827636E-04
      0.475000          0.816704E-04
      0.480000          0.808051E-04
      0.485000          0.798932E-04
      0.490000          0.787030E-04
      0.495000          0.771315E-04
      0.500000          0.752388E-04
