 I_abs(s)[cm^-1]/c[mg/ml]
       0.00000          0.121056E-01
      0.500000E-02      0.118969E-01
      0.100000E-01      0.113008E-01
      0.150000E-01      0.104004E-01
      0.200000E-01      0.931340E-02
      0.250000E-01      0.816707E-02
      0.300000E-01      0.707383E-02
      0.350000E-01      0.611299E-02
      0.400000E-01      0.532302E-02
      0.450000E-01      0.470453E-02
      0.500000E-01      0.423132E-02
      0.550000E-01      0.386501E-02
      0.600000E-01      0.356836E-02
      0.650000E-01      0.331386E-02
      0.700000E-01      0.308638E-02
      0.750000E-01      0.288084E-02
      0.800000E-01      0.269714E-02
      0.850000E-01      0.253523E-02
      0.900000E-01      0.239217E-02
      0.950000E-01      0.226179E-02
      0.100000          0.213655E-02
      0.105000          0.201016E-02
      0.110000          0.187965E-02
      0.115000          0.174603E-02
      0.120000          0.161339E-02
      0.125000          0.148711E-02
      0.130000          0.137191E-02
      0.135000          0.127050E-02
      0.140000          0.118323E-02
      0.145000          0.110852E-02
      0.150000          0.104383E-02
      0.155000          0.986486E-03
      0.160000          0.934341E-03
      0.165000          0.885879E-03
      0.170000          0.840119E-03
      0.175000          0.796398E-03
      0.180000          0.754247E-03
      0.185000          0.713387E-03
      0.190000          0.673786E-03
      0.195000          0.635680E-03
      0.200000          0.599494E-03
      0.205000          0.565649E-03
      0.210000          0.534358E-03
      0.215000          0.505503E-03
      0.220000          0.478645E-03
      0.225000          0.453181E-03
      0.230000          0.428565E-03
      0.235000          0.404490E-03
      0.240000          0.380965E-03
      0.245000          0.358256E-03
      0.250000          0.336728E-03
      0.255000          0.316677E-03
      0.260000          0.298210E-03
      0.265000          0.281227E-03
      0.270000          0.265481E-03
      0.275000          0.250697E-03
      0.280000          0.236667E-03
      0.285000          0.223312E-03
      0.290000          0.210673E-03
      0.295000          0.198864E-03
      0.300000          0.188002E-03
      0.305000          0.178160E-03
      0.310000          0.169338E-03
      0.315000          0.161463E-03
      0.320000          0.154417E-03
      0.325000          0.148058E-03
      0.330000          0.142246E-03
      0.335000          0.136858E-03
      0.340000          0.131798E-03
      0.345000          0.126996E-03
      0.350000          0.122405E-03
      0.355000          0.118007E-03
      0.360000          0.113803E-03
      0.365000          0.109816E-03
      0.370000          0.106087E-03
      0.375000          0.102671E-03
      0.380000          0.996285E-04
      0.385000          0.970151E-04
      0.390000          0.948653E-04
      0.395000          0.931805E-04
      0.400000          0.919218E-04
      0.405000          0.910119E-04
      0.410000          0.903463E-04
      0.415000          0.898111E-04
      0.420000          0.893025E-04
      0.425000          0.887411E-04
      0.430000          0.880781E-04
      0.435000          0.872930E-04
      0.440000          0.863844E-04
      0.445000          0.853589E-04
      0.450000          0.842232E-04
      0.455000          0.829833E-04
      0.460000          0.816487E-04
      0.465000          0.802411E-04
      0.470000          0.787998E-04
      0.475000          0.773804E-04
      0.480000          0.760453E-04
      0.485000          0.748470E-04
      0.490000          0.738131E-04
      0.495000          0.729367E-04
      0.500000          0.721789E-04
