 I_abs(s)[cm^-1]/c[mg/ml]
       0.00000          0.116824E-01
      0.500000E-02      0.114483E-01
      0.100000E-01      0.107841E-01
      0.150000E-01      0.979436E-02
      0.200000E-01      0.862511E-02
      0.250000E-01      0.742989E-02
      0.300000E-01      0.633757E-02
      0.350000E-01      0.543024E-02
      0.400000E-01      0.473583E-02
      0.450000E-01      0.423566E-02
      0.500000E-01      0.388195E-02
      0.550000E-01      0.361862E-02
      0.600000E-01      0.339841E-02
      0.650000E-01      0.319227E-02
      0.700000E-01      0.299000E-02
      0.750000E-01      0.279443E-02
      0.800000E-01      0.261307E-02
      0.850000E-01      0.245105E-02
      0.900000E-01      0.230770E-02
      0.950000E-01      0.217703E-02
      0.100000          0.205098E-02
      0.105000          0.192315E-02
      0.110000          0.179126E-02
      0.115000          0.165757E-02
      0.120000          0.152732E-02
      0.125000          0.140634E-02
      0.130000          0.129888E-02
      0.135000          0.120650E-02
      0.140000          0.112816E-02
      0.145000          0.106116E-02
      0.150000          0.100237E-02
      0.155000          0.949192E-03
      0.160000          0.899895E-03
      0.165000          0.853581E-03
      0.170000          0.809844E-03
      0.175000          0.768454E-03
      0.180000          0.729210E-03
      0.185000          0.691937E-03
      0.190000          0.656552E-03
      0.195000          0.623100E-03
      0.200000          0.591696E-03
      0.205000          0.562425E-03
      0.210000          0.535250E-03
      0.215000          0.509983E-03
      0.220000          0.486336E-03
      0.225000          0.464006E-03
      0.230000          0.442744E-03
      0.235000          0.422379E-03
      0.240000          0.402795E-03
      0.245000          0.383888E-03
      0.250000          0.365545E-03
      0.255000          0.347652E-03
      0.260000          0.330140E-03
      0.265000          0.313015E-03
      0.270000          0.296370E-03
      0.275000          0.280344E-03
      0.280000          0.265069E-03
      0.285000          0.250615E-03
      0.290000          0.236963E-03
      0.295000          0.224031E-03
      0.300000          0.211712E-03
      0.305000          0.199929E-03
      0.310000          0.188660E-03
      0.315000          0.177936E-03
      0.320000          0.167820E-03
      0.325000          0.158377E-03
      0.330000          0.149650E-03
      0.335000          0.141664E-03
      0.340000          0.134430E-03
      0.345000          0.127963E-03
      0.350000          0.122277E-03
      0.355000          0.117381E-03
      0.360000          0.113260E-03
      0.365000          0.109861E-03
      0.370000          0.107089E-03
      0.375000          0.104819E-03
      0.380000          0.102921E-03
      0.385000          0.101274E-03
      0.390000          0.997803E-04
      0.395000          0.983622E-04
      0.400000          0.969497E-04
      0.405000          0.954672E-04
      0.410000          0.938304E-04
      0.415000          0.919610E-04
      0.420000          0.898133E-04
      0.425000          0.874026E-04
      0.430000          0.848189E-04
      0.435000          0.822135E-04
      0.440000          0.797603E-04
      0.445000          0.776022E-04
      0.450000          0.758055E-04
      0.455000          0.743395E-04
      0.460000          0.730915E-04
      0.465000          0.719106E-04
      0.470000          0.706619E-04
      0.475000          0.692700E-04
      0.480000          0.677369E-04
      0.485000          0.661298E-04
      0.490000          0.645476E-04
      0.495000          0.630802E-04
      0.500000          0.617759E-04
