 I_abs(s)[cm^-1]/c[mg/ml]
       0.00000          0.125141E-01
      0.500000E-02      0.123232E-01
      0.100000E-01      0.117724E-01
      0.150000E-01      0.109232E-01
      0.200000E-01      0.986560E-02
      0.250000E-01      0.870263E-02
      0.300000E-01      0.753366E-02
      0.350000E-01      0.644066E-02
      0.400000E-01      0.547959E-02
      0.450000E-01      0.467793E-02
      0.500000E-01      0.403782E-02
      0.550000E-01      0.354297E-02
      0.600000E-01      0.316695E-02
      0.650000E-01      0.288069E-02
      0.700000E-01      0.265786E-02
      0.750000E-01      0.247756E-02
      0.800000E-01      0.232473E-02
      0.850000E-01      0.218919E-02
      0.900000E-01      0.206426E-02
      0.950000E-01      0.194554E-02
      0.100000          0.183028E-02
      0.105000          0.171713E-02
      0.110000          0.160607E-02
      0.115000          0.149819E-02
      0.120000          0.139526E-02
      0.125000          0.129916E-02
      0.130000          0.121127E-02
      0.135000          0.113212E-02
      0.140000          0.106136E-02
      0.145000          0.998035E-03
      0.150000          0.940967E-03
      0.155000          0.889157E-03
      0.160000          0.841975E-03
      0.165000          0.799133E-03
      0.170000          0.760485E-03
      0.175000          0.725779E-03
      0.180000          0.694474E-03
      0.185000          0.665719E-03
      0.190000          0.638484E-03
      0.195000          0.611793E-03
      0.200000          0.584963E-03
      0.205000          0.557755E-03
      0.210000          0.530399E-03
      0.215000          0.503482E-03
      0.220000          0.477753E-03
      0.225000          0.453898E-03
      0.230000          0.432358E-03
      0.235000          0.413230E-03
      0.240000          0.396264E-03
      0.245000          0.380946E-03
      0.250000          0.366635E-03
      0.255000          0.352719E-03
      0.260000          0.338747E-03
      0.265000          0.324510E-03
      0.270000          0.310049E-03
      0.275000          0.295605E-03
      0.280000          0.281522E-03
      0.285000          0.268127E-03
      0.290000          0.255640E-03
      0.295000          0.244125E-03
      0.300000          0.233488E-03
      0.305000          0.223541E-03
      0.310000          0.214075E-03
      0.315000          0.204935E-03
      0.320000          0.196069E-03
      0.325000          0.187530E-03
      0.330000          0.179443E-03
      0.335000          0.171956E-03
      0.340000          0.165180E-03
      0.345000          0.159160E-03
      0.350000          0.153862E-03
      0.355000          0.149188E-03
      0.360000          0.145001E-03
      0.365000          0.141151E-03
      0.370000          0.137503E-03
      0.375000          0.133948E-03
      0.380000          0.130412E-03
      0.385000          0.126868E-03
      0.390000          0.123341E-03
      0.395000          0.119904E-03
      0.400000          0.116673E-03
      0.405000          0.113773E-03
      0.410000          0.111314E-03
      0.415000          0.109344E-03
      0.420000          0.107830E-03
      0.425000          0.106650E-03
      0.430000          0.105616E-03
      0.435000          0.104516E-03
      0.440000          0.103163E-03
      0.445000          0.101440E-03
      0.450000          0.993171E-04
      0.455000          0.968491E-04
      0.460000          0.941503E-04
      0.465000          0.913576E-04
      0.470000          0.885987E-04
      0.475000          0.859722E-04
      0.480000          0.835434E-04
      0.485000          0.813500E-04
      0.490000          0.794116E-04
      0.495000          0.777351E-04
      0.500000          0.763124E-04
