 I_abs(s)[cm^-1]/c[mg/ml]
       0.00000          0.121708E-01
      0.500000E-02      0.119865E-01
      0.100000E-01      0.114579E-01
      0.150000E-01      0.106526E-01
      0.200000E-01      0.966705E-02
      0.250000E-01      0.860711E-02
      0.300000E-01      0.756839E-02
      0.350000E-01      0.662163E-02
      0.400000E-01      0.580580E-02
      0.450000E-01      0.512955E-02
      0.500000E-01      0.457913E-02
      0.550000E-01      0.412931E-02
      0.600000E-01      0.375374E-02
      0.650000E-01      0.343198E-02
      0.700000E-01      0.315204E-02
      0.750000E-01      0.290905E-02
      0.800000E-01      0.270170E-02
      0.850000E-01      0.252844E-02
      0.900000E-01      0.238508E-02
      0.950000E-01      0.226437E-02
      0.100000          0.215728E-02
      0.105000          0.205515E-02
      0.110000          0.195160E-02
      0.115000          0.184346E-02
      0.120000          0.173072E-02
      0.125000          0.161549E-02
      0.130000          0.150076E-02
      0.135000          0.138938E-02
      0.140000          0.128348E-02
      0.145000          0.118444E-02
      0.150000          0.109308E-02
      0.155000          0.100996E-02
      0.160000          0.935431E-03
      0.165000          0.869551E-03
      0.170000          0.811955E-03
      0.175000          0.761774E-03
      0.180000          0.717741E-03
      0.185000          0.678437E-03
      0.190000          0.642607E-03
      0.195000          0.609383E-03
      0.200000          0.578347E-03
      0.205000          0.549419E-03
      0.210000          0.522637E-03
      0.215000          0.497944E-03
      0.220000          0.475083E-03
      0.225000          0.453624E-03
      0.230000          0.433099E-03
      0.235000          0.413158E-03
      0.240000          0.393681E-03
      0.245000          0.374778E-03
      0.250000          0.356699E-03
      0.255000          0.339690E-03
      0.260000          0.323873E-03
      0.265000          0.309183E-03
      0.270000          0.295395E-03
      0.275000          0.282210E-03
      0.280000          0.269367E-03
      0.285000          0.256732E-03
      0.290000          0.244330E-03
      0.295000          0.232321E-03
      0.300000          0.220929E-03
      0.305000          0.210362E-03
      0.310000          0.200742E-03
      0.315000          0.192073E-03
      0.320000          0.184256E-03
      0.325000          0.177127E-03
      0.330000          0.170522E-03
      0.335000          0.164318E-03
      0.340000          0.158455E-03
      0.345000          0.152928E-03
      0.350000          0.147748E-03
      0.355000          0.142901E-03
      0.360000          0.138318E-03
      0.365000          0.133877E-03
      0.370000          0.129431E-03
      0.375000          0.124862E-03
      0.380000          0.120123E-03
      0.385000          0.115273E-03
      0.390000          0.110464E-03
      0.395000          0.105902E-03
      0.400000          0.101785E-03
      0.405000          0.982403E-04
      0.410000          0.952926E-04
      0.415000          0.928619E-04
      0.420000          0.908002E-04
      0.425000          0.889465E-04
      0.430000          0.871796E-04
      0.435000          0.854461E-04
      0.440000          0.837540E-04
      0.445000          0.821372E-04
      0.450000          0.806108E-04
      0.455000          0.791402E-04
      0.460000          0.776432E-04
      0.465000          0.760256E-04
      0.470000          0.742347E-04
      0.475000          0.723030E-04
      0.480000          0.703568E-04
      0.485000          0.685815E-04
      0.490000          0.671559E-04
      0.495000          0.661822E-04
      0.500000          0.656452E-04
