 I_abs(s)[cm^-1]/c[mg/ml]
       0.00000          0.118823E-01
      0.500000E-02      0.116097E-01
      0.100000E-01      0.108440E-01
      0.150000E-01      0.972661E-02
      0.200000E-01      0.844797E-02
      0.250000E-01      0.719616E-02
      0.300000E-01      0.611197E-02
      0.350000E-01      0.526363E-02
      0.400000E-01      0.464701E-02
      0.450000E-01      0.420709E-02
      0.500000E-01      0.386995E-02
      0.550000E-01      0.357235E-02
      0.600000E-01      0.327933E-02
      0.650000E-01      0.298639E-02
      0.700000E-01      0.270940E-02
      0.750000E-01      0.246935E-02
      0.800000E-01      0.227920E-02
      0.850000E-01      0.213785E-02
      0.900000E-01      0.203172E-02
      0.950000E-01      0.194152E-02
      0.100000          0.184995E-02
      0.105000          0.174707E-02
      0.110000          0.163156E-02
      0.115000          0.150868E-02
      0.120000          0.138636E-02
      0.125000          0.127168E-02
      0.130000          0.116877E-02
      0.135000          0.107846E-02
      0.140000          0.999150E-03
      0.145000          0.928159E-03
      0.150000          0.862993E-03
      0.155000          0.802107E-03
      0.160000          0.745189E-03
      0.165000          0.693008E-03
      0.170000          0.646931E-03
      0.175000          0.608258E-03
      0.180000          0.577546E-03
      0.185000          0.554174E-03
      0.190000          0.536315E-03
      0.195000          0.521381E-03
      0.200000          0.506782E-03
      0.205000          0.490695E-03
      0.210000          0.472514E-03
      0.215000          0.452800E-03
      0.220000          0.432778E-03
      0.225000          0.413647E-03
      0.230000          0.396023E-03
      0.235000          0.379760E-03
      0.240000          0.364172E-03
      0.245000          0.348509E-03
      0.250000          0.332401E-03
      0.255000          0.316068E-03
      0.260000          0.300202E-03
      0.265000          0.285627E-03
      0.270000          0.272901E-03
      0.275000          0.262070E-03
      0.280000          0.252654E-03
      0.285000          0.243861E-03
      0.290000          0.234895E-03
      0.295000          0.225230E-03
      0.300000          0.214744E-03
      0.305000          0.203683E-03
      0.310000          0.192501E-03
      0.315000          0.181669E-03
      0.320000          0.171529E-03
      0.325000          0.162233E-03
      0.330000          0.153778E-03
      0.335000          0.146078E-03
      0.340000          0.139038E-03
      0.345000          0.132588E-03
      0.350000          0.126688E-03
      0.355000          0.121302E-03
      0.360000          0.116383E-03
      0.365000          0.111868E-03
      0.370000          0.107684E-03
      0.375000          0.103759E-03
      0.380000          0.100024E-03
      0.385000          0.964177E-04
      0.390000          0.928958E-04
      0.395000          0.894451E-04
      0.400000          0.861008E-04
      0.405000          0.829465E-04
      0.410000          0.800893E-04
      0.415000          0.776171E-04
      0.420000          0.755540E-04
      0.425000          0.738411E-04
      0.430000          0.723530E-04
      0.435000          0.709461E-04
      0.440000          0.695164E-04
      0.445000          0.680387E-04
      0.450000          0.665699E-04
      0.455000          0.652139E-04
      0.460000          0.640652E-04
      0.465000          0.631574E-04
      0.470000          0.624421E-04
      0.475000          0.618093E-04
      0.480000          0.611420E-04
      0.485000          0.603787E-04
      0.490000          0.595506E-04
      0.495000          0.587712E-04
      0.500000          0.581800E-04
