 I_abs(s)[cm^-1]/c[mg/ml]
       0.00000          0.121998E-01
      0.500000E-02      0.120082E-01
      0.100000E-01      0.114593E-01
      0.150000E-01      0.106249E-01
      0.200000E-01      0.960742E-02
      0.250000E-01      0.851838E-02
      0.300000E-01      0.745790E-02
      0.350000E-01      0.649889E-02
      0.400000E-01      0.568003E-02
      0.450000E-01      0.500776E-02
      0.500000E-01      0.446514E-02
      0.550000E-01      0.402386E-02
      0.600000E-01      0.365541E-02
      0.650000E-01      0.333844E-02
      0.700000E-01      0.306127E-02
      0.750000E-01      0.282005E-02
      0.800000E-01      0.261469E-02
      0.850000E-01      0.244450E-02
      0.900000E-01      0.230559E-02
      0.950000E-01      0.219035E-02
      0.100000          0.208900E-02
      0.105000          0.199203E-02
      0.110000          0.189235E-02
      0.115000          0.178655E-02
      0.120000          0.167481E-02
      0.125000          0.155983E-02
      0.130000          0.144541E-02
      0.135000          0.133512E-02
      0.140000          0.123160E-02
      0.145000          0.113632E-02
      0.150000          0.104983E-02
      0.155000          0.972121E-03
      0.160000          0.902904E-03
      0.165000          0.841730E-03
      0.170000          0.788009E-03
      0.175000          0.740983E-03
      0.180000          0.699760E-03
      0.185000          0.663409E-03
      0.190000          0.631087E-03
      0.195000          0.602128E-03
      0.200000          0.576042E-03
      0.205000          0.552440E-03
      0.210000          0.530910E-03
      0.215000          0.510930E-03
      0.220000          0.491853E-03
      0.225000          0.472985E-03
      0.230000          0.453717E-03
      0.235000          0.433667E-03
      0.240000          0.412764E-03
      0.245000          0.391252E-03
      0.250000          0.369608E-03
      0.255000          0.348407E-03
      0.260000          0.328177E-03
      0.265000          0.309290E-03
      0.270000          0.291909E-03
      0.275000          0.275998E-03
      0.280000          0.261383E-03
      0.285000          0.247836E-03
      0.290000          0.235152E-03
      0.295000          0.223201E-03
      0.300000          0.211941E-03
      0.305000          0.201397E-03
      0.310000          0.191618E-03
      0.315000          0.182637E-03
      0.320000          0.174440E-03
      0.325000          0.166969E-03
      0.330000          0.160135E-03
      0.335000          0.153848E-03
      0.340000          0.148041E-03
      0.345000          0.142679E-03
      0.350000          0.137747E-03
      0.355000          0.133232E-03
      0.360000          0.129103E-03
      0.365000          0.125307E-03
      0.370000          0.121774E-03
      0.375000          0.118436E-03
      0.380000          0.115246E-03
      0.385000          0.112184E-03
      0.390000          0.109254E-03
      0.395000          0.106471E-03
      0.400000          0.103839E-03
      0.405000          0.101348E-03
      0.410000          0.989649E-04
      0.415000          0.966451E-04
      0.420000          0.943491E-04
      0.425000          0.920542E-04
      0.430000          0.897643E-04
      0.435000          0.875118E-04
      0.440000          0.853532E-04
      0.445000          0.833618E-04
      0.450000          0.816167E-04
      0.455000          0.801902E-04
      0.460000          0.791327E-04
      0.465000          0.784582E-04
      0.470000          0.781332E-04
      0.475000          0.780733E-04
      0.480000          0.781523E-04
      0.485000          0.782227E-04
      0.490000          0.781440E-04
      0.495000          0.778105E-04
      0.500000          0.771700E-04
