 I_abs(s)[cm^-1]/c[mg/ml]
       0.00000          0.117536E-01
      0.500000E-02      0.114861E-01
      0.100000E-01      0.107346E-01
      0.150000E-01      0.963730E-02
      0.200000E-01      0.838080E-02
      0.250000E-01      0.715088E-02
      0.300000E-01      0.608849E-02
      0.350000E-01      0.526450E-02
      0.400000E-01      0.467867E-02
      0.450000E-01      0.427915E-02
      0.500000E-01      0.399251E-02
      0.550000E-01      0.375230E-02
      0.600000E-01      0.351702E-02
      0.650000E-01      0.327399E-02
      0.700000E-01      0.303176E-02
      0.750000E-01      0.280699E-02
      0.800000E-01      0.261270E-02
      0.850000E-01      0.245187E-02
      0.900000E-01      0.231756E-02
      0.950000E-01      0.219739E-02
      0.100000          0.207919E-02
      0.105000          0.195513E-02
      0.110000          0.182313E-02
      0.115000          0.168583E-02
      0.120000          0.154843E-02
      0.125000          0.141654E-02
      0.130000          0.129475E-02
      0.135000          0.118600E-02
      0.140000          0.109153E-02
      0.145000          0.101100E-02
      0.150000          0.942761E-03
      0.155000          0.884349E-03
      0.160000          0.833076E-03
      0.165000          0.786723E-03
      0.170000          0.743992E-03
      0.175000          0.704555E-03
      0.180000          0.668667E-03
      0.185000          0.636549E-03
      0.190000          0.607878E-03
      0.195000          0.581626E-03
      0.200000          0.556319E-03
      0.205000          0.530548E-03
      0.210000          0.503445E-03
      0.215000          0.474909E-03
      0.220000          0.445512E-03
      0.225000          0.416211E-03
      0.230000          0.388029E-03
      0.235000          0.361855E-03
      0.240000          0.338382E-03
      0.245000          0.318090E-03
      0.250000          0.301204E-03
      0.255000          0.287595E-03
      0.260000          0.276681E-03
      0.265000          0.267467E-03
      0.270000          0.258755E-03
      0.275000          0.249505E-03
      0.280000          0.239186E-03
      0.285000          0.227950E-03
      0.290000          0.216523E-03
      0.295000          0.205853E-03
      0.300000          0.196672E-03
      0.305000          0.189169E-03
      0.310000          0.182921E-03
      0.315000          0.177108E-03
      0.320000          0.170877E-03
      0.325000          0.163696E-03
      0.330000          0.155543E-03
      0.335000          0.146850E-03
      0.340000          0.138290E-03
      0.345000          0.130488E-03
      0.350000          0.123820E-03
      0.355000          0.118338E-03
      0.360000          0.113837E-03
      0.365000          0.109993E-03
      0.370000          0.106500E-03
      0.375000          0.103152E-03
      0.380000          0.998522E-04
      0.385000          0.965896E-04
      0.390000          0.933904E-04
      0.395000          0.902920E-04
      0.400000          0.873342E-04
      0.405000          0.845630E-04
      0.410000          0.820318E-04
      0.415000          0.797910E-04
      0.420000          0.778677E-04
      0.425000          0.762431E-04
      0.430000          0.748419E-04
      0.435000          0.735426E-04
      0.440000          0.722119E-04
      0.445000          0.707525E-04
      0.450000          0.691469E-04
      0.455000          0.674754E-04
      0.460000          0.658937E-04
      0.465000          0.645736E-04
      0.470000          0.636283E-04
      0.475000          0.630536E-04
      0.480000          0.627167E-04
      0.485000          0.623987E-04
      0.490000          0.618762E-04
      0.495000          0.610039E-04
      0.500000          0.597621E-04
