 I_abs(s)[cm^-1]/c[mg/ml]
       0.00000          0.121200E-01
      0.500000E-02      0.119034E-01
      0.100000E-01      0.112852E-01
      0.150000E-01      0.103533E-01
      0.200000E-01      0.923154E-02
      0.250000E-01      0.805301E-02
      0.300000E-01      0.693384E-02
      0.350000E-01      0.595445E-02
      0.400000E-01      0.515199E-02
      0.450000E-01      0.452443E-02
      0.500000E-01      0.404280E-02
      0.550000E-01      0.366683E-02
      0.600000E-01      0.335868E-02
      0.650000E-01      0.309147E-02
      0.700000E-01      0.285154E-02
      0.750000E-01      0.263565E-02
      0.800000E-01      0.244564E-02
      0.850000E-01      0.228328E-02
      0.900000E-01      0.214710E-02
      0.950000E-01      0.203180E-02
      0.100000          0.192971E-02
      0.105000          0.183309E-02
      0.110000          0.173613E-02
      0.115000          0.163599E-02
      0.120000          0.153273E-02
      0.125000          0.142841E-02
      0.130000          0.132597E-02
      0.135000          0.122831E-02
      0.140000          0.113763E-02
      0.145000          0.105525E-02
      0.150000          0.981600E-03
      0.155000          0.916387E-03
      0.160000          0.858762E-03
      0.165000          0.807540E-03
      0.170000          0.761405E-03
      0.175000          0.719129E-03
      0.180000          0.679736E-03
      0.185000          0.642594E-03
      0.190000          0.607398E-03
      0.195000          0.574082E-03
      0.200000          0.542688E-03
      0.205000          0.513254E-03
      0.210000          0.485760E-03
      0.215000          0.460110E-03
      0.220000          0.436169E-03
      0.225000          0.413796E-03
      0.230000          0.392867E-03
      0.235000          0.373295E-03
      0.240000          0.355026E-03
      0.245000          0.338034E-03
      0.250000          0.322312E-03
      0.255000          0.307838E-03
      0.260000          0.294543E-03
      0.265000          0.282274E-03
      0.270000          0.270788E-03
      0.275000          0.259769E-03
      0.280000          0.248910E-03
      0.285000          0.237990E-03
      0.290000          0.226953E-03
      0.295000          0.215928E-03
      0.300000          0.205188E-03
      0.305000          0.195056E-03
      0.310000          0.185793E-03
      0.315000          0.177519E-03
      0.320000          0.170191E-03
      0.325000          0.163644E-03
      0.330000          0.157671E-03
      0.335000          0.152104E-03
      0.340000          0.146870E-03
      0.345000          0.141989E-03
      0.350000          0.137538E-03
      0.355000          0.133600E-03
      0.360000          0.130202E-03
      0.365000          0.127296E-03
      0.370000          0.124753E-03
      0.375000          0.122393E-03
      0.380000          0.120019E-03
      0.385000          0.117466E-03
      0.390000          0.114633E-03
      0.395000          0.111506E-03
      0.400000          0.108162E-03
      0.405000          0.104750E-03
      0.410000          0.101452E-03
      0.415000          0.984350E-04
      0.420000          0.958189E-04
      0.425000          0.936511E-04
      0.430000          0.919128E-04
      0.435000          0.905430E-04
      0.440000          0.894686E-04
      0.445000          0.886268E-04
      0.450000          0.879714E-04
      0.455000          0.874631E-04
      0.460000          0.870531E-04
      0.465000          0.866735E-04
      0.470000          0.862424E-04
      0.475000          0.856830E-04
      0.480000          0.849492E-04
      0.485000          0.840433E-04
      0.490000          0.830164E-04
      0.495000          0.819497E-04
      0.500000          0.809230E-04
