 I_abs(s)[cm^-1]/c[mg/ml]
       0.00000          0.118322E-01
      0.500000E-02      0.115597E-01
      0.100000E-01      0.107981E-01
      0.150000E-01      0.969777E-02
      0.200000E-01      0.845941E-02
      0.250000E-01      0.727765E-02
      0.300000E-01      0.629232E-02
      0.350000E-01      0.556244E-02
      0.400000E-01      0.506865E-02
      0.450000E-01      0.473924E-02
      0.500000E-01      0.448686E-02
      0.550000E-01      0.424147E-02
      0.600000E-01      0.396846E-02
      0.650000E-01      0.366904E-02
      0.700000E-01      0.336686E-02
      0.750000E-01      0.308958E-02
      0.800000E-01      0.285416E-02
      0.850000E-01      0.266109E-02
      0.900000E-01      0.249764E-02
      0.950000E-01      0.234658E-02
      0.100000          0.219494E-02
      0.105000          0.203880E-02
      0.110000          0.188279E-02
      0.115000          0.173577E-02
      0.120000          0.160538E-02
      0.125000          0.149445E-02
      0.130000          0.140037E-02
      0.135000          0.131718E-02
      0.140000          0.123865E-02
      0.145000          0.116096E-02
      0.150000          0.108361E-02
      0.155000          0.100873E-02
      0.160000          0.939353E-03
      0.165000          0.877717E-03
      0.170000          0.824315E-03
      0.175000          0.777874E-03
      0.180000          0.736092E-03
      0.185000          0.696616E-03
      0.190000          0.657831E-03
      0.195000          0.619200E-03
      0.200000          0.581144E-03
      0.205000          0.544626E-03
      0.210000          0.510637E-03
      0.215000          0.479792E-03
      0.220000          0.452143E-03
      0.225000          0.427215E-03
      0.230000          0.404224E-03
      0.235000          0.382375E-03
      0.240000          0.361120E-03
      0.245000          0.340297E-03
      0.250000          0.320119E-03
      0.255000          0.301028E-03
      0.260000          0.283494E-03
      0.265000          0.267817E-03
      0.270000          0.254013E-03
      0.275000          0.241805E-03
      0.280000          0.230719E-03
      0.285000          0.220236E-03
      0.290000          0.209960E-03
      0.295000          0.199732E-03
      0.300000          0.189658E-03
      0.305000          0.180034E-03
      0.310000          0.171205E-03
      0.315000          0.163416E-03
      0.320000          0.156715E-03
      0.325000          0.150941E-03
      0.330000          0.145793E-03
      0.335000          0.140935E-03
      0.340000          0.136080E-03
      0.345000          0.131050E-03
      0.350000          0.125792E-03
      0.355000          0.120367E-03
      0.360000          0.114939E-03
      0.365000          0.109727E-03
      0.370000          0.104943E-03
      0.375000          0.100715E-03
      0.380000          0.970459E-04
      0.385000          0.938317E-04
      0.390000          0.909381E-04
      0.395000          0.882918E-04
      0.400000          0.859168E-04
      0.405000          0.838847E-04
      0.410000          0.822122E-04
      0.415000          0.807854E-04
      0.420000          0.793796E-04
      0.425000          0.777775E-04
      0.430000          0.759101E-04
      0.435000          0.739196E-04
      0.440000          0.720916E-04
      0.445000          0.706918E-04
      0.450000          0.698097E-04
      0.455000          0.693065E-04
      0.460000          0.688930E-04
      0.465000          0.682846E-04
      0.470000          0.673357E-04
      0.475000          0.660838E-04
      0.480000          0.646955E-04
      0.485000          0.633602E-04
      0.490000          0.621946E-04
      0.495000          0.611988E-04
      0.500000          0.602727E-04
