 I_abs(s)[cm^-1]/c[mg/ml]
       0.00000          0.119757E-01
      0.500000E-02      0.117624E-01
      0.100000E-01      0.111542E-01
      0.150000E-01      0.102392E-01
      0.200000E-01      0.914100E-02
      0.250000E-01      0.799245E-02
      0.300000E-01      0.690866E-02
      0.350000E-01      0.596840E-02
      0.400000E-01      0.520663E-02
      0.450000E-01      0.461881E-02
      0.500000E-01      0.417370E-02
      0.550000E-01      0.382937E-02
      0.600000E-01      0.354719E-02
      0.650000E-01      0.330034E-02
      0.700000E-01      0.307563E-02
      0.750000E-01      0.287015E-02
      0.800000E-01      0.268540E-02
      0.850000E-01      0.252204E-02
      0.900000E-01      0.237701E-02
      0.950000E-01      0.224373E-02
      0.100000          0.211436E-02
      0.105000          0.198278E-02
      0.110000          0.184665E-02
      0.115000          0.170789E-02
      0.120000          0.157147E-02
      0.125000          0.144338E-02
      0.130000          0.132855E-02
      0.135000          0.122954E-02
      0.140000          0.114630E-02
      0.145000          0.107676E-02
      0.150000          0.101786E-02
      0.155000          0.966530E-03
      0.160000          0.920314E-03
      0.165000          0.877537E-03
      0.170000          0.837183E-03
      0.175000          0.798657E-03
      0.180000          0.761597E-03
      0.185000          0.725792E-03
      0.190000          0.691171E-03
      0.195000          0.657799E-03
      0.200000          0.625825E-03
      0.205000          0.595390E-03
      0.210000          0.566522E-03
      0.215000          0.539089E-03
      0.220000          0.512820E-03
      0.225000          0.487391E-03
      0.230000          0.462536E-03
      0.235000          0.438123E-03
      0.240000          0.414185E-03
      0.245000          0.390881E-03
      0.250000          0.368428E-03
      0.255000          0.347034E-03
      0.260000          0.326847E-03
      0.265000          0.307947E-03
      0.270000          0.290351E-03
      0.275000          0.274043E-03
      0.280000          0.258982E-03
      0.285000          0.245110E-03
      0.290000          0.232341E-03
      0.295000          0.220552E-03
      0.300000          0.209578E-03
      0.305000          0.199227E-03
      0.310000          0.189303E-03
      0.315000          0.179639E-03
      0.320000          0.170132E-03
      0.325000          0.160765E-03
      0.330000          0.151610E-03
      0.335000          0.142814E-03
      0.340000          0.134573E-03
      0.345000          0.127089E-03
      0.350000          0.120541E-03
      0.355000          0.115056E-03
      0.360000          0.110689E-03
      0.365000          0.107418E-03
      0.370000          0.105141E-03
      0.375000          0.103673E-03
      0.380000          0.102760E-03
      0.385000          0.102105E-03
      0.390000          0.101397E-03
      0.395000          0.100361E-03
      0.400000          0.988069E-04
      0.405000          0.966568E-04
      0.410000          0.939601E-04
      0.415000          0.908735E-04
      0.420000          0.876187E-04
      0.425000          0.844273E-04
      0.430000          0.814903E-04
      0.435000          0.789270E-04
      0.440000          0.767793E-04
      0.445000          0.750311E-04
      0.450000          0.736391E-04
      0.455000          0.725623E-04
      0.460000          0.717746E-04
      0.465000          0.712586E-04
      0.470000          0.709872E-04
      0.475000          0.709037E-04
      0.480000          0.709163E-04
      0.485000          0.709118E-04
      0.490000          0.707832E-04
      0.495000          0.704594E-04
      0.500000          0.699219E-04
