 I_abs(s)[cm^-1]/c[mg/ml]
       0.00000          0.122289E-01
      0.500000E-02      0.120177E-01
      0.100000E-01      0.114139E-01
      0.150000E-01      0.105007E-01
      0.200000E-01      0.939589E-02
      0.250000E-01      0.822742E-02
      0.300000E-01      0.710877E-02
      0.350000E-01      0.612065E-02
      0.400000E-01      0.530299E-02
      0.450000E-01      0.465759E-02
      0.500000E-01      0.415911E-02
      0.550000E-01      0.376977E-02
      0.600000E-01      0.345297E-02
      0.650000E-01      0.318225E-02
      0.700000E-01      0.294408E-02
      0.750000E-01      0.273525E-02
      0.800000E-01      0.255734E-02
      0.850000E-01      0.241101E-02
      0.900000E-01      0.229241E-02
      0.950000E-01      0.219267E-02
      0.100000          0.210005E-02
      0.105000          0.200336E-02
      0.110000          0.189513E-02
      0.115000          0.177324E-02
      0.120000          0.164065E-02
      0.125000          0.150362E-02
      0.130000          0.136932E-02
      0.135000          0.124377E-02
      0.140000          0.113065E-02
      0.145000          0.103128E-02
      0.150000          0.945294E-03
      0.155000          0.871625E-03
      0.160000          0.809207E-03
      0.165000          0.757226E-03
      0.170000          0.714926E-03
      0.175000          0.681210E-03
      0.180000          0.654333E-03
      0.185000          0.631891E-03
      0.190000          0.611143E-03
      0.195000          0.589531E-03
      0.200000          0.565211E-03
      0.205000          0.537375E-03
      0.210000          0.506292E-03
      0.215000          0.473056E-03
      0.220000          0.439181E-03
      0.225000          0.406165E-03
      0.230000          0.375179E-03
      0.235000          0.346916E-03
      0.240000          0.321621E-03
      0.245000          0.299233E-03
      0.250000          0.279555E-03
      0.255000          0.262389E-03
      0.260000          0.247600E-03
      0.265000          0.235097E-03
      0.270000          0.224778E-03
      0.275000          0.216453E-03
      0.280000          0.209806E-03
      0.285000          0.204393E-03
      0.290000          0.199697E-03
      0.295000          0.195201E-03
      0.300000          0.190466E-03
      0.305000          0.185193E-03
      0.310000          0.179249E-03
      0.315000          0.172661E-03
      0.320000          0.165591E-03
      0.325000          0.158296E-03
      0.330000          0.151089E-03
      0.335000          0.144296E-03
      0.340000          0.138214E-03
      0.345000          0.133076E-03
      0.350000          0.129007E-03
      0.355000          0.126003E-03
      0.360000          0.123926E-03
      0.365000          0.122523E-03
      0.370000          0.121480E-03
      0.375000          0.120479E-03
      0.380000          0.119265E-03
      0.385000          0.117688E-03
      0.390000          0.115725E-03
      0.395000          0.113461E-03
      0.400000          0.111055E-03
      0.405000          0.108688E-03
      0.410000          0.106517E-03
      0.415000          0.104644E-03
      0.420000          0.103107E-03
      0.425000          0.101891E-03
      0.430000          0.100955E-03
      0.435000          0.100243E-03
      0.440000          0.997036E-04
      0.445000          0.992735E-04
      0.450000          0.988648E-04
      0.455000          0.983532E-04
      0.460000          0.975852E-04
      0.465000          0.964083E-04
      0.470000          0.947162E-04
      0.475000          0.924901E-04
      0.480000          0.898149E-04
      0.485000          0.868616E-04
      0.490000          0.838390E-04
      0.495000          0.809352E-04
      0.500000          0.782727E-04
