 I_abs(s)[cm^-1]/c[mg/ml]
       0.00000          0.124847E-01
      0.500000E-02      0.122705E-01
      0.100000E-01      0.116601E-01
      0.150000E-01      0.107420E-01
      0.200000E-01      0.964040E-02
      0.250000E-01      0.848690E-02
      0.300000E-01      0.739380E-02
      0.350000E-01      0.643577E-02
      0.400000E-01      0.564368E-02
      0.450000E-01      0.501054E-02
      0.500000E-01      0.450554E-02
      0.550000E-01      0.409056E-02
      0.600000E-01      0.373353E-02
      0.650000E-01      0.341548E-02
      0.700000E-01      0.313045E-02
      0.750000E-01      0.288060E-02
      0.800000E-01      0.266942E-02
      0.850000E-01      0.249648E-02
      0.900000E-01      0.235530E-02
      0.950000E-01      0.223466E-02
      0.100000          0.212198E-02
      0.105000          0.200709E-02
      0.110000          0.188472E-02
      0.115000          0.175494E-02
      0.120000          0.162187E-02
      0.125000          0.149133E-02
      0.130000          0.136863E-02
      0.135000          0.125704E-02
      0.140000          0.115753E-02
      0.145000          0.106932E-02
      0.150000          0.990875E-03
      0.155000          0.920844E-03
      0.160000          0.858601E-03
      0.165000          0.804235E-03
      0.170000          0.758163E-03
      0.175000          0.720580E-03
      0.180000          0.691005E-03
      0.185000          0.668096E-03
      0.190000          0.649775E-03
      0.195000          0.633616E-03
      0.200000          0.617343E-03
      0.205000          0.599277E-03
      0.210000          0.578580E-03
      0.215000          0.555252E-03
      0.220000          0.529889E-03
      0.225000          0.503335E-03
      0.230000          0.476347E-03
      0.235000          0.449414E-03
      0.240000          0.422763E-03
      0.245000          0.396523E-03
      0.250000          0.370929E-03
      0.255000          0.346451E-03
      0.260000          0.323774E-03
      0.265000          0.303619E-03
      0.270000          0.286499E-03
      0.275000          0.272503E-03
      0.280000          0.261226E-03
      0.285000          0.251859E-03
      0.290000          0.243422E-03
      0.295000          0.235029E-03
      0.300000          0.226103E-03
      0.305000          0.216459E-03
      0.310000          0.206260E-03
      0.315000          0.195865E-03
      0.320000          0.185666E-03
      0.325000          0.175953E-03
      0.330000          0.166866E-03
      0.335000          0.158403E-03
      0.340000          0.150491E-03
      0.345000          0.143049E-03
      0.350000          0.136038E-03
      0.355000          0.129469E-03
      0.360000          0.123386E-03
      0.365000          0.117834E-03
      0.370000          0.112830E-03
      0.375000          0.108359E-03
      0.380000          0.104375E-03
      0.385000          0.100827E-03
      0.390000          0.976660E-04
      0.395000          0.948580E-04
      0.400000          0.923705E-04
      0.405000          0.901584E-04
      0.410000          0.881525E-04
      0.415000          0.862617E-04
      0.420000          0.843905E-04
      0.425000          0.824675E-04
      0.430000          0.804707E-04
      0.435000          0.784388E-04
      0.440000          0.764622E-04
      0.445000          0.746554E-04
      0.450000          0.731217E-04
      0.455000          0.719235E-04
      0.460000          0.710672E-04
      0.465000          0.705094E-04
      0.470000          0.701781E-04
      0.475000          0.699995E-04
      0.480000          0.699202E-04
      0.485000          0.699138E-04
      0.490000          0.699725E-04
      0.495000          0.700882E-04
      0.500000          0.702336E-04
