 I_abs(s)[cm^-1]/c[mg/ml]
       0.00000          0.121056E-01
      0.500000E-02      0.118275E-01
      0.100000E-01      0.110427E-01
      0.150000E-01      0.988584E-02
      0.200000E-01      0.854343E-02
      0.250000E-01      0.720820E-02
      0.300000E-01      0.603637E-02
      0.350000E-01      0.511894E-02
      0.400000E-01      0.447358E-02
      0.450000E-01      0.405698E-02
      0.500000E-01      0.379081E-02
      0.550000E-01      0.359172E-02
      0.600000E-01      0.339569E-02
      0.650000E-01      0.317058E-02
      0.700000E-01      0.291564E-02
      0.750000E-01      0.265114E-02
      0.800000E-01      0.240389E-02
      0.850000E-01      0.219454E-02
      0.900000E-01      0.203051E-02
      0.950000E-01      0.190565E-02
      0.100000          0.180503E-02
      0.105000          0.171190E-02
      0.110000          0.161363E-02
      0.115000          0.150498E-02
      0.120000          0.138801E-02
      0.125000          0.126965E-02
      0.130000          0.115832E-02
      0.135000          0.106096E-02
      0.140000          0.981233E-03
      0.145000          0.919170E-03
      0.150000          0.871876E-03
      0.155000          0.834765E-03
      0.160000          0.802900E-03
      0.165000          0.772107E-03
      0.170000          0.739694E-03
      0.175000          0.704748E-03
      0.180000          0.667976E-03
      0.185000          0.631183E-03
      0.190000          0.596522E-03
      0.195000          0.565708E-03
      0.200000          0.539460E-03
      0.205000          0.517327E-03
      0.210000          0.497949E-03
      0.215000          0.479627E-03
      0.220000          0.460960E-03
      0.225000          0.441298E-03
      0.230000          0.420839E-03
      0.235000          0.400379E-03
      0.240000          0.380856E-03
      0.245000          0.362905E-03
      0.250000          0.346622E-03
      0.255000          0.331608E-03
      0.260000          0.317228E-03
      0.265000          0.302944E-03
      0.270000          0.288550E-03
      0.275000          0.274218E-03
      0.280000          0.260360E-03
      0.285000          0.247398E-03
      0.290000          0.235568E-03
      0.295000          0.224837E-03
      0.300000          0.214968E-03
      0.305000          0.205668E-03
      0.310000          0.196735E-03
      0.315000          0.188136E-03
      0.320000          0.179969E-03
      0.325000          0.172367E-03
      0.330000          0.165383E-03
      0.335000          0.158922E-03
      0.340000          0.152773E-03
      0.345000          0.146688E-03
      0.350000          0.140501E-03
      0.355000          0.134203E-03
      0.360000          0.127940E-03
      0.365000          0.121955E-03
      0.370000          0.116473E-03
      0.375000          0.111610E-03
      0.380000          0.107323E-03
      0.385000          0.103430E-03
      0.390000          0.996979E-04
      0.395000          0.959338E-04
      0.400000          0.920690E-04
      0.405000          0.881841E-04
      0.410000          0.844744E-04
      0.415000          0.811689E-04
      0.420000          0.784370E-04
      0.425000          0.763170E-04
      0.430000          0.746938E-04
      0.435000          0.733330E-04
      0.440000          0.719556E-04
      0.445000          0.703271E-04
      0.450000          0.683277E-04
      0.455000          0.659815E-04
      0.460000          0.634389E-04
      0.465000          0.609201E-04
      0.470000          0.586449E-04
      0.475000          0.567712E-04
      0.480000          0.553609E-04
      0.485000          0.543785E-04
      0.490000          0.537164E-04
      0.495000          0.532338E-04
      0.500000          0.527953E-04
