 I_abs(s)[cm^-1]/c[mg/ml]
       0.00000          0.120694E-01
      0.500000E-02      0.118677E-01
      0.100000E-01      0.112922E-01
      0.150000E-01      0.104252E-01
      0.200000E-01      0.938198E-02
      0.250000E-01      0.828545E-02
      0.300000E-01      0.724155E-02
      0.350000E-01      0.632178E-02
      0.400000E-01      0.555709E-02
      0.450000E-01      0.494269E-02
      0.500000E-01      0.445069E-02
      0.550000E-01      0.404533E-02
      0.600000E-01      0.369579E-02
      0.650000E-01      0.338320E-02
      0.700000E-01      0.310130E-02
      0.750000E-01      0.285220E-02
      0.800000E-01      0.264013E-02
      0.850000E-01      0.246623E-02
      0.900000E-01      0.232606E-02
      0.950000E-01      0.221027E-02
      0.100000          0.210745E-02
      0.105000          0.200740E-02
      0.110000          0.190365E-02
      0.115000          0.179414E-02
      0.120000          0.168041E-02
      0.125000          0.156589E-02
      0.130000          0.145414E-02
      0.135000          0.134779E-02
      0.140000          0.124820E-02
      0.145000          0.115588E-02
      0.150000          0.107093E-02
      0.155000          0.993485E-03
      0.160000          0.923664E-03
      0.165000          0.861418E-03
      0.170000          0.806260E-03
      0.175000          0.757188E-03
      0.180000          0.712842E-03
      0.185000          0.671826E-03
      0.190000          0.633038E-03
      0.195000          0.595857E-03
      0.200000          0.560139E-03
      0.205000          0.526035E-03
      0.210000          0.493768E-03
      0.215000          0.463473E-03
      0.220000          0.435143E-03
      0.225000          0.408694E-03
      0.230000          0.384059E-03
      0.235000          0.361252E-03
      0.240000          0.340357E-03
      0.245000          0.321445E-03
      0.250000          0.304486E-03
      0.255000          0.289289E-03
      0.260000          0.275524E-03
      0.265000          0.262798E-03
      0.270000          0.250767E-03
      0.275000          0.239222E-03
      0.280000          0.228118E-03
      0.285000          0.217539E-03
      0.290000          0.207621E-03
      0.295000          0.198476E-03
      0.300000          0.190137E-03
      0.305000          0.182551E-03
      0.310000          0.175619E-03
      0.315000          0.169233E-03
      0.320000          0.163314E-03
      0.325000          0.157822E-03
      0.330000          0.152730E-03
      0.335000          0.148004E-03
      0.340000          0.143579E-03
      0.345000          0.139375E-03
      0.350000          0.135320E-03
      0.355000          0.131391E-03
      0.360000          0.127628E-03
      0.365000          0.124121E-03
      0.370000          0.120965E-03
      0.375000          0.118205E-03
      0.380000          0.115794E-03
      0.385000          0.113594E-03
      0.390000          0.111406E-03
      0.395000          0.109038E-03
      0.400000          0.106365E-03
      0.405000          0.103361E-03
      0.410000          0.100109E-03
      0.415000          0.967593E-04
      0.420000          0.934867E-04
      0.425000          0.904370E-04
      0.430000          0.876967E-04
      0.435000          0.852858E-04
      0.440000          0.831761E-04
      0.445000          0.813241E-04
      0.450000          0.797053E-04
      0.455000          0.783317E-04
      0.460000          0.772430E-04
      0.465000          0.764705E-04
      0.470000          0.759908E-04
      0.475000          0.756944E-04
      0.480000          0.753921E-04
      0.485000          0.748646E-04
      0.490000          0.739407E-04
      0.495000          0.725674E-04
      0.500000          0.708388E-04
