 I_abs(s)[cm^-1]/c[mg/ml]
       0.00000          0.120333E-01
      0.500000E-02      0.117776E-01
      0.100000E-01      0.110596E-01
      0.150000E-01      0.100127E-01
      0.200000E-01      0.881579E-02
      0.250000E-01      0.764562E-02
      0.300000E-01      0.663400E-02
      0.350000E-01      0.584458E-02
      0.400000E-01      0.527321E-02
      0.450000E-01      0.486792E-02
      0.500000E-01      0.455832E-02
      0.550000E-01      0.428250E-02
      0.600000E-01      0.400313E-02
      0.650000E-01      0.370999E-02
      0.700000E-01      0.341220E-02
      0.750000E-01      0.312616E-02
      0.800000E-01      0.286523E-02
      0.850000E-01      0.263476E-02
      0.900000E-01      0.243248E-02
      0.950000E-01      0.225209E-02
      0.100000          0.208723E-02
      0.105000          0.193380E-02
      0.110000          0.179019E-02
      0.115000          0.165628E-02
      0.120000          0.153220E-02
      0.125000          0.141782E-02
      0.130000          0.131278E-02
      0.135000          0.121689E-02
      0.140000          0.113023E-02
      0.145000          0.105294E-02
      0.150000          0.984723E-03
      0.155000          0.924564E-03
      0.160000          0.870854E-03
      0.165000          0.821826E-03
      0.170000          0.776099E-03
      0.175000          0.732995E-03
      0.180000          0.692493E-03
      0.185000          0.654890E-03
      0.190000          0.620398E-03
      0.195000          0.588901E-03
      0.200000          0.559944E-03
      0.205000          0.532916E-03
      0.210000          0.507263E-03
      0.215000          0.482620E-03
      0.220000          0.458822E-03
      0.225000          0.435833E-03
      0.230000          0.413686E-03
      0.235000          0.392451E-03
      0.240000          0.372252E-03
      0.245000          0.353276E-03
      0.250000          0.335738E-03
      0.255000          0.319806E-03
      0.260000          0.305514E-03
      0.265000          0.292701E-03
      0.270000          0.281013E-03
      0.275000          0.269970E-03
      0.280000          0.259070E-03
      0.285000          0.247906E-03
      0.290000          0.236255E-03
      0.295000          0.224129E-03
      0.300000          0.211753E-03
      0.305000          0.199490E-03
      0.310000          0.187723E-03
      0.315000          0.176748E-03
      0.320000          0.166691E-03
      0.325000          0.157508E-03
      0.330000          0.149036E-03
      0.335000          0.141077E-03
      0.340000          0.133479E-03
      0.345000          0.126176E-03
      0.350000          0.119192E-03
      0.355000          0.112607E-03
      0.360000          0.106526E-03
      0.365000          0.101036E-03
      0.370000          0.961927E-04
      0.375000          0.920049E-04
      0.380000          0.884349E-04
      0.385000          0.854082E-04
      0.390000          0.828281E-04
      0.395000          0.805930E-04
      0.400000          0.786082E-04
      0.405000          0.767916E-04
      0.410000          0.750768E-04
      0.415000          0.734164E-04
      0.420000          0.717869E-04
      0.425000          0.701900E-04
      0.430000          0.686456E-04
      0.435000          0.671762E-04
      0.440000          0.657915E-04
      0.445000          0.644810E-04
      0.450000          0.632178E-04
      0.455000          0.619692E-04
      0.460000          0.607058E-04
      0.465000          0.594094E-04
      0.470000          0.580817E-04
      0.475000          0.567573E-04
      0.480000          0.555137E-04
      0.485000          0.544616E-04
      0.490000          0.537072E-04
      0.495000          0.532950E-04
      0.500000          0.531641E-04
