 I_abs(s)[cm^-1]/c[mg/ml]
       0.00000          0.123309E-01
      0.500000E-02      0.121308E-01
      0.100000E-01      0.115591E-01
      0.150000E-01      0.106948E-01
      0.200000E-01      0.964931E-02
      0.250000E-01      0.854295E-02
      0.300000E-01      0.748076E-02
      0.350000E-01      0.653569E-02
      0.400000E-01      0.574151E-02
      0.450000E-01      0.509638E-02
      0.500000E-01      0.457418E-02
      0.550000E-01      0.413920E-02
      0.600000E-01      0.375913E-02
      0.650000E-01      0.341327E-02
      0.700000E-01      0.309435E-02
      0.750000E-01      0.280521E-02
      0.800000E-01      0.255284E-02
      0.850000E-01      0.234236E-02
      0.900000E-01      0.217343E-02
      0.950000E-01      0.203965E-02
      0.100000          0.193061E-02
      0.105000          0.183516E-02
      0.110000          0.174446E-02
      0.115000          0.165356E-02
      0.120000          0.156147E-02
      0.125000          0.146986E-02
      0.130000          0.138129E-02
      0.135000          0.129781E-02
      0.140000          0.122020E-02
      0.145000          0.114815E-02
      0.150000          0.108078E-02
      0.155000          0.101734E-02
      0.160000          0.957578E-03
      0.165000          0.901755E-03
      0.170000          0.850322E-03
      0.175000          0.803558E-03
      0.180000          0.761303E-03
      0.185000          0.722928E-03
      0.190000          0.687500E-03
      0.195000          0.654046E-03
      0.200000          0.621777E-03
      0.205000          0.590200E-03
      0.210000          0.559108E-03
      0.215000          0.528500E-03
      0.220000          0.498481E-03
      0.225000          0.469217E-03
      0.230000          0.440923E-03
      0.235000          0.413870E-03
      0.240000          0.388376E-03
      0.245000          0.364760E-03
      0.250000          0.343264E-03
      0.255000          0.323977E-03
      0.260000          0.306802E-03
      0.265000          0.291469E-03
      0.270000          0.277611E-03
      0.275000          0.264854E-03
      0.280000          0.252904E-03
      0.285000          0.241583E-03
      0.290000          0.230819E-03
      0.295000          0.220591E-03
      0.300000          0.210879E-03
      0.305000          0.201614E-03
      0.310000          0.192682E-03
      0.315000          0.183949E-03
      0.320000          0.175309E-03
      0.325000          0.166724E-03
      0.330000          0.158239E-03
      0.335000          0.149974E-03
      0.340000          0.142082E-03
      0.345000          0.134712E-03
      0.350000          0.127977E-03
      0.355000          0.121939E-03
      0.360000          0.116612E-03
      0.365000          0.111977E-03
      0.370000          0.107997E-03
      0.375000          0.104625E-03
      0.380000          0.101811E-03
      0.385000          0.994960E-04
      0.390000          0.976144E-04
      0.395000          0.960910E-04
      0.400000          0.948428E-04
      0.405000          0.937815E-04
      0.410000          0.928185E-04
      0.415000          0.918726E-04
      0.420000          0.908789E-04
      0.425000          0.897976E-04
      0.430000          0.886184E-04
      0.435000          0.873563E-04
      0.440000          0.860415E-04
      0.445000          0.847029E-04
      0.450000          0.833560E-04
      0.455000          0.819974E-04
      0.460000          0.806101E-04
      0.465000          0.791755E-04
      0.470000          0.776856E-04
      0.475000          0.761495E-04
      0.480000          0.745916E-04
      0.485000          0.730428E-04
      0.490000          0.715299E-04
      0.495000          0.700706E-04
      0.500000          0.686750E-04
