 I_abs(s)[cm^-1]/c[mg/ml]
       0.00000          0.118966E-01
      0.500000E-02      0.116661E-01
      0.100000E-01      0.110114E-01
      0.150000E-01      0.100347E-01
      0.200000E-01      0.887812E-02
      0.250000E-01      0.769189E-02
      0.300000E-01      0.660221E-02
      0.350000E-01      0.568937E-02
      0.400000E-01      0.498023E-02
      0.450000E-01      0.445529E-02
      0.500000E-01      0.406622E-02
      0.550000E-01      0.375704E-02
      0.600000E-01      0.348206E-02
      0.650000E-01      0.321589E-02
      0.700000E-01      0.295411E-02
      0.750000E-01      0.270667E-02
      0.800000E-01      0.248793E-02
      0.850000E-01      0.230774E-02
      0.900000E-01      0.216660E-02
      0.950000E-01      0.205583E-02
      0.100000          0.196157E-02
      0.105000          0.187027E-02
      0.110000          0.177312E-02
      0.115000          0.166792E-02
      0.120000          0.155812E-02
      0.125000          0.144995E-02
      0.130000          0.134920E-02
      0.135000          0.125901E-02
      0.140000          0.117931E-02
      0.145000          0.110782E-02
      0.150000          0.104177E-02
      0.155000          0.979431E-03
      0.160000          0.920786E-03
      0.165000          0.867198E-03
      0.170000          0.820353E-03
      0.175000          0.781120E-03
      0.180000          0.748868E-03
      0.185000          0.721502E-03
      0.190000          0.696142E-03
      0.195000          0.670088E-03
      0.200000          0.641630E-03
      0.205000          0.610417E-03
      0.210000          0.577286E-03
      0.215000          0.543717E-03
      0.220000          0.511186E-03
      0.225000          0.480681E-03
      0.230000          0.452539E-03
      0.235000          0.426576E-03
      0.240000          0.402396E-03
      0.245000          0.379684E-03
      0.250000          0.358363E-03
      0.255000          0.338558E-03
      0.260000          0.320444E-03
      0.265000          0.304055E-03
      0.270000          0.289190E-03
      0.275000          0.275438E-03
      0.280000          0.262318E-03
      0.285000          0.249463E-03
      0.290000          0.236746E-03
      0.295000          0.224311E-03
      0.300000          0.212473E-03
      0.305000          0.201561E-03
      0.310000          0.191764E-03
      0.315000          0.183046E-03
      0.320000          0.175167E-03
      0.325000          0.167791E-03
      0.330000          0.160623E-03
      0.335000          0.153505E-03
      0.340000          0.146445E-03
      0.345000          0.139564E-03
      0.350000          0.133006E-03
      0.355000          0.126859E-03
      0.360000          0.121133E-03
      0.365000          0.115790E-03
      0.370000          0.110809E-03
      0.375000          0.106242E-03
      0.380000          0.102207E-03
      0.385000          0.988458E-04
      0.390000          0.962335E-04
      0.395000          0.943176E-04
      0.400000          0.928995E-04
      0.405000          0.916845E-04
      0.410000          0.903766E-04
      0.415000          0.887799E-04
      0.420000          0.868640E-04
      0.425000          0.847683E-04
      0.430000          0.827414E-04
      0.435000          0.810420E-04
      0.440000          0.798361E-04
      0.445000          0.791309E-04
      0.450000          0.787697E-04
      0.455000          0.784920E-04
      0.460000          0.780367E-04
      0.465000          0.772487E-04
      0.470000          0.761417E-04
      0.475000          0.748885E-04
      0.480000          0.737371E-04
      0.485000          0.728897E-04
      0.490000          0.723991E-04
      0.495000          0.721341E-04
      0.500000          0.718342E-04
