 I_abs(s)[cm^-1]/c[mg/ml]
       0.00000          0.117465E-01
      0.500000E-02      0.114829E-01
      0.100000E-01      0.107382E-01
      0.150000E-01      0.963865E-02
      0.200000E-01      0.835842E-02
      0.250000E-01      0.707778E-02
      0.300000E-01      0.594335E-02
      0.350000E-01      0.504202E-02
      0.400000E-01      0.439408E-02
      0.450000E-01      0.396481E-02
      0.500000E-01      0.368789E-02
      0.550000E-01      0.349164E-02
      0.600000E-01      0.331948E-02
      0.650000E-01      0.313980E-02
      0.700000E-01      0.294500E-02
      0.750000E-01      0.274299E-02
      0.800000E-01      0.254651E-02
      0.850000E-01      0.236476E-02
      0.900000E-01      0.219990E-02
      0.950000E-01      0.204817E-02
      0.100000          0.190367E-02
      0.105000          0.176219E-02
      0.110000          0.162323E-02
      0.115000          0.148967E-02
      0.120000          0.136582E-02
      0.125000          0.125514E-02
      0.130000          0.115884E-02
      0.135000          0.107581E-02
      0.140000          0.100352E-02
      0.145000          0.939320E-03
      0.150000          0.881289E-03
      0.155000          0.828398E-03
      0.160000          0.780119E-03
      0.165000          0.735884E-03
      0.170000          0.694808E-03
      0.175000          0.655857E-03
      0.180000          0.618303E-03
      0.185000          0.582150E-03
      0.190000          0.548231E-03
      0.195000          0.517873E-03
      0.200000          0.492265E-03
      0.205000          0.471853E-03
      0.210000          0.456022E-03
      0.215000          0.443244E-03
      0.220000          0.431580E-03
      0.225000          0.419328E-03
      0.230000          0.405529E-03
      0.235000          0.390143E-03
      0.240000          0.373872E-03
      0.245000          0.357750E-03
      0.250000          0.342681E-03
      0.255000          0.329124E-03
      0.260000          0.317004E-03
      0.265000          0.305834E-03
      0.270000          0.294972E-03
      0.275000          0.283875E-03
      0.280000          0.272279E-03
      0.285000          0.260242E-03
      0.290000          0.248078E-03
      0.295000          0.236216E-03
      0.300000          0.225049E-03
      0.305000          0.214815E-03
      0.310000          0.205548E-03
      0.315000          0.197087E-03
      0.320000          0.189148E-03
      0.325000          0.181423E-03
      0.330000          0.173669E-03
      0.335000          0.165768E-03
      0.340000          0.157745E-03
      0.345000          0.149739E-03
      0.350000          0.141950E-03
      0.355000          0.134576E-03
      0.360000          0.127771E-03
      0.365000          0.121623E-03
      0.370000          0.116152E-03
      0.375000          0.111326E-03
      0.380000          0.107065E-03
      0.385000          0.103256E-03
      0.390000          0.997563E-04
      0.395000          0.964126E-04
      0.400000          0.930890E-04
      0.405000          0.897047E-04
      0.410000          0.862656E-04
      0.415000          0.828718E-04
      0.420000          0.796907E-04
      0.425000          0.768985E-04
      0.430000          0.746101E-04
      0.435000          0.728269E-04
      0.440000          0.714270E-04
      0.445000          0.702045E-04
      0.450000          0.689448E-04
      0.455000          0.675026E-04
      0.460000          0.658486E-04
      0.465000          0.640662E-04
      0.470000          0.623019E-04
      0.475000          0.606941E-04
      0.480000          0.593142E-04
      0.485000          0.581436E-04
      0.490000          0.570939E-04
      0.495000          0.560524E-04
      0.500000          0.549319E-04
