 I_abs(s)[cm^-1]/c[mg/ml]
       0.00000          0.116895E-01
      0.500000E-02      0.114295E-01
      0.100000E-01      0.106952E-01
      0.150000E-01      0.961228E-02
      0.200000E-01      0.835430E-02
      0.250000E-01      0.710103E-02
      0.300000E-01      0.599849E-02
      0.350000E-01      0.513220E-02
      0.400000E-01      0.451955E-02
      0.450000E-01      0.412105E-02
      0.500000E-01      0.386426E-02
      0.550000E-01      0.367155E-02
      0.600000E-01      0.348268E-02
      0.650000E-01      0.326671E-02
      0.700000E-01      0.302186E-02
      0.750000E-01      0.276619E-02
      0.800000E-01      0.252446E-02
      0.850000E-01      0.231625E-02
      0.900000E-01      0.214927E-02
      0.950000E-01      0.201869E-02
      0.100000          0.191131E-02
      0.105000          0.181179E-02
      0.110000          0.170834E-02
      0.115000          0.159583E-02
      0.120000          0.147599E-02
      0.125000          0.135519E-02
      0.130000          0.124126E-02
      0.135000          0.114052E-02
      0.140000          0.105595E-02
      0.145000          0.986891E-03
      0.150000          0.929889E-03
      0.155000          0.880203E-03
      0.160000          0.833416E-03
      0.165000          0.786613E-03
      0.170000          0.738910E-03
      0.175000          0.691275E-03
      0.180000          0.645838E-03
      0.185000          0.604928E-03
      0.190000          0.570179E-03
      0.195000          0.541950E-03
      0.200000          0.519212E-03
      0.205000          0.499900E-03
      0.210000          0.481579E-03
      0.215000          0.462186E-03
      0.220000          0.440594E-03
      0.225000          0.416841E-03
      0.230000          0.391968E-03
      0.235000          0.367566E-03
      0.240000          0.345216E-03
      0.245000          0.326001E-03
      0.250000          0.310249E-03
      0.255000          0.297557E-03
      0.260000          0.287023E-03
      0.265000          0.277594E-03
      0.270000          0.268388E-03
      0.275000          0.258889E-03
      0.280000          0.248991E-03
      0.285000          0.238893E-03
      0.290000          0.228931E-03
      0.295000          0.219408E-03
      0.300000          0.210476E-03
      0.305000          0.202107E-03
      0.310000          0.194134E-03
      0.315000          0.186332E-03
      0.320000          0.178508E-03
      0.325000          0.170556E-03
      0.330000          0.162480E-03
      0.335000          0.154369E-03
      0.340000          0.146362E-03
      0.345000          0.138604E-03
      0.350000          0.131218E-03
      0.355000          0.124297E-03
      0.360000          0.117903E-03
      0.365000          0.112079E-03
      0.370000          0.106847E-03
      0.375000          0.102202E-03
      0.380000          0.980965E-04
      0.385000          0.944417E-04
      0.390000          0.911156E-04
      0.395000          0.879933E-04
      0.400000          0.849853E-04
      0.405000          0.820668E-04
      0.410000          0.792841E-04
      0.415000          0.767308E-04
      0.420000          0.745011E-04
      0.425000          0.726397E-04
      0.430000          0.711111E-04
      0.435000          0.698045E-04
      0.440000          0.685730E-04
      0.445000          0.672909E-04
      0.450000          0.659033E-04
      0.455000          0.644465E-04
      0.460000          0.630283E-04
      0.465000          0.617789E-04
      0.470000          0.607930E-04
      0.475000          0.600885E-04
      0.480000          0.595975E-04
      0.485000          0.591915E-04
      0.490000          0.587279E-04
      0.495000          0.580969E-04
      0.500000          0.572529E-04
