 I_abs(s)[cm^-1]/c[mg/ml]
       0.00000          0.118250E-01
      0.500000E-02      0.116020E-01
      0.100000E-01      0.109679E-01
      0.150000E-01      0.100192E-01
      0.200000E-01      0.889092E-02
      0.250000E-01      0.772582E-02
      0.300000E-01      0.664500E-02
      0.350000E-01      0.572745E-02
      0.400000E-01      0.500304E-02
      0.450000E-01      0.445883E-02
      0.500000E-01      0.405464E-02
      0.550000E-01      0.374163E-02
      0.600000E-01      0.347797E-02
      0.650000E-01      0.323751E-02
      0.700000E-01      0.301075E-02
      0.750000E-01      0.279990E-02
      0.800000E-01      0.261146E-02
      0.850000E-01      0.244972E-02
      0.900000E-01      0.231339E-02
      0.950000E-01      0.219570E-02
      0.100000          0.208713E-02
      0.105000          0.197889E-02
      0.110000          0.186564E-02
      0.115000          0.174648E-02
      0.120000          0.162422E-02
      0.125000          0.150371E-02
      0.130000          0.138979E-02
      0.135000          0.128591E-02
      0.140000          0.119345E-02
      0.145000          0.111189E-02
      0.150000          0.103945E-02
      0.155000          0.973927E-03
      0.160000          0.913386E-03
      0.165000          0.856684E-03
      0.170000          0.803610E-03
      0.175000          0.754743E-03
      0.180000          0.711036E-03
      0.185000          0.673257E-03
      0.190000          0.641465E-03
      0.195000          0.614707E-03
      0.200000          0.591075E-03
      0.205000          0.568147E-03
      0.210000          0.543667E-03
      0.215000          0.516224E-03
      0.220000          0.485665E-03
      0.225000          0.453081E-03
      0.230000          0.420358E-03
      0.235000          0.389491E-03
      0.240000          0.361928E-03
      0.245000          0.338181E-03
      0.250000          0.317853E-03
      0.255000          0.299988E-03
      0.260000          0.283589E-03
      0.265000          0.268046E-03
      0.270000          0.253319E-03
      0.275000          0.239825E-03
      0.280000          0.228118E-03
      0.285000          0.218536E-03
      0.290000          0.210965E-03
      0.295000          0.204824E-03
      0.300000          0.199234E-03
      0.305000          0.193301E-03
      0.310000          0.186392E-03
      0.315000          0.178296E-03
      0.320000          0.169243E-03
      0.325000          0.159801E-03
      0.330000          0.150684E-03
      0.335000          0.142560E-03
      0.340000          0.135887E-03
      0.345000          0.130818E-03
      0.350000          0.127188E-03
      0.355000          0.124572E-03
      0.360000          0.122413E-03
      0.365000          0.120172E-03
      0.370000          0.117474E-03
      0.375000          0.114202E-03
      0.380000          0.110499E-03
      0.385000          0.106687E-03
      0.390000          0.103130E-03
      0.395000          0.100087E-03
      0.400000          0.976232E-04
      0.405000          0.956002E-04
      0.410000          0.937580E-04
      0.415000          0.918380E-04
      0.420000          0.896974E-04
      0.425000          0.873678E-04
      0.430000          0.850350E-04
      0.435000          0.829564E-04
      0.440000          0.813546E-04
      0.445000          0.803317E-04
      0.450000          0.798365E-04
      0.455000          0.796906E-04
      0.460000          0.796553E-04
      0.465000          0.795103E-04
      0.470000          0.791119E-04
      0.475000          0.784154E-04
      0.480000          0.774600E-04
      0.485000          0.763285E-04
      0.490000          0.751037E-04
      0.495000          0.738378E-04
      0.500000          0.725438E-04
