 I_abs(s)[cm^-1]/c[mg/ml]
       0.00000          0.120045E-01
      0.500000E-02      0.117628E-01
      0.100000E-01      0.110772E-01
      0.150000E-01      0.100564E-01
      0.200000E-01      0.885190E-02
      0.250000E-01      0.762235E-02
      0.300000E-01      0.650034E-02
      0.350000E-01      0.556949E-02
      0.400000E-01      0.485734E-02
      0.450000E-01      0.434370E-02
      0.500000E-01      0.397924E-02
      0.550000E-01      0.370708E-02
      0.600000E-01      0.348015E-02
      0.650000E-01      0.327016E-02
      0.700000E-01      0.306736E-02
      0.750000E-01      0.287402E-02
      0.800000E-01      0.269575E-02
      0.850000E-01      0.253473E-02
      0.900000E-01      0.238725E-02
      0.950000E-01      0.224534E-02
      0.100000          0.210089E-02
      0.105000          0.194960E-02
      0.110000          0.179292E-02
      0.115000          0.163727E-02
      0.120000          0.149121E-02
      0.125000          0.136211E-02
      0.130000          0.125362E-02
      0.135000          0.116512E-02
      0.140000          0.109274E-02
      0.145000          0.103146E-02
      0.150000          0.977019E-03
      0.155000          0.927016E-03
      0.160000          0.880833E-03
      0.165000          0.838762E-03
      0.170000          0.800928E-03
      0.175000          0.766602E-03
      0.180000          0.734185E-03
      0.185000          0.701771E-03
      0.190000          0.667921E-03
      0.195000          0.632240E-03
      0.200000          0.595484E-03
      0.205000          0.559193E-03
      0.210000          0.525058E-03
      0.215000          0.494307E-03
      0.220000          0.467354E-03
      0.225000          0.443809E-03
      0.230000          0.422757E-03
      0.235000          0.403152E-03
      0.240000          0.384141E-03
      0.245000          0.365225E-03
      0.250000          0.346245E-03
      0.255000          0.327271E-03
      0.260000          0.308474E-03
      0.265000          0.290052E-03
      0.270000          0.272216E-03
      0.275000          0.255204E-03
      0.280000          0.239287E-03
      0.285000          0.224738E-03
      0.290000          0.211764E-03
      0.295000          0.200440E-03
      0.300000          0.190669E-03
      0.305000          0.182192E-03
      0.310000          0.174648E-03
      0.315000          0.167660E-03
      0.320000          0.160918E-03
      0.325000          0.154229E-03
      0.330000          0.147544E-03
      0.335000          0.140932E-03
      0.340000          0.134537E-03
      0.345000          0.128528E-03
      0.350000          0.123048E-03
      0.355000          0.118189E-03
      0.360000          0.113978E-03
      0.365000          0.110387E-03
      0.370000          0.107345E-03
      0.375000          0.104750E-03
      0.380000          0.102472E-03
      0.385000          0.100362E-03
      0.390000          0.982560E-04
      0.395000          0.960036E-04
      0.400000          0.935051E-04
      0.405000          0.907469E-04
      0.410000          0.878180E-04
      0.415000          0.848951E-04
      0.420000          0.821938E-04
      0.425000          0.799030E-04
      0.430000          0.781254E-04
      0.435000          0.768468E-04
      0.440000          0.759466E-04
      0.445000          0.752431E-04
      0.450000          0.745563E-04
      0.455000          0.737617E-04
      0.460000          0.728164E-04
      0.465000          0.717494E-04
      0.470000          0.706262E-04
      0.475000          0.695075E-04
      0.480000          0.684245E-04
      0.485000          0.673810E-04
      0.490000          0.663797E-04
      0.495000          0.654511E-04
      0.500000          0.646641E-04
