 I_abs(s)[cm^-1]/c[mg/ml]
       0.00000          0.121128E-01
      0.500000E-02      0.118940E-01
      0.100000E-01      0.112690E-01
      0.150000E-01      0.103256E-01
      0.200000E-01      0.918792E-02
      0.250000E-01      0.799128E-02
      0.300000E-01      0.685561E-02
      0.350000E-01      0.586618E-02
      0.400000E-01      0.506470E-02
      0.450000E-01      0.445172E-02
      0.500000E-01      0.399796E-02
      0.550000E-01      0.365978E-02
      0.600000E-01      0.339398E-02
      0.650000E-01      0.316783E-02
      0.700000E-01      0.296289E-02
      0.750000E-01      0.277309E-02
      0.800000E-01      0.259941E-02
      0.850000E-01      0.244400E-02
      0.900000E-01      0.230610E-02
      0.950000E-01      0.218081E-02
      0.100000          0.206054E-02
      0.105000          0.193784E-02
      0.110000          0.180816E-02
      0.115000          0.167131E-02
      0.120000          0.153123E-02
      0.125000          0.139438E-02
      0.130000          0.126754E-02
      0.135000          0.115586E-02
      0.140000          0.106179E-02
      0.145000          0.985052E-03
      0.150000          0.923355E-03
      0.155000          0.873421E-03
      0.160000          0.831914E-03
      0.165000          0.795999E-03
      0.170000          0.763525E-03
      0.175000          0.732955E-03
      0.180000          0.703240E-03
      0.185000          0.673744E-03
      0.190000          0.644241E-03
      0.195000          0.614905E-03
      0.200000          0.586244E-03
      0.205000          0.558916E-03
      0.210000          0.533482E-03
      0.215000          0.510189E-03
      0.220000          0.488861E-03
      0.225000          0.468959E-03
      0.230000          0.449778E-03
      0.235000          0.430692E-03
      0.240000          0.411359E-03
      0.245000          0.391798E-03
      0.250000          0.372326E-03
      0.255000          0.353400E-03
      0.260000          0.335426E-03
      0.265000          0.318631E-03
      0.270000          0.303025E-03
      0.275000          0.288452E-03
      0.280000          0.274698E-03
      0.285000          0.261600E-03
      0.290000          0.249096E-03
      0.295000          0.237226E-03
      0.300000          0.226071E-03
      0.305000          0.215678E-03
      0.310000          0.206009E-03
      0.315000          0.196928E-03
      0.320000          0.188237E-03
      0.325000          0.179742E-03
      0.330000          0.171319E-03
      0.335000          0.162959E-03
      0.340000          0.154764E-03
      0.345000          0.146912E-03
      0.350000          0.139593E-03
      0.355000          0.132941E-03
      0.360000          0.127002E-03
      0.365000          0.121731E-03
      0.370000          0.117026E-03
      0.375000          0.112786E-03
      0.380000          0.108956E-03
      0.385000          0.105550E-03
      0.390000          0.102629E-03
      0.395000          0.100264E-03
      0.400000          0.984699E-04
      0.405000          0.971749E-04
      0.410000          0.962110E-04
      0.415000          0.953519E-04
      0.420000          0.943756E-04
      0.425000          0.931307E-04
      0.430000          0.915821E-04
      0.435000          0.898170E-04
      0.440000          0.880120E-04
      0.445000          0.863715E-04
      0.450000          0.850595E-04
      0.455000          0.841460E-04
      0.460000          0.835846E-04
      0.465000          0.832238E-04
      0.470000          0.828496E-04
      0.475000          0.822430E-04
      0.480000          0.812391E-04
      0.485000          0.797683E-04
      0.490000          0.778722E-04
      0.495000          0.756886E-04
      0.500000          0.734112E-04
