 I_abs(s)[cm^-1]/c[mg/ml]
       0.00000          0.123309E-01
      0.500000E-02      0.121516E-01
      0.100000E-01      0.116368E-01
      0.150000E-01      0.108509E-01
      0.200000E-01      0.988602E-02
      0.250000E-01      0.884394E-02
      0.300000E-01      0.781736E-02
      0.350000E-01      0.687573E-02
      0.400000E-01      0.605816E-02
      0.450000E-01      0.537423E-02
      0.500000E-01      0.481115E-02
      0.550000E-01      0.434421E-02
      0.600000E-01      0.394705E-02
      0.650000E-01      0.359910E-02
      0.700000E-01      0.328867E-02
      0.750000E-01      0.301205E-02
      0.800000E-01      0.277004E-02
      0.850000E-01      0.256381E-02
      0.900000E-01      0.239178E-02
      0.950000E-01      0.224859E-02
      0.100000          0.212596E-02
      0.105000          0.201479E-02
      0.110000          0.190743E-02
      0.115000          0.179924E-02
      0.120000          0.168896E-02
      0.125000          0.157797E-02
      0.130000          0.146899E-02
      0.135000          0.136479E-02
      0.140000          0.126728E-02
      0.145000          0.117732E-02
      0.150000          0.109498E-02
      0.155000          0.101999E-02
      0.160000          0.952146E-03
      0.165000          0.891408E-03
      0.170000          0.837716E-03
      0.175000          0.790720E-03
      0.180000          0.749563E-03
      0.185000          0.712872E-03
      0.190000          0.678986E-03
      0.195000          0.646328E-03
      0.200000          0.613764E-03
      0.205000          0.580817E-03
      0.210000          0.547668E-03
      0.215000          0.514957E-03
      0.220000          0.483480E-03
      0.225000          0.453906E-03
      0.230000          0.426599E-03
      0.235000          0.401583E-03
      0.240000          0.378634E-03
      0.245000          0.357423E-03
      0.250000          0.337656E-03
      0.255000          0.319145E-03
      0.260000          0.301817E-03
      0.265000          0.285660E-03
      0.270000          0.270657E-03
      0.275000          0.256735E-03
      0.280000          0.243752E-03
      0.285000          0.231523E-03
      0.290000          0.219869E-03
      0.295000          0.208669E-03
      0.300000          0.197883E-03
      0.305000          0.187567E-03
      0.310000          0.177840E-03
      0.315000          0.168854E-03
      0.320000          0.160749E-03
      0.325000          0.153620E-03
      0.330000          0.147500E-03
      0.335000          0.142351E-03
      0.340000          0.138076E-03
      0.345000          0.134531E-03
      0.350000          0.131547E-03
      0.355000          0.128948E-03
      0.360000          0.126574E-03
      0.365000          0.124298E-03
      0.370000          0.122039E-03
      0.375000          0.119764E-03
      0.380000          0.117482E-03
      0.385000          0.115226E-03
      0.390000          0.113037E-03
      0.395000          0.110935E-03
      0.400000          0.108920E-03
      0.405000          0.106964E-03
      0.410000          0.105031E-03
      0.415000          0.103093E-03
      0.420000          0.101144E-03
      0.425000          0.992089E-04
      0.430000          0.973368E-04
      0.435000          0.955844E-04
      0.440000          0.939985E-04
      0.445000          0.925997E-04
      0.450000          0.913750E-04
      0.455000          0.902805E-04
      0.460000          0.892532E-04
      0.465000          0.882277E-04
      0.470000          0.871525E-04
      0.475000          0.860012E-04
      0.480000          0.847754E-04
      0.485000          0.834971E-04
      0.490000          0.821947E-04
      0.495000          0.808863E-04
      0.500000          0.795674E-04
