 I_abs(s)[cm^-1]/c[mg/ml]
       0.00000          0.124554E-01
      0.500000E-02      0.122495E-01
      0.100000E-01      0.116601E-01
      0.150000E-01      0.107652E-01
      0.200000E-01      0.967614E-02
      0.250000E-01      0.851533E-02
      0.300000E-01      0.739305E-02
      0.350000E-01      0.639025E-02
      0.400000E-01      0.555011E-02
      0.450000E-01      0.487934E-02
      0.500000E-01      0.435723E-02
      0.550000E-01      0.394874E-02
      0.600000E-01      0.361719E-02
      0.650000E-01      0.333349E-02
      0.700000E-01      0.307996E-02
      0.750000E-01      0.284944E-02
      0.800000E-01      0.264116E-02
      0.850000E-01      0.245598E-02
      0.900000E-01      0.229281E-02
      0.950000E-01      0.214730E-02
      0.100000          0.201278E-02
      0.105000          0.188244E-02
      0.110000          0.175156E-02
      0.115000          0.161884E-02
      0.120000          0.148636E-02
      0.125000          0.135838E-02
      0.130000          0.123960E-02
      0.135000          0.113358E-02
      0.140000          0.104190E-02
      0.145000          0.964120E-03
      0.150000          0.898423E-03
      0.155000          0.842502E-03
      0.160000          0.794328E-03
      0.165000          0.752541E-03
      0.170000          0.716415E-03
      0.175000          0.685553E-03
      0.180000          0.659503E-03
      0.185000          0.637492E-03
      0.190000          0.618375E-03
      0.195000          0.600771E-03
      0.200000          0.583316E-03
      0.205000          0.564909E-03
      0.210000          0.544881E-03
      0.215000          0.523051E-03
      0.220000          0.499672E-03
      0.225000          0.475318E-03
      0.230000          0.450733E-03
      0.235000          0.426693E-03
      0.240000          0.403888E-03
      0.245000          0.382823E-03
      0.250000          0.363765E-03
      0.255000          0.346725E-03
      0.260000          0.331479E-03
      0.265000          0.317632E-03
      0.270000          0.304712E-03
      0.275000          0.292270E-03
      0.280000          0.279969E-03
      0.285000          0.267645E-03
      0.290000          0.255316E-03
      0.295000          0.243156E-03
      0.300000          0.231431E-03
      0.305000          0.220420E-03
      0.310000          0.210339E-03
      0.315000          0.201291E-03
      0.320000          0.193244E-03
      0.325000          0.186053E-03
      0.330000          0.179497E-03
      0.335000          0.173344E-03
      0.340000          0.167393E-03
      0.345000          0.161515E-03
      0.350000          0.155656E-03
      0.355000          0.149823E-03
      0.360000          0.144064E-03
      0.365000          0.138437E-03
      0.370000          0.133000E-03
      0.375000          0.127803E-03
      0.380000          0.122890E-03
      0.385000          0.118307E-03
      0.390000          0.114101E-03
      0.395000          0.110313E-03
      0.400000          0.106975E-03
      0.405000          0.104092E-03
      0.410000          0.101642E-03
      0.415000          0.995686E-04
      0.420000          0.977878E-04
      0.425000          0.961909E-04
      0.430000          0.946552E-04
      0.435000          0.930564E-04
      0.440000          0.912850E-04
      0.445000          0.892661E-04
      0.450000          0.869778E-04
      0.455000          0.844639E-04
      0.460000          0.818344E-04
      0.465000          0.792490E-04
      0.470000          0.768851E-04
      0.475000          0.748961E-04
      0.480000          0.733711E-04
      0.485000          0.723090E-04
      0.490000          0.716152E-04
      0.495000          0.711241E-04
      0.500000          0.706409E-04
