 I_abs(s)[cm^-1]/c[mg/ml]
       0.00000          0.120622E-01
      0.500000E-02      0.118615E-01
      0.100000E-01      0.112890E-01
      0.150000E-01      0.104262E-01
      0.200000E-01      0.938765E-02
      0.250000E-01      0.829616E-02
      0.300000E-01      0.725803E-02
      0.350000E-01      0.634591E-02
      0.400000E-01      0.559225E-02
      0.450000E-01      0.499357E-02
      0.500000E-01      0.452239E-02
      0.550000E-01      0.414199E-02
      0.600000E-01      0.381904E-02
      0.650000E-01      0.353109E-02
      0.700000E-01      0.326792E-02
      0.750000E-01      0.302830E-02
      0.800000E-01      0.281466E-02
      0.850000E-01      0.262835E-02
      0.900000E-01      0.246718E-02
      0.950000E-01      0.232552E-02
      0.100000          0.219624E-02
      0.105000          0.207311E-02
      0.110000          0.195250E-02
      0.115000          0.183372E-02
      0.120000          0.171828E-02
      0.125000          0.160848E-02
      0.130000          0.150619E-02
      0.135000          0.141213E-02
      0.140000          0.132590E-02
      0.145000          0.124641E-02
      0.150000          0.117247E-02
      0.155000          0.110310E-02
      0.160000          0.103767E-02
      0.165000          0.975761E-03
      0.170000          0.917042E-03
      0.175000          0.861210E-03
      0.180000          0.808052E-03
      0.185000          0.757566E-03
      0.190000          0.710021E-03
      0.195000          0.665894E-03
      0.200000          0.625693E-03
      0.205000          0.589716E-03
      0.210000          0.557878E-03
      0.215000          0.529651E-03
      0.220000          0.504167E-03
      0.225000          0.480406E-03
      0.230000          0.457426E-03
      0.235000          0.434536E-03
      0.240000          0.411385E-03
      0.245000          0.387948E-03
      0.250000          0.364453E-03
      0.255000          0.341270E-03
      0.260000          0.318797E-03
      0.265000          0.297376E-03
      0.270000          0.277243E-03
      0.275000          0.258504E-03
      0.280000          0.241157E-03
      0.285000          0.225124E-03
      0.290000          0.210297E-03
      0.295000          0.196581E-03
      0.300000          0.183918E-03
      0.305000          0.172284E-03
      0.310000          0.161678E-03
      0.315000          0.152104E-03
      0.320000          0.143560E-03
      0.325000          0.136038E-03
      0.330000          0.129530E-03
      0.335000          0.124025E-03
      0.340000          0.119499E-03
      0.345000          0.115888E-03
      0.350000          0.113058E-03
      0.355000          0.110801E-03
      0.360000          0.108843E-03
      0.365000          0.106890E-03
      0.370000          0.104687E-03
      0.375000          0.102072E-03
      0.380000          0.990059E-04
      0.385000          0.955683E-04
      0.390000          0.919236E-04
      0.395000          0.882690E-04
      0.400000          0.847859E-04
      0.405000          0.816070E-04
      0.410000          0.788058E-04
      0.415000          0.764028E-04
      0.420000          0.743812E-04
      0.425000          0.727007E-04
      0.430000          0.713099E-04
      0.435000          0.701542E-04
      0.440000          0.691857E-04
      0.445000          0.683719E-04
      0.450000          0.677022E-04
      0.455000          0.671847E-04
      0.460000          0.668312E-04
      0.465000          0.666359E-04
      0.470000          0.665586E-04
      0.475000          0.665237E-04
      0.480000          0.664426E-04
      0.485000          0.662509E-04
      0.490000          0.659435E-04
      0.495000          0.655885E-04
      0.500000          0.653072E-04
