 I_abs(s)[cm^-1]/c[mg/ml]
       0.00000          0.119685E-01
      0.500000E-02      0.117378E-01
      0.100000E-01      0.110820E-01
      0.150000E-01      0.101006E-01
      0.200000E-01      0.893386E-02
      0.250000E-01      0.773144E-02
      0.300000E-01      0.662204E-02
      0.350000E-01      0.569113E-02
      0.400000E-01      0.497213E-02
      0.450000E-01      0.445141E-02
      0.500000E-01      0.408376E-02
      0.550000E-01      0.381242E-02
      0.600000E-01      0.358702E-02
      0.650000E-01      0.337478E-02
      0.700000E-01      0.316316E-02
      0.750000E-01      0.295501E-02
      0.800000E-01      0.275987E-02
      0.850000E-01      0.258541E-02
      0.900000E-01      0.243217E-02
      0.950000E-01      0.229314E-02
      0.100000          0.215722E-02
      0.105000          0.201451E-02
      0.110000          0.186096E-02
      0.115000          0.170028E-02
      0.120000          0.154259E-02
      0.125000          0.140068E-02
      0.130000          0.128529E-02
      0.135000          0.120148E-02
      0.140000          0.114715E-02
      0.145000          0.111412E-02
      0.150000          0.109101E-02
      0.155000          0.106682E-02
      0.160000          0.103383E-02
      0.165000          0.988969E-03
      0.170000          0.933565E-03
      0.175000          0.871764E-03
      0.180000          0.808514E-03
      0.185000          0.747853E-03
      0.190000          0.692023E-03
      0.195000          0.641503E-03
      0.200000          0.595686E-03
      0.205000          0.553755E-03
      0.210000          0.515322E-03
      0.215000          0.480615E-03
      0.220000          0.450217E-03
      0.225000          0.424570E-03
      0.230000          0.403532E-03
      0.235000          0.386181E-03
      0.240000          0.370983E-03
      0.245000          0.356208E-03
      0.250000          0.340443E-03
      0.255000          0.322982E-03
      0.260000          0.303969E-03
      0.265000          0.284253E-03
      0.270000          0.265042E-03
      0.275000          0.247481E-03
      0.280000          0.232326E-03
      0.285000          0.219776E-03
      0.290000          0.209527E-03
      0.295000          0.200957E-03
      0.300000          0.193379E-03
      0.305000          0.186241E-03
      0.310000          0.179230E-03
      0.315000          0.172259E-03
      0.320000          0.165371E-03
      0.325000          0.158637E-03
      0.330000          0.152079E-03
      0.335000          0.145663E-03
      0.340000          0.139348E-03
      0.345000          0.133150E-03
      0.350000          0.127180E-03
      0.355000          0.121635E-03
      0.360000          0.116735E-03
      0.365000          0.112640E-03
      0.370000          0.109377E-03
      0.375000          0.106822E-03
      0.380000          0.104733E-03
      0.385000          0.102830E-03
      0.390000          0.100871E-03
      0.395000          0.987189E-04
      0.400000          0.963441E-04
      0.405000          0.938010E-04
      0.410000          0.911758E-04
      0.415000          0.885438E-04
      0.420000          0.859542E-04
      0.425000          0.834430E-04
      0.430000          0.810623E-04
      0.435000          0.789023E-04
      0.440000          0.770884E-04
      0.445000          0.757497E-04
      0.450000          0.749679E-04
      0.455000          0.747302E-04
      0.460000          0.749069E-04
      0.465000          0.752681E-04
      0.470000          0.755366E-04
      0.475000          0.754608E-04
      0.480000          0.748826E-04
      0.485000          0.737759E-04
      0.490000          0.722437E-04
      0.495000          0.704751E-04
      0.500000          0.686788E-04
