 I_abs(s)[cm^-1]/c[mg/ml]
       0.00000          0.122580E-01
      0.500000E-02      0.120438E-01
      0.100000E-01      0.114322E-01
      0.150000E-01      0.105084E-01
      0.200000E-01      0.939292E-02
      0.250000E-01      0.821616E-02
      0.300000E-01      0.709260E-02
      0.350000E-01      0.610258E-02
      0.400000E-01      0.528452E-02
      0.450000E-01      0.463831E-02
      0.500000E-01      0.413693E-02
      0.550000E-01      0.374163E-02
      0.600000E-01      0.341559E-02
      0.650000E-01      0.313260E-02
      0.700000E-01      0.287961E-02
      0.750000E-01      0.265398E-02
      0.800000E-01      0.245811E-02
      0.850000E-01      0.229393E-02
      0.900000E-01      0.215955E-02
      0.950000E-01      0.204859E-02
      0.100000          0.195181E-02
      0.105000          0.185985E-02
      0.110000          0.176562E-02
      0.115000          0.166568E-02
      0.120000          0.156012E-02
      0.125000          0.145156E-02
      0.130000          0.134372E-02
      0.135000          0.124023E-02
      0.140000          0.114395E-02
      0.145000          0.105681E-02
      0.150000          0.979937E-03
      0.155000          0.913828E-03
      0.160000          0.858413E-03
      0.165000          0.813010E-03
      0.170000          0.776254E-03
      0.175000          0.746154E-03
      0.180000          0.720319E-03
      0.185000          0.696330E-03
      0.190000          0.672152E-03
      0.195000          0.646447E-03
      0.200000          0.618703E-03
      0.205000          0.589158E-03
      0.210000          0.558575E-03
      0.215000          0.527946E-03
      0.220000          0.498226E-03
      0.225000          0.470157E-03
      0.230000          0.444199E-03
      0.235000          0.420536E-03
      0.240000          0.399149E-03
      0.245000          0.379885E-03
      0.250000          0.362523E-03
      0.255000          0.346805E-03
      0.260000          0.332449E-03
      0.265000          0.319157E-03
      0.270000          0.306615E-03
      0.275000          0.294514E-03
      0.280000          0.282574E-03
      0.285000          0.270574E-03
      0.290000          0.258388E-03
      0.295000          0.245988E-03
      0.300000          0.233444E-03
      0.305000          0.220896E-03
      0.310000          0.208519E-03
      0.315000          0.196486E-03
      0.320000          0.184950E-03
      0.325000          0.174026E-03
      0.330000          0.163803E-03
      0.335000          0.154344E-03
      0.340000          0.145701E-03
      0.345000          0.137912E-03
      0.350000          0.131000E-03
      0.355000          0.124964E-03
      0.360000          0.119774E-03
      0.365000          0.115365E-03
      0.370000          0.111637E-03
      0.375000          0.108462E-03
      0.380000          0.105694E-03
      0.385000          0.103180E-03
      0.390000          0.100778E-03
      0.395000          0.983756E-04
      0.400000          0.959069E-04
      0.405000          0.933600E-04
      0.410000          0.907762E-04
      0.415000          0.882352E-04
      0.420000          0.858311E-04
      0.425000          0.836461E-04
      0.430000          0.817290E-04
      0.435000          0.800883E-04
      0.440000          0.786983E-04
      0.445000          0.775176E-04
      0.450000          0.765091E-04
      0.455000          0.756517E-04
      0.460000          0.749398E-04
      0.465000          0.743688E-04
      0.470000          0.739169E-04
      0.475000          0.735325E-04
      0.480000          0.731349E-04
      0.485000          0.726311E-04
      0.490000          0.719413E-04
      0.495000          0.710229E-04
      0.500000          0.698820E-04
