 I_abs(s)[cm^-1]/c[mg/ml]
       0.00000          0.121853E-01
      0.500000E-02      0.119523E-01
      0.100000E-01      0.112879E-01
      0.150000E-01      0.102881E-01
      0.200000E-01      0.908903E-02
      0.250000E-01      0.783779E-02
      0.300000E-01      0.666362E-02
      0.350000E-01      0.565635E-02
      0.400000E-01      0.485688E-02
      0.450000E-01      0.426045E-02
      0.500000E-01      0.382989E-02
      0.550000E-01      0.351373E-02
      0.600000E-01      0.326317E-02
      0.650000E-01      0.304348E-02
      0.700000E-01      0.283777E-02
      0.750000E-01      0.264398E-02
      0.800000E-01      0.246767E-02
      0.850000E-01      0.231435E-02
      0.900000E-01      0.218424E-02
      0.950000E-01      0.207084E-02
      0.100000          0.196323E-02
      0.105000          0.185031E-02
      0.110000          0.172493E-02
      0.115000          0.158630E-02
      0.120000          0.143983E-02
      0.125000          0.129480E-02
      0.130000          0.116105E-02
      0.135000          0.104594E-02
      0.140000          0.952690E-03
      0.145000          0.880344E-03
      0.150000          0.825062E-03
      0.155000          0.781959E-03
      0.160000          0.746694E-03
      0.165000          0.716281E-03
      0.170000          0.689050E-03
      0.175000          0.664050E-03
      0.180000          0.640373E-03
      0.185000          0.616789E-03
      0.190000          0.591867E-03
      0.195000          0.564446E-03
      0.200000          0.534187E-03
      0.205000          0.501864E-03
      0.210000          0.469245E-03
      0.215000          0.438572E-03
      0.220000          0.411842E-03
      0.225000          0.390194E-03
      0.230000          0.373598E-03
      0.235000          0.360962E-03
      0.240000          0.350571E-03
      0.245000          0.340654E-03
      0.250000          0.329896E-03
      0.255000          0.317701E-03
      0.260000          0.304186E-03
      0.265000          0.289962E-03
      0.270000          0.275817E-03
      0.275000          0.262452E-03
      0.280000          0.250326E-03
      0.285000          0.239633E-03
      0.290000          0.230373E-03
      0.295000          0.222437E-03
      0.300000          0.215674E-03
      0.305000          0.209902E-03
      0.310000          0.204899E-03
      0.315000          0.200390E-03
      0.320000          0.196053E-03
      0.325000          0.191564E-03
      0.330000          0.186643E-03
      0.335000          0.181111E-03
      0.340000          0.174909E-03
      0.345000          0.168104E-03
      0.350000          0.160862E-03
      0.355000          0.153421E-03
      0.360000          0.146051E-03
      0.365000          0.139016E-03
      0.370000          0.132541E-03
      0.375000          0.126768E-03
      0.380000          0.121742E-03
      0.385000          0.117400E-03
      0.390000          0.113598E-03
      0.395000          0.110151E-03
      0.400000          0.106880E-03
      0.405000          0.103649E-03
      0.410000          0.100379E-03
      0.415000          0.970463E-04
      0.420000          0.936675E-04
      0.425000          0.902829E-04
      0.430000          0.869469E-04
      0.435000          0.837214E-04
      0.440000          0.806699E-04
      0.445000          0.778484E-04
      0.450000          0.752966E-04
      0.455000          0.730343E-04
      0.460000          0.710656E-04
      0.465000          0.693894E-04
      0.470000          0.680094E-04
      0.475000          0.669360E-04
      0.480000          0.661772E-04
      0.485000          0.657243E-04
      0.490000          0.655386E-04
      0.495000          0.655465E-04
      0.500000          0.656463E-04
