 I_abs(s)[cm^-1]/c[mg/ml]
       0.00000          0.120766E-01
      0.500000E-02      0.118562E-01
      0.100000E-01      0.112292E-01
      0.150000E-01      0.102894E-01
      0.200000E-01      0.916781E-02
      0.250000E-01      0.800282E-02
      0.300000E-01      0.691166E-02
      0.350000E-01      0.597136E-02
      0.400000E-01      0.521267E-02
      0.450000E-01      0.462663E-02
      0.500000E-01      0.417927E-02
      0.550000E-01      0.382849E-02
      0.600000E-01      0.353755E-02
      0.650000E-01      0.328203E-02
      0.700000E-01      0.305023E-02
      0.750000E-01      0.283901E-02
      0.800000E-01      0.264839E-02
      0.850000E-01      0.247741E-02
      0.900000E-01      0.232265E-02
      0.950000E-01      0.217906E-02
      0.100000          0.204191E-02
      0.105000          0.190850E-02
      0.110000          0.177874E-02
      0.115000          0.165448E-02
      0.120000          0.153825E-02
      0.125000          0.143194E-02
      0.130000          0.133618E-02
      0.135000          0.125029E-02
      0.140000          0.117288E-02
      0.145000          0.110236E-02
      0.150000          0.103744E-02
      0.155000          0.977232E-03
      0.160000          0.921189E-03
      0.165000          0.868951E-03
      0.170000          0.820260E-03
      0.175000          0.774919E-03
      0.180000          0.732789E-03
      0.185000          0.693739E-03
      0.190000          0.657561E-03
      0.195000          0.623896E-03
      0.200000          0.592220E-03
      0.205000          0.561919E-03
      0.210000          0.532436E-03
      0.215000          0.503415E-03
      0.220000          0.474769E-03
      0.225000          0.446661E-03
      0.230000          0.419403E-03
      0.235000          0.393345E-03
      0.240000          0.368787E-03
      0.245000          0.345944E-03
      0.250000          0.324943E-03
      0.255000          0.305827E-03
      0.260000          0.288530E-03
      0.265000          0.272863E-03
      0.270000          0.258512E-03
      0.275000          0.245090E-03
      0.280000          0.232238E-03
      0.285000          0.219737E-03
      0.290000          0.207573E-03
      0.295000          0.195941E-03
      0.300000          0.185150E-03
      0.305000          0.175499E-03
      0.310000          0.167169E-03
      0.315000          0.160174E-03
      0.320000          0.154389E-03
      0.325000          0.149626E-03
      0.330000          0.145707E-03
      0.335000          0.142506E-03
      0.340000          0.139934E-03
      0.345000          0.137903E-03
      0.350000          0.136287E-03
      0.355000          0.134913E-03
      0.360000          0.133597E-03
      0.365000          0.132179E-03
      0.370000          0.130563E-03
      0.375000          0.128718E-03
      0.380000          0.126653E-03
      0.385000          0.124380E-03
      0.390000          0.121893E-03
      0.395000          0.119171E-03
      0.400000          0.116210E-03
      0.405000          0.113048E-03
      0.410000          0.109779E-03
      0.415000          0.106532E-03
      0.420000          0.103427E-03
      0.425000          0.100527E-03
      0.430000          0.978135E-04
      0.435000          0.952029E-04
      0.440000          0.925883E-04
      0.445000          0.898929E-04
      0.450000          0.871062E-04
      0.455000          0.842853E-04
      0.460000          0.815252E-04
      0.465000          0.789150E-04
      0.470000          0.765028E-04
      0.475000          0.742881E-04
      0.480000          0.722385E-04
      0.485000          0.703196E-04
      0.490000          0.685181E-04
      0.495000          0.668453E-04
      0.500000          0.653222E-04
