 I_abs(s)[cm^-1]/c[mg/ml]
       0.00000          0.122143E-01
      0.500000E-02      0.120238E-01
      0.100000E-01      0.114771E-01
      0.150000E-01      0.106433E-01
      0.200000E-01      0.962148E-02
      0.250000E-01      0.852153E-02
      0.300000E-01      0.744416E-02
      0.350000E-01      0.646556E-02
      0.400000E-01      0.562952E-02
      0.450000E-01      0.494781E-02
      0.500000E-01      0.440738E-02
      0.550000E-01      0.398116E-02
      0.600000E-01      0.363894E-02
      0.650000E-01      0.335540E-02
      0.700000E-01      0.311388E-02
      0.750000E-01      0.290583E-02
      0.800000E-01      0.272773E-02
      0.850000E-01      0.257710E-02
      0.900000E-01      0.244960E-02
      0.950000E-01      0.233806E-02
      0.100000          0.223346E-02
      0.105000          0.212710E-02
      0.110000          0.201281E-02
      0.115000          0.188833E-02
      0.120000          0.175540E-02
      0.125000          0.161864E-02
      0.130000          0.148386E-02
      0.135000          0.135639E-02
      0.140000          0.124000E-02
      0.145000          0.113654E-02
      0.150000          0.104625E-02
      0.155000          0.968379E-03
      0.160000          0.901776E-03
      0.165000          0.845170E-03
      0.170000          0.797239E-03
      0.175000          0.756486E-03
      0.180000          0.721169E-03
      0.185000          0.689372E-03
      0.190000          0.659257E-03
      0.195000          0.629392E-03
      0.200000          0.599001E-03
      0.205000          0.568040E-03
      0.210000          0.537053E-03
      0.215000          0.506864E-03
      0.220000          0.478243E-03
      0.225000          0.451658E-03
      0.230000          0.427187E-03
      0.235000          0.404603E-03
      0.240000          0.383538E-03
      0.245000          0.363672E-03
      0.250000          0.344830E-03
      0.255000          0.327001E-03
      0.260000          0.310265E-03
      0.265000          0.294694E-03
      0.270000          0.280282E-03
      0.275000          0.266930E-03
      0.280000          0.254480E-03
      0.285000          0.242773E-03
      0.290000          0.231702E-03
      0.295000          0.221229E-03
      0.300000          0.211365E-03
      0.305000          0.202139E-03
      0.310000          0.193557E-03
      0.315000          0.185594E-03
      0.320000          0.178202E-03
      0.325000          0.171330E-03
      0.330000          0.164946E-03
      0.335000          0.159039E-03
      0.340000          0.153605E-03
      0.345000          0.148626E-03
      0.350000          0.144047E-03
      0.355000          0.139776E-03
      0.360000          0.135703E-03
      0.365000          0.131731E-03
      0.370000          0.127811E-03
      0.375000          0.123956E-03
      0.380000          0.120233E-03
      0.385000          0.116737E-03
      0.390000          0.113552E-03
      0.395000          0.110716E-03
      0.400000          0.108213E-03
      0.405000          0.105989E-03
      0.410000          0.103982E-03
      0.415000          0.102158E-03
      0.420000          0.100521E-03
      0.425000          0.991096E-04
      0.430000          0.979600E-04
      0.435000          0.970657E-04
      0.440000          0.963529E-04
      0.445000          0.956839E-04
      0.450000          0.948925E-04
      0.455000          0.938380E-04
      0.460000          0.924522E-04
      0.465000          0.907611E-04
      0.470000          0.888691E-04
      0.475000          0.869150E-04
      0.480000          0.850187E-04
      0.485000          0.832443E-04
      0.490000          0.815923E-04
      0.495000          0.800228E-04
      0.500000          0.784933E-04
