 I_abs(s)[cm^-1]/c[mg/ml]
       0.00000          0.122798E-01
      0.500000E-02      0.120703E-01
      0.100000E-01      0.114730E-01
      0.150000E-01      0.105738E-01
      0.200000E-01      0.949367E-02
      0.250000E-01      0.836159E-02
      0.300000E-01      0.728837E-02
      0.350000E-01      0.634831E-02
      0.400000E-01      0.557221E-02
      0.450000E-01      0.495235E-02
      0.500000E-01      0.445597E-02
      0.550000E-01      0.404199E-02
      0.600000E-01      0.367549E-02
      0.650000E-01      0.333618E-02
      0.700000E-01      0.301966E-02
      0.750000E-01      0.273278E-02
      0.800000E-01      0.248617E-02
      0.850000E-01      0.228717E-02
      0.900000E-01      0.213555E-02
      0.950000E-01      0.202310E-02
      0.100000          0.193627E-02
      0.105000          0.186037E-02
      0.110000          0.178351E-02
      0.115000          0.169901E-02
      0.120000          0.160570E-02
      0.125000          0.150658E-02
      0.130000          0.140660E-02
      0.135000          0.131050E-02
      0.140000          0.122140E-02
      0.145000          0.114030E-02
      0.150000          0.106649E-02
      0.155000          0.998326E-03
      0.160000          0.934120E-03
      0.165000          0.872780E-03
      0.170000          0.814045E-03
      0.175000          0.758381E-03
      0.180000          0.706639E-03
      0.185000          0.659648E-03
      0.190000          0.617875E-03
      0.195000          0.581250E-03
      0.200000          0.549180E-03
      0.205000          0.520719E-03
      0.210000          0.494823E-03
      0.215000          0.470593E-03
      0.220000          0.447445E-03
      0.225000          0.425143E-03
      0.230000          0.403729E-03
      0.235000          0.383371E-03
      0.240000          0.364214E-03
      0.245000          0.346274E-03
      0.250000          0.329412E-03
      0.255000          0.313372E-03
      0.260000          0.297856E-03
      0.265000          0.282606E-03
      0.270000          0.267459E-03
      0.275000          0.252368E-03
      0.280000          0.237413E-03
      0.285000          0.222779E-03
      0.290000          0.208729E-03
      0.295000          0.195563E-03
      0.300000          0.183561E-03
      0.305000          0.172916E-03
      0.310000          0.163689E-03
      0.315000          0.155785E-03
      0.320000          0.148987E-03
      0.325000          0.143016E-03
      0.330000          0.137616E-03
      0.335000          0.132615E-03
      0.340000          0.127945E-03
      0.345000          0.123616E-03
      0.350000          0.119657E-03
      0.355000          0.116069E-03
      0.360000          0.112796E-03
      0.365000          0.109743E-03
      0.370000          0.106815E-03
      0.375000          0.103966E-03
      0.380000          0.101212E-03
      0.385000          0.986258E-04
      0.390000          0.962942E-04
      0.395000          0.942779E-04
      0.400000          0.925881E-04
      0.405000          0.911908E-04
      0.410000          0.900349E-04
      0.415000          0.890840E-04
      0.420000          0.883351E-04
      0.425000          0.878114E-04
      0.430000          0.875344E-04
      0.435000          0.874905E-04
      0.440000          0.876106E-04
      0.445000          0.877742E-04
      0.450000          0.878376E-04
      0.455000          0.876726E-04
      0.460000          0.871988E-04
      0.465000          0.863948E-04
      0.470000          0.852860E-04
      0.475000          0.839178E-04
      0.480000          0.823298E-04
      0.485000          0.805442E-04
      0.490000          0.785728E-04
      0.495000          0.764357E-04
      0.500000          0.741804E-04
