 I_abs(s)[cm^-1]/c[mg/ml]
       0.00000          0.119613E-01
      0.500000E-02      0.117457E-01
      0.100000E-01      0.111325E-01
      0.150000E-01      0.102135E-01
      0.200000E-01      0.911712E-02
      0.250000E-01      0.797927E-02
      0.300000E-01      0.691536E-02
      0.350000E-01      0.600143E-02
      0.400000E-01      0.526782E-02
      0.450000E-01      0.470538E-02
      0.500000E-01      0.427978E-02
      0.550000E-01      0.394835E-02
      0.600000E-01      0.367365E-02
      0.650000E-01      0.343085E-02
      0.700000E-01      0.320823E-02
      0.750000E-01      0.300317E-02
      0.800000E-01      0.281643E-02
      0.850000E-01      0.264775E-02
      0.900000E-01      0.249401E-02
      0.950000E-01      0.235006E-02
      0.100000          0.221079E-02
      0.105000          0.207319E-02
      0.110000          0.193720E-02
      0.115000          0.180522E-02
      0.120000          0.168063E-02
      0.125000          0.156626E-02
      0.130000          0.146337E-02
      0.135000          0.137147E-02
      0.140000          0.128882E-02
      0.145000          0.121324E-02
      0.150000          0.114276E-02
      0.155000          0.107604E-02
      0.160000          0.101237E-02
      0.165000          0.951569E-03
      0.170000          0.893768E-03
      0.175000          0.839276E-03
      0.180000          0.788471E-03
      0.185000          0.741688E-03
      0.190000          0.699076E-03
      0.195000          0.660461E-03
      0.200000          0.625277E-03
      0.205000          0.592625E-03
      0.210000          0.561452E-03
      0.215000          0.530807E-03
      0.220000          0.500068E-03
      0.225000          0.469056E-03
      0.230000          0.438017E-03
      0.235000          0.407484E-03
      0.240000          0.378091E-03
      0.245000          0.350423E-03
      0.250000          0.324909E-03
      0.255000          0.301787E-03
      0.260000          0.281112E-03
      0.265000          0.262764E-03
      0.270000          0.246481E-03
      0.275000          0.231886E-03
      0.280000          0.218552E-03
      0.285000          0.206081E-03
      0.290000          0.194184E-03
      0.295000          0.182737E-03
      0.300000          0.171786E-03
      0.305000          0.161494E-03
      0.310000          0.152054E-03
      0.315000          0.143605E-03
      0.320000          0.136182E-03
      0.325000          0.129706E-03
      0.330000          0.124027E-03
      0.335000          0.118971E-03
      0.340000          0.114388E-03
      0.345000          0.110169E-03
      0.350000          0.106245E-03
      0.355000          0.102574E-03
      0.360000          0.991314E-04
      0.365000          0.959087E-04
      0.370000          0.929222E-04
      0.375000          0.902167E-04
      0.380000          0.878593E-04
      0.385000          0.859195E-04
      0.390000          0.844408E-04
      0.395000          0.834170E-04
      0.400000          0.827821E-04
      0.405000          0.824194E-04
      0.410000          0.821849E-04
      0.415000          0.819368E-04
      0.420000          0.815610E-04
      0.425000          0.809872E-04
      0.430000          0.801955E-04
      0.435000          0.792162E-04
      0.440000          0.781241E-04
      0.445000          0.770282E-04
      0.450000          0.760517E-04
      0.455000          0.753026E-04
      0.460000          0.748402E-04
      0.465000          0.746481E-04
      0.470000          0.746271E-04
      0.475000          0.746169E-04
      0.480000          0.744416E-04
      0.485000          0.739652E-04
      0.490000          0.731342E-04
      0.495000          0.719906E-04
      0.500000          0.706505E-04
