 I_abs(s)[cm^-1]/c[mg/ml]
       0.00000          0.122798E-01
      0.500000E-02      0.120708E-01
      0.100000E-01      0.114749E-01
      0.150000E-01      0.105784E-01
      0.200000E-01      0.950199E-02
      0.250000E-01      0.837419E-02
      0.300000E-01      0.730519E-02
      0.350000E-01      0.636894E-02
      0.400000E-01      0.559679E-02
      0.450000E-01      0.498285E-02
      0.500000E-01      0.449733E-02
      0.550000E-01      0.410236E-02
      0.600000E-01      0.376518E-02
      0.650000E-01      0.346528E-02
      0.700000E-01      0.319501E-02
      0.750000E-01      0.295524E-02
      0.800000E-01      0.274925E-02
      0.850000E-01      0.257766E-02
      0.900000E-01      0.243611E-02
      0.950000E-01      0.231603E-02
      0.100000          0.220723E-02
      0.105000          0.210097E-02
      0.110000          0.199199E-02
      0.115000          0.187892E-02
      0.120000          0.176343E-02
      0.125000          0.164856E-02
      0.130000          0.153733E-02
      0.135000          0.143183E-02
      0.140000          0.133312E-02
      0.145000          0.124160E-02
      0.150000          0.115733E-02
      0.155000          0.108039E-02
      0.160000          0.101073E-02
      0.165000          0.948132E-03
      0.170000          0.892006E-03
      0.175000          0.841454E-03
      0.180000          0.795435E-03
      0.185000          0.752997E-03
      0.190000          0.713441E-03
      0.195000          0.676343E-03
      0.200000          0.641455E-03
      0.205000          0.608566E-03
      0.210000          0.577408E-03
      0.215000          0.547652E-03
      0.220000          0.518995E-03
      0.225000          0.491259E-03
      0.230000          0.464447E-03
      0.235000          0.438721E-03
      0.240000          0.414302E-03
      0.245000          0.391357E-03
      0.250000          0.369920E-03
      0.255000          0.349875E-03
      0.260000          0.330997E-03
      0.265000          0.313029E-03
      0.270000          0.295752E-03
      0.275000          0.279023E-03
      0.280000          0.262783E-03
      0.285000          0.247043E-03
      0.290000          0.231869E-03
      0.295000          0.217369E-03
      0.300000          0.203675E-03
      0.305000          0.190935E-03
      0.310000          0.179276E-03
      0.315000          0.168778E-03
      0.320000          0.159452E-03
      0.325000          0.151234E-03
      0.330000          0.144008E-03
      0.335000          0.137642E-03
      0.340000          0.132013E-03
      0.345000          0.127028E-03
      0.350000          0.122612E-03
      0.355000          0.118694E-03
      0.360000          0.115185E-03
      0.365000          0.111986E-03
      0.370000          0.109001E-03
      0.375000          0.106165E-03
      0.380000          0.103460E-03
      0.385000          0.100903E-03
      0.390000          0.985287E-04
      0.395000          0.963468E-04
      0.400000          0.943250E-04
      0.405000          0.923857E-04
      0.410000          0.904280E-04
      0.415000          0.883624E-04
      0.420000          0.861430E-04
      0.425000          0.837851E-04
      0.430000          0.813619E-04
      0.435000          0.789854E-04
      0.440000          0.767765E-04
      0.445000          0.748359E-04
      0.450000          0.732212E-04
      0.455000          0.719385E-04
      0.460000          0.709462E-04
      0.465000          0.701710E-04
      0.470000          0.695266E-04
      0.475000          0.689305E-04
      0.480000          0.683116E-04
      0.485000          0.676108E-04
      0.490000          0.667791E-04
      0.495000          0.657793E-04
      0.500000          0.645936E-04
