 I_abs(s)[cm^-1]/c[mg/ml]
       0.00000          0.120983E-01
      0.500000E-02      0.118429E-01
      0.100000E-01      0.111212E-01
      0.150000E-01      0.100549E-01
      0.200000E-01      0.881170E-02
      0.250000E-01      0.756444E-02
      0.300000E-01      0.645233E-02
      0.350000E-01      0.555598E-02
      0.400000E-01      0.489130E-02
      0.450000E-01      0.442163E-02
      0.500000E-01      0.408156E-02
      0.550000E-01      0.380335E-02
      0.600000E-01      0.353730E-02
      0.650000E-01      0.326096E-02
      0.700000E-01      0.297694E-02
      0.750000E-01      0.270272E-02
      0.800000E-01      0.245807E-02
      0.850000E-01      0.225517E-02
      0.900000E-01      0.209436E-02
      0.950000E-01      0.196579E-02
      0.100000          0.185475E-02
      0.105000          0.174772E-02
      0.110000          0.163667E-02
      0.115000          0.152021E-02
      0.120000          0.140217E-02
      0.125000          0.128856E-02
      0.130000          0.118471E-02
      0.135000          0.109349E-02
      0.140000          0.101501E-02
      0.145000          0.947470E-03
      0.150000          0.888332E-03
      0.155000          0.835381E-03
      0.160000          0.787195E-03
      0.165000          0.743108E-03
      0.170000          0.702885E-03
      0.175000          0.666366E-03
      0.180000          0.633247E-03
      0.185000          0.603041E-03
      0.190000          0.575157E-03
      0.195000          0.549013E-03
      0.200000          0.524134E-03
      0.205000          0.500215E-03
      0.210000          0.477153E-03
      0.215000          0.455029E-03
      0.220000          0.434048E-03
      0.225000          0.414421E-03
      0.230000          0.396229E-03
      0.235000          0.379330E-03
      0.240000          0.363354E-03
      0.245000          0.347827E-03
      0.250000          0.332382E-03
      0.255000          0.316949E-03
      0.260000          0.301848E-03
      0.265000          0.287698E-03
      0.270000          0.275169E-03
      0.275000          0.264682E-03
      0.280000          0.256187E-03
      0.285000          0.249132E-03
      0.290000          0.242663E-03
      0.295000          0.235949E-03
      0.300000          0.228525E-03
      0.305000          0.220465E-03
      0.310000          0.212331E-03
      0.315000          0.204898E-03
      0.320000          0.198793E-03
      0.325000          0.194193E-03
      0.330000          0.190731E-03
      0.335000          0.187637E-03
      0.340000          0.184052E-03
      0.345000          0.179376E-03
      0.350000          0.173492E-03
      0.355000          0.166774E-03
      0.360000          0.159891E-03
      0.365000          0.153501E-03
      0.370000          0.147979E-03
      0.375000          0.143302E-03
      0.380000          0.139117E-03
      0.385000          0.134956E-03
      0.390000          0.130472E-03
      0.395000          0.125583E-03
      0.400000          0.120469E-03
      0.405000          0.115449E-03
      0.410000          0.110799E-03
      0.415000          0.106629E-03
      0.420000          0.102860E-03
      0.425000          0.993016E-04
      0.430000          0.957718E-04
      0.435000          0.921966E-04
      0.440000          0.886364E-04
      0.445000          0.852444E-04
      0.450000          0.821887E-04
      0.455000          0.795835E-04
      0.460000          0.774574E-04
      0.465000          0.757600E-04
      0.470000          0.743910E-04
      0.475000          0.732296E-04
      0.480000          0.721550E-04
      0.485000          0.710585E-04
      0.490000          0.698529E-04
      0.495000          0.684845E-04
      0.500000          0.669418E-04
