 I_abs(s)[cm^-1]/c[mg/ml]
       0.00000          0.120694E-01
      0.500000E-02      0.118064E-01
      0.100000E-01      0.110668E-01
      0.150000E-01      0.998412E-02
      0.200000E-01      0.874021E-02
      0.250000E-01      0.751733E-02
      0.300000E-01      0.645538E-02
      0.350000E-01      0.562617E-02
      0.400000E-01      0.503067E-02
      0.450000E-01      0.461696E-02
      0.500000E-01      0.430994E-02
      0.550000E-01      0.404097E-02
      0.600000E-01      0.376782E-02
      0.650000E-01      0.348013E-02
      0.700000E-01      0.319186E-02
      0.750000E-01      0.292663E-02
      0.800000E-01      0.270316E-02
      0.850000E-01      0.252667E-02
      0.900000E-01      0.238825E-02
      0.950000E-01      0.227062E-02
      0.100000          0.215640E-02
      0.105000          0.203477E-02
      0.110000          0.190400E-02
      0.115000          0.176960E-02
      0.120000          0.163993E-02
      0.125000          0.152156E-02
      0.130000          0.141666E-02
      0.135000          0.132299E-02
      0.140000          0.123589E-02
      0.145000          0.115099E-02
      0.150000          0.106614E-02
      0.155000          0.981930E-03
      0.160000          0.900813E-03
      0.165000          0.825601E-03
      0.170000          0.758111E-03
      0.175000          0.698573E-03
      0.180000          0.645876E-03
      0.185000          0.598332E-03
      0.190000          0.554505E-03
      0.195000          0.513690E-03
      0.200000          0.475926E-03
      0.205000          0.441656E-03
      0.210000          0.411264E-03
      0.215000          0.384749E-03
      0.220000          0.361643E-03
      0.225000          0.341174E-03
      0.230000          0.322548E-03
      0.235000          0.305228E-03
      0.240000          0.289080E-03
      0.245000          0.274349E-03
      0.250000          0.261478E-03
      0.255000          0.250847E-03
      0.260000          0.242532E-03
      0.265000          0.236175E-03
      0.270000          0.231026E-03
      0.275000          0.226146E-03
      0.280000          0.220699E-03
      0.285000          0.214219E-03
      0.290000          0.206736E-03
      0.295000          0.198712E-03
      0.300000          0.190813E-03
      0.305000          0.183619E-03
      0.310000          0.177395E-03
      0.315000          0.172033E-03
      0.320000          0.167166E-03
      0.325000          0.162397E-03
      0.330000          0.157513E-03
      0.335000          0.152591E-03
      0.340000          0.147935E-03
      0.345000          0.143889E-03
      0.350000          0.140631E-03
      0.355000          0.138045E-03
      0.360000          0.135752E-03
      0.365000          0.133268E-03
      0.370000          0.130229E-03
      0.375000          0.126556E-03
      0.380000          0.122482E-03
      0.385000          0.118440E-03
      0.390000          0.114856E-03
      0.395000          0.111961E-03
      0.400000          0.109719E-03
      0.405000          0.107895E-03
      0.410000          0.106212E-03
      0.415000          0.104512E-03
      0.420000          0.102822E-03
      0.425000          0.101297E-03
      0.430000          0.100080E-03
      0.435000          0.991749E-04
      0.440000          0.984158E-04
      0.445000          0.975519E-04
      0.450000          0.963913E-04
      0.455000          0.949147E-04
      0.460000          0.932805E-04
      0.465000          0.917176E-04
      0.470000          0.903711E-04
      0.475000          0.891958E-04
      0.480000          0.879641E-04
      0.485000          0.863842E-04
      0.490000          0.842574E-04
      0.495000          0.815851E-04
      0.500000          0.785675E-04
