 I_abs(s)[cm^-1]/c[mg/ml]
       0.00000          0.119469E-01
      0.500000E-02      0.116932E-01
      0.100000E-01      0.109768E-01
      0.150000E-01      0.992025E-02
      0.200000E-01      0.869180E-02
      0.250000E-01      0.746384E-02
      0.300000E-01      0.637428E-02
      0.350000E-01      0.550190E-02
      0.400000E-01      0.486113E-02
      0.450000E-01      0.441484E-02
      0.500000E-01      0.409832E-02
      0.550000E-01      0.384488E-02
      0.600000E-01      0.360518E-02
      0.650000E-01      0.335542E-02
      0.700000E-01      0.309494E-02
      0.750000E-01      0.283693E-02
      0.800000E-01      0.259742E-02
      0.850000E-01      0.238711E-02
      0.900000E-01      0.220816E-02
      0.950000E-01      0.205550E-02
      0.100000          0.192071E-02
      0.105000          0.179599E-02
      0.110000          0.167663E-02
      0.115000          0.156134E-02
      0.120000          0.145116E-02
      0.125000          0.134793E-02
      0.130000          0.125309E-02
      0.135000          0.116726E-02
      0.140000          0.109034E-02
      0.145000          0.102188E-02
      0.150000          0.961156E-03
      0.155000          0.907260E-03
      0.160000          0.858957E-03
      0.165000          0.814751E-03
      0.170000          0.773131E-03
      0.175000          0.732941E-03
      0.180000          0.693671E-03
      0.185000          0.655520E-03
      0.190000          0.619174E-03
      0.195000          0.585402E-03
      0.200000          0.554676E-03
      0.205000          0.526959E-03
      0.210000          0.501749E-03
      0.215000          0.478307E-03
      0.220000          0.455939E-03
      0.225000          0.434208E-03
      0.230000          0.413000E-03
      0.235000          0.392457E-03
      0.240000          0.372841E-03
      0.245000          0.354410E-03
      0.250000          0.337338E-03
      0.255000          0.321697E-03
      0.260000          0.307474E-03
      0.265000          0.294600E-03
      0.270000          0.282964E-03
      0.275000          0.272423E-03
      0.280000          0.262797E-03
      0.285000          0.253877E-03
      0.290000          0.245421E-03
      0.295000          0.237171E-03
      0.300000          0.228881E-03
      0.305000          0.220353E-03
      0.310000          0.211488E-03
      0.315000          0.202323E-03
      0.320000          0.193029E-03
      0.325000          0.183869E-03
      0.330000          0.175109E-03
      0.335000          0.166917E-03
      0.340000          0.159303E-03
      0.345000          0.152118E-03
      0.350000          0.145134E-03
      0.355000          0.138157E-03
      0.360000          0.131132E-03
      0.365000          0.124177E-03
      0.370000          0.117537E-03
      0.375000          0.111467E-03
      0.380000          0.106118E-03
      0.385000          0.101460E-03
      0.390000          0.972982E-04
      0.395000          0.933613E-04
      0.400000          0.894168E-04
      0.405000          0.853668E-04
      0.410000          0.812790E-04
      0.415000          0.773481E-04
      0.420000          0.738107E-04
      0.425000          0.708550E-04
      0.430000          0.685607E-04
      0.435000          0.668879E-04
      0.440000          0.657066E-04
      0.445000          0.648493E-04
      0.450000          0.641603E-04
      0.455000          0.635246E-04
      0.460000          0.628745E-04
      0.465000          0.621780E-04
      0.470000          0.614230E-04
      0.475000          0.606069E-04
      0.480000          0.597354E-04
      0.485000          0.588272E-04
      0.490000          0.579155E-04
      0.495000          0.570416E-04
      0.500000          0.562386E-04
