 I_abs(s)[cm^-1]/c[mg/ml]
       0.00000          0.121056E-01
      0.500000E-02      0.118884E-01
      0.100000E-01      0.112685E-01
      0.150000E-01      0.103329E-01
      0.200000E-01      0.920482E-02
      0.250000E-01      0.801805E-02
      0.300000E-01      0.689047E-02
      0.350000E-01      0.590521E-02
      0.400000E-01      0.510224E-02
      0.450000E-01      0.448132E-02
      0.500000E-01      0.401368E-02
      0.550000E-01      0.365757E-02
      0.600000E-01      0.337263E-02
      0.650000E-01      0.312945E-02
      0.700000E-01      0.291266E-02
      0.750000E-01      0.271850E-02
      0.800000E-01      0.254918E-02
      0.850000E-01      0.240707E-02
      0.900000E-01      0.229068E-02
      0.950000E-01      0.219374E-02
      0.100000          0.210679E-02
      0.105000          0.202009E-02
      0.110000          0.192646E-02
      0.115000          0.182289E-02
      0.120000          0.171056E-02
      0.125000          0.159359E-02
      0.130000          0.147724E-02
      0.135000          0.136627E-02
      0.140000          0.126391E-02
      0.145000          0.117171E-02
      0.150000          0.108975E-02
      0.155000          0.101729E-02
      0.160000          0.953190E-03
      0.165000          0.896247E-03
      0.170000          0.845303E-03
      0.175000          0.799274E-03
      0.180000          0.757181E-03
      0.185000          0.718220E-03
      0.190000          0.681834E-03
      0.195000          0.647738E-03
      0.200000          0.615862E-03
      0.205000          0.586213E-03
      0.210000          0.558735E-03
      0.215000          0.533196E-03
      0.220000          0.509183E-03
      0.225000          0.486162E-03
      0.230000          0.463609E-03
      0.235000          0.441117E-03
      0.240000          0.418472E-03
      0.245000          0.395664E-03
      0.250000          0.372851E-03
      0.255000          0.350304E-03
      0.260000          0.328357E-03
      0.265000          0.307353E-03
      0.270000          0.287612E-03
      0.275000          0.269388E-03
      0.280000          0.252831E-03
      0.285000          0.237955E-03
      0.290000          0.224641E-03
      0.295000          0.212665E-03
      0.300000          0.201749E-03
      0.305000          0.191635E-03
      0.310000          0.182121E-03
      0.315000          0.173085E-03
      0.320000          0.164460E-03
      0.325000          0.156202E-03
      0.330000          0.148262E-03
      0.335000          0.140587E-03
      0.340000          0.133150E-03
      0.345000          0.125988E-03
      0.350000          0.119225E-03
      0.355000          0.113059E-03
      0.360000          0.107708E-03
      0.365000          0.103329E-03
      0.370000          0.999513E-04
      0.375000          0.974575E-04
      0.380000          0.956108E-04
      0.385000          0.941316E-04
      0.390000          0.927813E-04
      0.395000          0.914182E-04
      0.400000          0.900068E-04
      0.405000          0.885807E-04
      0.410000          0.871852E-04
      0.415000          0.858318E-04
      0.420000          0.844852E-04
      0.425000          0.830867E-04
      0.430000          0.815958E-04
      0.435000          0.800267E-04
      0.440000          0.784591E-04
      0.445000          0.770200E-04
      0.450000          0.758439E-04
      0.455000          0.750299E-04
      0.460000          0.746106E-04
      0.465000          0.745427E-04
      0.470000          0.747193E-04
      0.475000          0.749973E-04
      0.480000          0.752318E-04
      0.485000          0.753040E-04
      0.490000          0.751376E-04
      0.495000          0.746969E-04
      0.500000          0.739735E-04
