 I_abs(s)[cm^-1]/c[mg/ml]
       0.00000          0.117109E-01
      0.500000E-02      0.114426E-01
      0.100000E-01      0.106855E-01
      0.150000E-01      0.957006E-02
      0.200000E-01      0.827626E-02
      0.250000E-01      0.698922E-02
      0.300000E-01      0.585796E-02
      0.350000E-01      0.496829E-02
      0.400000E-01      0.433609E-02
      0.450000E-01      0.392026E-02
      0.500000E-01      0.364820E-02
      0.550000E-01      0.344422E-02
      0.600000E-01      0.325154E-02
      0.650000E-01      0.304250E-02
      0.700000E-01      0.281651E-02
      0.750000E-01      0.258950E-02
      0.800000E-01      0.238081E-02
      0.850000E-01      0.220282E-02
      0.900000E-01      0.205665E-02
      0.950000E-01      0.193385E-02
      0.100000          0.182190E-02
      0.105000          0.171032E-02
      0.110000          0.159450E-02
      0.115000          0.147641E-02
      0.120000          0.136224E-02
      0.125000          0.125891E-02
      0.130000          0.117085E-02
      0.135000          0.109852E-02
      0.140000          0.103874E-02
      0.145000          0.986386E-03
      0.150000          0.936479E-03
      0.155000          0.885733E-03
      0.160000          0.833198E-03
      0.165000          0.779941E-03
      0.170000          0.728151E-03
      0.175000          0.680117E-03
      0.180000          0.637439E-03
      0.185000          0.600662E-03
      0.190000          0.569293E-03
      0.195000          0.542099E-03
      0.200000          0.517529E-03
      0.205000          0.494118E-03
      0.210000          0.470802E-03
      0.215000          0.447069E-03
      0.220000          0.422963E-03
      0.225000          0.398932E-03
      0.230000          0.375606E-03
      0.235000          0.353568E-03
      0.240000          0.333201E-03
      0.245000          0.314640E-03
      0.250000          0.297824E-03
      0.255000          0.282594E-03
      0.260000          0.268774E-03
      0.265000          0.256198E-03
      0.270000          0.244687E-03
      0.275000          0.234012E-03
      0.280000          0.223897E-03
      0.285000          0.214086E-03
      0.290000          0.204451E-03
      0.295000          0.195086E-03
      0.300000          0.186318E-03
      0.305000          0.178613E-03
      0.310000          0.172382E-03
      0.315000          0.167783E-03
      0.320000          0.164590E-03
      0.325000          0.162212E-03
      0.330000          0.159859E-03
      0.335000          0.156802E-03
      0.340000          0.152624E-03
      0.345000          0.147358E-03
      0.350000          0.141460E-03
      0.355000          0.135619E-03
      0.360000          0.130488E-03
      0.365000          0.126440E-03
      0.370000          0.123433E-03
      0.375000          0.121042E-03
      0.380000          0.118634E-03
      0.385000          0.115614E-03
      0.390000          0.111640E-03
      0.395000          0.106748E-03
      0.400000          0.101322E-03
      0.405000          0.959535E-04
      0.410000          0.912257E-04
      0.415000          0.875235E-04
      0.420000          0.849209E-04
      0.425000          0.831853E-04
      0.430000          0.818845E-04
      0.435000          0.805507E-04
      0.440000          0.788375E-04
      0.445000          0.766170E-04
      0.450000          0.739913E-04
      0.455000          0.712245E-04
      0.460000          0.686325E-04
      0.465000          0.664723E-04
      0.470000          0.648704E-04
      0.475000          0.638064E-04
      0.480000          0.631467E-04
      0.485000          0.627066E-04
      0.490000          0.623133E-04
      0.495000          0.618491E-04
      0.500000          0.612643E-04
