 I_abs(s)[cm^-1]/c[mg/ml]
       0.00000          0.120261E-01
      0.500000E-02      0.117731E-01
      0.100000E-01      0.110607E-01
      0.150000E-01      0.100154E-01
      0.200000E-01      0.880903E-02
      0.250000E-01      0.761407E-02
      0.300000E-01      0.656358E-02
      0.350000E-01      0.572761E-02
      0.400000E-01      0.511106E-02
      0.450000E-01      0.467033E-02
      0.500000E-01      0.434003E-02
      0.550000E-01      0.405912E-02
      0.600000E-01      0.378794E-02
      0.650000E-01      0.351284E-02
      0.700000E-01      0.324011E-02
      0.750000E-01      0.298454E-02
      0.800000E-01      0.275859E-02
      0.850000E-01      0.256623E-02
      0.900000E-01      0.240257E-02
      0.950000E-01      0.225760E-02
      0.100000          0.212123E-02
      0.105000          0.198692E-02
      0.110000          0.185282E-02
      0.115000          0.172068E-02
      0.120000          0.159365E-02
      0.125000          0.147449E-02
      0.130000          0.136465E-02
      0.135000          0.126441E-02
      0.140000          0.117346E-02
      0.145000          0.109138E-02
      0.150000          0.101780E-02
      0.155000          0.952212E-03
      0.160000          0.893771E-03
      0.165000          0.841239E-03
      0.170000          0.793226E-03
      0.175000          0.748526E-03
      0.180000          0.706375E-03
      0.185000          0.666497E-03
      0.190000          0.628935E-03
      0.195000          0.593791E-03
      0.200000          0.561010E-03
      0.205000          0.530332E-03
      0.210000          0.501375E-03
      0.215000          0.473793E-03
      0.220000          0.447408E-03
      0.225000          0.422241E-03
      0.230000          0.398459E-03
      0.235000          0.376265E-03
      0.240000          0.355787E-03
      0.245000          0.337026E-03
      0.250000          0.319856E-03
      0.255000          0.304074E-03
      0.260000          0.289476E-03
      0.265000          0.275908E-03
      0.270000          0.263282E-03
      0.275000          0.251551E-03
      0.280000          0.240646E-03
      0.285000          0.230428E-03
      0.290000          0.220686E-03
      0.295000          0.211186E-03
      0.300000          0.201772E-03
      0.305000          0.192453E-03
      0.310000          0.183434E-03
      0.315000          0.175048E-03
      0.320000          0.167605E-03
      0.325000          0.161227E-03
      0.330000          0.155737E-03
      0.335000          0.150686E-03
      0.340000          0.145489E-03
      0.345000          0.139650E-03
      0.350000          0.132950E-03
      0.355000          0.125535E-03
      0.360000          0.117845E-03
      0.365000          0.110446E-03
      0.370000          0.103812E-03
      0.375000          0.981746E-04
      0.380000          0.934952E-04
      0.385000          0.895461E-04
      0.390000          0.860573E-04
      0.395000          0.828426E-04
      0.400000          0.798494E-04
      0.405000          0.771207E-04
      0.410000          0.747135E-04
      0.415000          0.726307E-04
      0.420000          0.708107E-04
      0.425000          0.691703E-04
      0.430000          0.676635E-04
      0.435000          0.663060E-04
      0.440000          0.651457E-04
      0.445000          0.642009E-04
      0.450000          0.634125E-04
      0.455000          0.626496E-04
      0.460000          0.617712E-04
      0.465000          0.607051E-04
      0.470000          0.594930E-04
      0.475000          0.582697E-04
      0.480000          0.571889E-04
      0.485000          0.563410E-04
      0.490000          0.557102E-04
      0.495000          0.551952E-04
      0.500000          0.546737E-04
