 I_abs(s)[cm^-1]/c[mg/ml]
       0.00000          0.123382E-01
      0.500000E-02      0.121392E-01
      0.100000E-01      0.115700E-01
      0.150000E-01      0.107082E-01
      0.200000E-01      0.966377E-02
      0.250000E-01      0.855579E-02
      0.300000E-01      0.748922E-02
      0.350000E-01      0.653789E-02
      0.400000E-01      0.573694E-02
      0.450000E-01      0.508581E-02
      0.500000E-01      0.455902E-02
      0.550000E-01      0.412070E-02
      0.600000E-01      0.373809E-02
      0.650000E-01      0.339019E-02
      0.700000E-01      0.307029E-02
      0.750000E-01      0.278270E-02
      0.800000E-01      0.253635E-02
      0.850000E-01      0.233797E-02
      0.900000E-01      0.218755E-02
      0.950000E-01      0.207711E-02
      0.100000          0.199290E-02
      0.105000          0.191938E-02
      0.110000          0.184349E-02
      0.115000          0.175752E-02
      0.120000          0.165991E-02
      0.125000          0.155402E-02
      0.130000          0.144570E-02
      0.135000          0.134074E-02
      0.140000          0.124303E-02
      0.145000          0.115393E-02
      0.150000          0.107267E-02
      0.155000          0.997495E-03
      0.160000          0.926795E-03
      0.165000          0.859868E-03
      0.170000          0.797096E-03
      0.175000          0.739583E-03
      0.180000          0.688533E-03
      0.185000          0.644650E-03
      0.190000          0.607804E-03
      0.195000          0.577019E-03
      0.200000          0.550751E-03
      0.205000          0.527295E-03
      0.210000          0.505182E-03
      0.215000          0.483445E-03
      0.220000          0.461700E-03
      0.225000          0.440073E-03
      0.230000          0.419001E-03
      0.235000          0.399003E-03
      0.240000          0.380470E-03
      0.245000          0.363527E-03
      0.250000          0.347994E-03
      0.255000          0.333437E-03
      0.260000          0.319300E-03
      0.265000          0.305060E-03
      0.270000          0.290371E-03
      0.275000          0.275147E-03
      0.280000          0.259570E-03
      0.285000          0.244020E-03
      0.290000          0.228961E-03
      0.295000          0.214812E-03
      0.300000          0.201860E-03
      0.305000          0.190217E-03
      0.310000          0.179839E-03
      0.315000          0.170578E-03
      0.320000          0.162251E-03
      0.325000          0.154687E-03
      0.330000          0.147767E-03
      0.335000          0.141421E-03
      0.340000          0.135625E-03
      0.345000          0.130379E-03
      0.350000          0.125696E-03
      0.355000          0.121581E-03
      0.360000          0.118030E-03
      0.365000          0.115011E-03
      0.370000          0.112462E-03
      0.375000          0.110290E-03
      0.380000          0.108385E-03
      0.385000          0.106634E-03
      0.390000          0.104948E-03
      0.395000          0.103281E-03
      0.400000          0.101634E-03
      0.405000          0.100046E-03
      0.410000          0.985721E-04
      0.415000          0.972553E-04
      0.420000          0.961063E-04
      0.425000          0.950947E-04
      0.430000          0.941579E-04
      0.435000          0.932212E-04
      0.440000          0.922235E-04
      0.445000          0.911357E-04
      0.450000          0.899679E-04
      0.455000          0.887600E-04
      0.460000          0.875602E-04
      0.465000          0.863985E-04
      0.470000          0.852649E-04
      0.475000          0.841013E-04
      0.480000          0.828125E-04
      0.485000          0.812948E-04
      0.490000          0.794746E-04
      0.495000          0.773441E-04
      0.500000          0.749811E-04
