 I_abs(s)[cm^-1]/c[mg/ml]
       0.00000          0.116611E-01
      0.500000E-02      0.114014E-01
      0.100000E-01      0.106667E-01
      0.150000E-01      0.957951E-02
      0.200000E-01      0.831045E-02
      0.250000E-01      0.703838E-02
      0.300000E-01      0.591179E-02
      0.350000E-01      0.502167E-02
      0.400000E-01      0.439206E-02
      0.450000E-01      0.398873E-02
      0.500000E-01      0.374097E-02
      0.550000E-01      0.356852E-02
      0.600000E-01      0.340494E-02
      0.650000E-01      0.321158E-02
      0.700000E-01      0.297991E-02
      0.750000E-01      0.272426E-02
      0.800000E-01      0.246935E-02
      0.850000E-01      0.223819E-02
      0.900000E-01      0.204400E-02
      0.950000E-01      0.188801E-02
      0.100000          0.176232E-02
      0.105000          0.165532E-02
      0.110000          0.155692E-02
      0.115000          0.146163E-02
      0.120000          0.136883E-02
      0.125000          0.128089E-02
      0.130000          0.120046E-02
      0.135000          0.112853E-02
      0.140000          0.106378E-02
      0.145000          0.100338E-02
      0.150000          0.944535E-03
      0.155000          0.885833E-03
      0.160000          0.827819E-03
      0.165000          0.772559E-03
      0.170000          0.722526E-03
      0.175000          0.679374E-03
      0.180000          0.643167E-03
      0.185000          0.612351E-03
      0.190000          0.584408E-03
      0.195000          0.556856E-03
      0.200000          0.528140E-03
      0.205000          0.498075E-03
      0.210000          0.467724E-03
      0.215000          0.438815E-03
      0.220000          0.412993E-03
      0.225000          0.391199E-03
      0.230000          0.373396E-03
      0.235000          0.358683E-03
      0.240000          0.345702E-03
      0.245000          0.333134E-03
      0.250000          0.320107E-03
      0.255000          0.306362E-03
      0.260000          0.292184E-03
      0.265000          0.278146E-03
      0.270000          0.264814E-03
      0.275000          0.252528E-03
      0.280000          0.241327E-03
      0.285000          0.231029E-03
      0.290000          0.221396E-03
      0.295000          0.212295E-03
      0.300000          0.203781E-03
      0.305000          0.196060E-03
      0.310000          0.189370E-03
      0.315000          0.183826E-03
      0.320000          0.179327E-03
      0.325000          0.175555E-03
      0.330000          0.172078E-03
      0.335000          0.168508E-03
      0.340000          0.164645E-03
      0.345000          0.160527E-03
      0.350000          0.156389E-03
      0.355000          0.152526E-03
      0.360000          0.149147E-03
      0.365000          0.146266E-03
      0.370000          0.143708E-03
      0.375000          0.141189E-03
      0.380000          0.138457E-03
      0.385000          0.135412E-03
      0.390000          0.132146E-03
      0.395000          0.128896E-03
      0.400000          0.125921E-03
      0.405000          0.123377E-03
      0.410000          0.121245E-03
      0.415000          0.119337E-03
      0.420000          0.117383E-03
      0.425000          0.115153E-03
      0.430000          0.112543E-03
      0.435000          0.109603E-03
      0.440000          0.106479E-03
      0.445000          0.103325E-03
      0.450000          0.100208E-03
      0.455000          0.970791E-04
      0.460000          0.938013E-04
      0.465000          0.902380E-04
      0.470000          0.863425E-04
      0.475000          0.822114E-04
      0.480000          0.780732E-04
      0.485000          0.742167E-04
      0.490000          0.708913E-04
      0.495000          0.682228E-04
      0.500000          0.661787E-04
